###################################################################
## OUTPUT of StarlightChains_v04.for    [Cid@UFSC - 01/Apr/2007] ##
###################################################################

## Some input info
KUG0210-078._27_42.txt                   [arq_obs]
Base.CB07.vall.4m                        [arq_base]
Masks.EmLines.NEW.gm                     [arq_masks]
StCv04.C11.config                        [arq_config]
   66                                    [N_base]
    0                                    [N_YAV_components = # of components with extra extinction!]
    0                                    [i_FitPowerLaw (1/0 = Yes/No)]
-9.99                                    [alpha_PowerLaw]
CCM                                      [red_law_option]
 1.458241                                [q_norm = A(l_norm)/A(V)]

## (Re)Sampling Parameters
 3741.00                                 [l_ini (A)]
 7218.00                                 [l_fin (A)]
    1.00                                 [dl    (A)]     (OBS: dl_cushion =    50.00 A)

## Normalization info
 4020.00                                 [l_norm (A) - for base]
 4010.00                                 [llow_norm (A) - window for f_obs]
 4060.00                                 [lupp_norm (A) - window for f_obs]
7.495232E-18                             [fobs_norm (in input units)]

## S/N
 3691.00                                 [llow_SN (A) - window for S/N]
 7268.00                                 [lupp_SN (A) - window for S/N]
   4.370                                 [S/N in S/N window]
   3.384                                 [S/N in norm. window]
   0.013                                 [S/N_err in S/N window]
   0.010                                 [S/N_err in norm. window]
  1.0000                                 [fscale_chi2]

## etc...
    -2007362                             [idum_orig]
  2415                                   [NOl_eff]
  2042                                   [Nl_eff]
   373    NSIGMA                         [Ntot_cliped & clip_method]
 10562160                                [Nglobal_steps]
   7                                     [N_chains]
   7                                     [NEX0s_base = N_base in EX0s-fits]
 0   0   1      373   2.0   6.473E+03    [Clip-Bug, RC-Crash & Burn-In warning-flags, n_censored_weights, wei_nsig_threshold & wei_limit]
    73     72.728     71.911      0.817  [idt_all, wdt_TotTime, wdt_UsrTime & wdt_SysTime (sec)]

## Synthesis Results - Best model ##

 4.11811E-06                             [chi2/Nl_eff]
     9.47298                             [adev (%)]

   130.00000                             [sum-of-x (%)]
 2.56081E-18                             [Flux_tot (units of input spectrum!)]
 2.74757E-13                             [Mini_tot (???)]
 1.39183E-13                             [Mcor_tot (???)]

-213.18                                  [v0_min  (km/s)]
 251.09                                  [vd_min  (km/s)]
-0.9949                                  [AV_min  (mag)]
 0.0000                                  [YAV_min (mag)]

# j     x_j(%)      Mini_j(%)     Mcor_j(%)     age_j(yr)     Z_j      (L/M)_j    YAV?  Mstars   component_j        a/Fe...       SSP_chi2r SSP_adev(%)   SSP_AV   SSP_x(%)
  1      0.0000     0.0000E+00    0.0000E+00    1.000000E+06  0.00400  1.094E-02    0   1.0000   age020_m42            0.0000     4.0742E-06     9.7002   2.6607   144.7377
  2      0.0000     0.0000E+00    0.0000E+00    3.160000E+06  0.00400  4.007E-02    0   0.9999   age045_m42            0.0000     4.1212E-06     9.6131   2.0029   150.2778
  3      0.0000     0.0000E+00    0.0000E+00    5.010000E+06  0.00400  2.539E-02    0   0.9488   age055_m42            0.0000     4.0425E-06     9.5707   2.2898   148.7422
  4      0.0000     0.0000E+00    0.0000E+00    6.610000E+06  0.00400  2.620E-02    0   0.9220   age061_m42            0.0000     4.0680E-06     9.5401   1.9276   150.8542
  5      0.0000     0.0000E+00    0.0000E+00    1.000000E+07  0.00400  1.322E-02    0   0.8862   age070_m42            0.0000     4.0627E-06     9.5706   1.6179   156.7299
  6      0.0000     0.0000E+00    0.0000E+00    1.445000E+07  0.00400  7.883E-03    0   0.8571   age078_m42            0.0000     4.0511E-06     9.5388   1.9335   153.3940
  7      0.0000     0.0000E+00    0.0000E+00    2.512000E+07  0.00400  5.251E-03    0   0.8174   age090_m42            0.0000     4.1014E-06     9.6462   1.4894   157.6798
  8      0.0000     0.0000E+00    0.0000E+00    4.000000E+07  0.00400  3.649E-03    0   0.7851   age104_m42            0.0000     4.1003E-06     9.6380   1.2757   157.9829
  9      0.0000     0.0000E+00    0.0000E+00    5.500000E+07  0.00400  3.098E-03    0   0.7629   age110_m42            0.0000     4.1226E-06     9.6120   1.4538   155.9765
 10      0.0000     0.0000E+00    0.0000E+00    1.015200E+08  0.00400  2.228E-03    0   0.7207   age116_m42            0.0000     4.1175E-06     9.5889   1.4877   155.1370
 11      0.0000     0.0000E+00    0.0000E+00    2.861200E+08  0.00400  1.093E-03    0   0.6648   age125_m42            0.0000     4.1236E-06     9.7736   0.9166   159.9820
 12      0.0000     0.0000E+00    0.0000E+00    5.088000E+08  0.00400  6.597E-04    0   0.6365   age130_m42            0.0000     4.0710E-06     9.6216   0.9304   159.3582
 13      0.0000     0.0000E+00    0.0000E+00    1.434000E+09  0.00400  2.132E-04    0   0.5798   age139_m42            0.0000     3.8265E-06     9.3591  -0.0107   160.3206
 14      0.0000     0.0000E+00    0.0000E+00    4.250000E+09  0.00400  5.895E-05    0   0.5377   age158_m42            0.0000     3.5721E-06     9.1238  -0.4482   153.3562
 15      0.0000     0.0000E+00    0.0000E+00    7.500000E+09  0.00400  3.510E-05    0   0.5212   age171_m42            0.0000     3.5322E-06     9.0930  -0.6285   151.5961
 16      0.0000     0.0000E+00    0.0000E+00    1.300000E+10  0.00400  2.005E-05    0   0.5034   age193_m42            0.0000     3.5299E-06     9.0976  -0.7910   150.3709
 17      0.0000     0.0000E+00    0.0000E+00    1.800000E+10  0.00400  1.525E-05    0   0.4967   age213_m42            0.0000     3.5211E-06     9.1011  -0.8177   149.9714
 18      0.0000     0.0000E+00    0.0000E+00    1.000000E+06  0.00800  1.238E-02    0   1.0000   age020_m52            0.0000     4.0710E-06     9.6969   2.6579   144.9656
 19      0.0000     0.0000E+00    0.0000E+00    3.160000E+06  0.00800  3.074E-02    0   0.9966   age045_m52            0.0000     4.0532E-06     9.6814   2.5876   145.8667
 20      0.0000     0.0000E+00    0.0000E+00    5.010000E+06  0.00800  2.668E-02    0   0.9443   age055_m52            0.0000     4.0241E-06     9.5605   2.3643   147.9544
 21      0.0000     0.0000E+00    0.0000E+00    6.610000E+06  0.00800  2.136E-02    0   0.9177   age061_m52            0.0000     3.8593E-06     9.3686   1.1148   158.6212
 22      0.0000     0.0000E+00    0.0000E+00    1.000000E+07  0.00800  1.215E-02    0   0.8827   age070_m52            0.0000     4.0962E-06     9.6484   1.7805   157.6309
 23      0.0000     0.0000E+00    0.0000E+00    1.445000E+07  0.00800  8.717E-03    0   0.8552   age078_m52            0.0000     4.0529E-06     9.5465   1.9033   155.2636
 24      0.0000     0.0000E+00    0.0000E+00    2.512000E+07  0.00800  5.592E-03    0   0.8162   age090_m52            0.0000     4.1343E-06     9.7218   1.5589   159.1782
 25      0.0000     0.0000E+00    0.0000E+00    4.000000E+07  0.00800  3.896E-03    0   0.7841   age104_m52            0.0000     4.1387E-06     9.7188   1.4900   158.8929
 26      0.0000     0.0000E+00    0.0000E+00    1.015200E+08  0.00800  2.148E-03    0   0.7226   age116_m52            0.0000     4.0815E-06     9.5954   1.4507   156.8036
 27      0.0000     0.0000E+00    0.0000E+00    2.861200E+08  0.00800  9.925E-04    0   0.6683   age125_m52            0.0000     4.0706E-06     9.6165   1.0002   160.5445
 28      0.0000     0.0000E+00    0.0000E+00    9.047900E+08  0.00800  3.141E-04    0   0.6138   age135_m52            0.0000     3.9244E-06     9.5027   0.2676   161.9667
 29      0.0000     0.0000E+00    0.0000E+00    1.434000E+09  0.00800  1.719E-04    0   0.5853   age139_m52            0.0000     3.6660E-06     9.3290  -0.3332   159.8412
 30      0.0000     0.0000E+00    0.0000E+00    2.500000E+09  0.00800  7.872E-05    0   0.5600   age150_m52            0.0000     3.5458E-06     9.1311  -0.5807   153.8234
 31      0.0000     0.0000E+00    0.0000E+00    4.250000E+09  0.00800  4.336E-05    0   0.5426   age158_m52            0.0000     3.5180E-06     9.0980  -0.5972   152.4308
 32      0.0000     0.0000E+00    0.0000E+00    6.250000E+09  0.00800  3.159E-05    0   0.5319   age166_m52            0.0000     3.5146E-06     9.1171  -0.7848   151.2225
 33      0.0000     0.0000E+00    0.0000E+00    1.300000E+10  0.00800  1.361E-05    0   0.5073   age193_m52            0.0000     3.8261E-06     9.8128  -1.0000   137.4106
 34      0.0000     0.0000E+00    0.0000E+00    1.800000E+10  0.00800  9.886E-06    0   0.4990   age213_m52            0.0000     4.1284E-06    10.3287  -1.0000   131.2572
 35      0.0000     0.0000E+00    0.0000E+00    1.000000E+06  0.02000  1.544E-02    0   1.0000   age020_m62            0.0000     4.0709E-06     9.6999   2.6511   145.4634
 36      0.0000     0.0000E+00    0.0000E+00    3.160000E+06  0.02000  3.762E-02    0   0.9858   age045_m62            0.0000     4.0544E-06     9.6784   2.5913   146.6609
 37      0.0000     0.0000E+00    0.0000E+00    5.010000E+06  0.02000  3.296E-02    0   0.9342   age055_m62            0.0000     4.0507E-06     9.5629   2.2638   149.6330
 38      0.0000     0.0000E+00    0.0000E+00    8.710000E+06  0.02000  1.154E-02    0   0.8861   age067_m62            0.0000     4.4345E-06    10.6424   1.1501   169.5816
 39      0.0000     0.0000E+00    0.0000E+00    1.445000E+07  0.02000  7.663E-03    0   0.8472   age078_m62            0.0000     4.1689E-06     9.9641   1.4101   162.7717
 40      0.0000     0.0000E+00    0.0000E+00    2.512000E+07  0.02000  4.532E-03    0   0.8099   age090_m62            0.0000     4.2138E-06    10.1025   1.4022   162.4108
 41      0.0000     0.0000E+00    0.0000E+00    5.500000E+07  0.02000  2.733E-03    0   0.7595   age110_m62            0.0000     4.0390E-06     9.6040   1.4620   158.4764
 42      0.0000     0.0000E+00    0.0000E+00    1.609000E+08  0.02000  1.369E-03    0   0.6985   age120_m62            0.0000     4.0728E-06     9.5813   1.3438   159.4606
 43      0.0000     0.0000E+00    0.0000E+00    2.861200E+08  0.02000  9.013E-04    0   0.6714   age125_m62            0.0000     4.1133E-06     9.5996   1.1241   161.7357
 44      0.0000     0.0000E+00    0.0000E+00    5.088000E+08  0.02000  5.028E-04    0   0.6449   age130_m62            0.0000     4.0973E-06     9.5359   0.8006   161.6599
 45      0.0000     0.0000E+00    0.0000E+00    9.047900E+08  0.02000  2.428E-04    0   0.6179   age135_m62            0.0000     3.7689E-06     9.2839   0.2311   159.1736
 46      0.0000     0.0000E+00    0.0000E+00    1.434000E+09  0.02000  1.263E-04    0   0.5908   age139_m62            0.0000     3.5897E-06     9.1406  -0.2128   156.6442
 47      0.0000     0.0000E+00    0.0000E+00    2.500000E+09  0.02000  5.985E-05    0   0.5673   age150_m62            0.0000     3.5057E-06     9.1061  -0.5693   153.4489
 48      0.0000     0.0000E+00    0.0000E+00    4.250000E+09  0.02000  3.271E-05    0   0.5468   age158_m62            0.0000     3.5309E-06     9.1866  -0.8546   150.5361
 49     62.8531     3.3134E+01    3.3797E+01    1.000000E+10  0.02000  1.360E-05    0   0.5167   age181_m62            0.0000     3.7535E-06     9.4705  -1.0000   139.2511
 50     65.7471     6.6167E+01    6.5479E+01    1.800000E+10  0.02000  7.124E-06    0   0.5013   age213_m62            0.0000     4.3161E-06    10.4398  -1.0000   127.8485
 51      0.0000     0.0000E+00    0.0000E+00    1.000000E+06  0.05000  2.592E-02    0   0.9998   age020_m72            0.0000     4.0663E-06     9.7040   2.6393   145.7592
 52      0.0000     0.0000E+00    0.0000E+00    3.160000E+06  0.05000  4.845E-02    0   0.9577   age045_m72            0.0000     4.0488E-06     9.6523   2.4953   147.2462
 53      0.0000     0.0000E+00    0.0000E+00    5.010000E+06  0.05000  3.072E-02    0   0.9147   age055_m72            0.0000     4.0799E-06     9.7947   1.9942   155.8905
 54      0.0000     0.0000E+00    0.0000E+00    6.610000E+06  0.05000  1.455E-02    0   0.8877   age061_m72            0.0000     5.2188E-06    12.5342   1.1442   174.7171
 55      0.0000     0.0000E+00    0.0000E+00    1.000000E+07  0.05000  9.074E-03    0   0.8524   age070_m72            0.0000     4.3090E-06    10.4995   2.1605   155.9113
 56      0.0000     0.0000E+00    0.0000E+00    2.512000E+07  0.05000  4.250E-03    0   0.7902   age090_m72            0.0000     4.2424E-06    10.1693   1.8979   156.8703
 57      0.0000     0.0000E+00    0.0000E+00    4.000000E+07  0.05000  3.087E-03    0   0.7618   age104_m72            0.0000     4.3089E-06    10.3315   1.6763   159.2178
 58      0.0000     0.0000E+00    0.0000E+00    1.015200E+08  0.05000  1.700E-03    0   0.7096   age116_m72            0.0000     4.1607E-06     9.7697   1.4708   159.9990
 59      0.0000     0.0000E+00    0.0000E+00    2.861200E+08  0.05000  7.384E-04    0   0.6633   age125_m72            0.0000     4.0656E-06     9.5745   1.0262   161.2856
 60      0.0000     0.0000E+00    0.0000E+00    5.088000E+08  0.05000  3.819E-04    0   0.6372   age130_m72            0.0000     3.8646E-06     9.3790   0.5773   160.4323
 61      0.0000     0.0000E+00    0.0000E+00    9.047900E+08  0.05000  1.676E-04    0   0.6110   age135_m72            0.0000     3.5784E-06     9.1990  -0.0942   155.3906
 62      0.0000     0.0000E+00    0.0000E+00    1.434000E+09  0.05000  8.837E-05    0   0.5874   age139_m72            0.0000     3.5236E-06     9.1432  -0.5546   154.6342
 63      0.0000     0.0000E+00    0.0000E+00    2.500000E+09  0.05000  4.233E-05    0   0.5598   age150_m72            0.0000     3.5417E-06     9.2455  -0.8393   150.6754
 64      1.3999     6.9940E-01    7.2471E-01    6.250000E+09  0.05000  1.435E-05    0   0.5249   age166_m72            0.0000     3.9821E-06     9.9145  -1.0000   133.8858
 65      0.0000     0.0000E+00    0.0000E+00    1.300000E+10  0.05000  6.513E-06    0   0.5036   age193_m72            0.0000     5.0543E-06    11.6991  -1.0000   121.6335
 66      0.0000     0.0000E+00    0.0000E+00    1.800000E+10  0.05000  4.527E-06    0   0.4945   age213_m72            0.0000     5.9453E-06    13.0142  -1.0000   113.9518


## Synthesis Results - Average & Chains ##

# j      x_j: min, <> & last-chain-values for 1 ...  7 chains
  1      0.0000      0.3031      0.0107      0.0000      0.0443      0.0003      0.0103      0.0509      0.0195
  2      0.0000      0.2140      0.0000      0.0716      0.0000      0.0011      0.0083      0.0306      0.0000
  3      0.0000      0.2383      0.0000      0.0000      0.0235      0.0043      0.0130      0.0467      0.0543
  4      0.0000      0.2049      0.0218      0.0889      0.0019      0.0018      0.0147      0.0263      0.0254
  5      0.0000      0.2267      0.0295      0.0000      0.0000      0.0199      0.0152      0.0374      0.0000
  6      0.0000      0.3665      0.0064      0.4975      0.0285      0.0045      0.1242      0.0000      0.0396
  7      0.0000      0.1992      0.0000      0.0000      0.0065      0.0000      0.0274      0.0604      0.0097
  8      0.0000      0.2534      0.0373      0.2854      0.0171      0.0048      0.0184      0.0200      0.0000
  9      0.0000      0.3067      0.0000      0.2760      0.0536      0.0219      0.0000      0.0035      0.0731
 10      0.0000      0.3098      0.0151      0.1151      0.0183      0.0000      0.0172      0.0257      0.0326
 11      0.0000      0.1741      0.0109      0.0000      0.0403      0.0216      0.0272      0.0007      0.0193
 12      0.0000     26.0195     30.8665     26.8577     31.4478     28.8996     34.0371     28.8802     24.1200
 13      0.0000      9.6350     10.4551     10.1111      7.5542     11.3181      7.4231     11.1066     16.0266
 14      0.0000      0.2221      0.0313      0.0735      0.0081      0.0271      0.0321      0.0065      0.0267
 15      0.0000      0.2164      0.0221      0.2419      0.0068      0.0108      0.0132      0.0173      0.0211
 16      0.0000      0.2500      0.0068      0.1103      0.0346      0.0309      0.0303      0.0000      0.0231
 17      0.0000      0.2206      0.0603      0.0746      0.0066      0.0299      0.0229      0.0155      0.0303
 18      0.0000      0.2040      0.0119      0.2381      0.0000      0.0387      0.0285      0.0063      0.0586
 19      0.0000      0.2617      0.0165      0.1648      0.0000      0.0070      0.0000      0.0107      0.0119
 20      0.0000      0.2355      0.0168      0.1728      0.0207      0.0155      0.0032      0.0014      0.0224
 21      0.0000      0.3176      0.0076      0.3303      0.0212      0.0197      0.0488      0.0276      0.0471
 22      0.0000      0.2543      0.0000      0.0878      0.0300      0.0063      0.0379      0.0107      0.0359
 23      0.0000      0.2338      0.0094      0.1130      0.0000      0.0248      0.0176      0.0191      0.0227
 24      0.0000      0.2455      0.0251      0.0134      0.0063      0.0120      0.0444      0.0136      0.0163
 25      0.0000      0.3024      0.0038      0.1631      0.0000      0.0140      0.0038      0.0376      0.0536
 26      0.0000      0.2720      0.0004      0.0000      0.0000      0.0193      0.0465      0.0351      0.0062
 27      0.0000      1.0905      0.1593      1.1502      0.4112      1.2219      2.3416      1.2410      1.2099
 28      0.0000      0.3090      0.0020      0.0127      0.0184      0.0063      0.0312      0.0096      0.0330
 29      0.0000      0.2505      0.0000      0.2479      0.0364      0.0217      0.0225      0.0201      0.0381
 30      0.0000      0.2975      0.0245      0.0085      0.0137      0.0032      0.0551      0.0110      0.0187
 31      0.0000      0.2609      0.0097      0.2110      0.0140      0.0106      0.0000      0.0337      0.0023
 32      0.0000      0.2411      0.0083      0.0000      0.0080      0.0482      0.0228      0.0272      0.0023
 33      0.0000      0.2038      0.0000      0.5365      0.0203      0.0327      0.0291      0.0104      0.0063
 34      0.0000      0.1693      0.0134      0.1322      0.0172      0.0164      0.0604      0.0092      0.0013
 35      0.0000      0.2514      0.0122      0.1554      0.0149      0.0172      0.0183      0.0242      0.0042
 36      0.0000      0.2766      0.0284      0.0025      0.0015      0.0129      0.0000      0.0000      0.0269
 37      0.0000      0.2069      0.0128      0.0000      0.0000      0.0311      0.0196      0.0078      0.0210
 38      0.0000      0.2158      0.0306      0.0000      0.0149      0.0304      0.0280      0.0278      0.0041
 39      0.0000      0.2012      0.0000      0.0555      0.0221      0.0118      0.0513      0.0167      0.0156
 40      0.0000      0.2906      0.0108      0.1216      0.0000      0.0000      0.0169      0.0164      0.0255
 41      0.0000      0.2455      0.0102      0.1077      0.0000      0.0435      0.0386      0.0047      0.0000
 42      0.0000      0.3060      0.0238      0.0512      0.0071      0.0127      0.0081      0.0241      0.0043
 43      0.0000      9.3112      9.7883      9.5085     11.2218     10.5702      4.8589     10.6438     10.6399
 44      0.0000      0.2380      0.0174      0.0000      0.0000      0.0097      0.0049      0.0362      0.0077
 45      0.0000      0.3229      0.0074      0.0000      0.0088      0.0162      0.0468      0.0095      0.0211
 46      0.0000      0.2476      0.0069      0.1161      0.0163      0.0394      0.0121      0.0116      0.0000
 47      0.0000      0.2515      0.0440      0.3816      0.0123      0.0032      0.0043      0.0197      0.0492
 48      0.0000      0.2090      0.0313      0.4336      0.0225      0.0291      0.0000      0.0268      0.0120
 49     62.8531      5.5859      1.8853      5.9061      1.9287     10.7076      7.1687      7.2941      7.3981
 50     65.7471     49.9247     64.0897     55.9519     64.0608     52.9078     61.0972     47.9498     55.9030
 51      0.0000      0.1723      0.0306      0.0444      0.0000      0.0045      0.0107      0.0000      0.0318
 52      0.0000      0.2994      0.0192      0.1064      0.0023      0.0053      0.0000      0.0315      0.0109
 53      0.0000      0.2193      0.0000      0.0787      0.0314      0.0114      0.0320      0.0000      0.0190
 54      0.0000      0.2336      0.0000      0.0991      0.0000      0.0315      0.0103      0.0000      0.0303
 55      0.0000      0.2068      0.0000      0.0088      0.0023      0.0023      0.0188      0.0396      0.0162
 56      0.0000      0.2146      0.0000      0.0000      0.0000      0.0549      0.0326      0.0032      0.0109
 57      0.0000      0.2243      0.0000      0.0061      0.0003      0.0021      0.0000      0.0000      0.0260
 58      0.0000      0.2714      0.0134      0.0000      0.0023      0.0326      0.0261      0.0000      0.0123
 59      0.0000      0.2173      0.0152      0.0000      0.0124      0.0081      0.0264      0.0238      0.0222
 60      0.0000      0.2344      0.0000      0.0491      0.0250      0.0329      0.0090      0.0068      0.0066
 61      0.0000      0.2277      0.0106      0.0000      0.0036      0.0359      0.0058      0.0239      0.0165
 62      0.0000      0.2498      0.0304      0.1551      0.0279      0.0070      0.0320      0.0051      0.0378
 63      0.0000      0.2027      0.0000      0.0379      0.0000      0.0102      0.0138      0.0339      0.0283
 64      1.3999     13.7730     11.9845     14.1624     12.6473     13.3462     11.7469     21.8037     13.4354
 65      0.0000      0.3115      0.0024      0.0000      0.0000      0.0047      0.0122      0.0414      0.0273
 66      0.0000      0.2261      0.0114      0.0729      0.0037      0.0421      0.0135      0.0166      0.0216

# j      m_j: min, <> & last-chain-values for 1 ...  7 chains
  1  0.0000E+00  6.2996E-04  1.9240E-05  0.0000E+00  7.9282E-05  6.1717E-07  1.8546E-05  1.0274E-04  3.7147E-05
  2  0.0000E+00  1.2143E-04  0.0000E+00  3.7227E-05  0.0000E+00  5.8867E-07  4.0657E-06  1.6891E-05  0.0000E+00
  3  0.0000E+00  2.0252E-04  0.0000E+00  0.0000E+00  1.7217E-05  3.4519E-06  9.5994E-06  3.8602E-05  4.2332E-05
  4  0.0000E+00  1.6393E-04  1.5072E-05  6.5156E-05  1.3103E-06  1.3683E-06  1.0201E-05  2.0451E-05  1.8674E-05
  5  0.0000E+00  3.4554E-04  3.8861E-05  0.0000E+00  0.0000E+00  2.8462E-05  2.0103E-05  5.5347E-05  0.0000E+00
  6  0.0000E+00  9.0603E-04  1.3645E-05  1.1265E-03  6.0709E-05  1.0447E-05  2.6633E-04  0.0000E+00  8.9886E-05
  7  0.0000E+00  7.0506E-04  0.0000E+00  0.0000E+00  1.9787E-05  0.0000E+00  8.4150E-05  2.0796E-04  3.1388E-05
  8  0.0000E+00  1.2395E-03  1.5743E-04  1.2786E-03  7.1850E-05  2.2141E-05  7.7935E-05  9.5238E-05  0.0000E+00
  9  0.0000E+00  1.7172E-03  0.0000E+00  1.4151E-03  2.5853E-04  1.1508E-04  0.0000E+00  1.9148E-05  3.7584E-04
 10  0.0000E+00  2.2788E-03  9.5765E-05  7.7550E-04  1.1588E-04  0.0000E+00  1.0995E-04  1.8344E-04  2.2037E-04
 11  0.0000E+00  2.4072E-03  1.3052E-04  0.0000E+00  4.7935E-04  2.7941E-04  3.2644E-04  9.5401E-06  2.4523E-04
 12  0.0000E+00  5.7083E-01  5.8485E-01  5.3963E-01  5.9401E-01  5.9367E-01  6.4776E-01  6.1582E-01  4.8577E-01
 13  0.0000E+00  5.9580E-01  5.5837E-01  5.7262E-01  4.0218E-01  6.5533E-01  3.9818E-01  6.6753E-01  9.0977E-01
 14  0.0000E+00  4.6059E-02  5.6147E-03  1.3952E-02  1.4461E-03  5.2687E-03  5.7823E-03  1.3145E-03  5.0765E-03
 15  0.0000E+00  7.3058E-02  6.4407E-03  7.4786E-02  1.9743E-03  3.4225E-03  3.8687E-03  5.6880E-03  6.5307E-03
 16  0.0000E+00  1.4274E-01  3.3460E-03  5.7664E-02  1.7001E-02  1.6531E-02  1.5019E-02  0.0000E+00  1.2090E-02
 17  0.0000E+00  1.6335E-01  3.8568E-02  5.0594E-02  4.2268E-03  2.0727E-02  1.4736E-02  1.1144E-02  2.0593E-02
 18  0.0000E+00  3.7474E-04  1.8916E-05  4.0055E-04  0.0000E+00  6.6538E-05  4.5401E-05  1.1218E-05  9.8728E-05
 19  0.0000E+00  1.9289E-04  1.0483E-05  1.1127E-04  0.0000E+00  4.8261E-06  0.0000E+00  7.6742E-06  8.0529E-06
 20  0.0000E+00  1.8956E-04  1.1695E-05  1.2734E-04  1.4314E-05  1.1657E-05  2.2338E-06  1.0767E-06  1.6519E-05
 21  0.0000E+00  3.1030E-04  6.4485E-06  2.9550E-04  1.7812E-05  1.7993E-05  4.1395E-05  2.6251E-05  4.2203E-05
 22  0.0000E+00  4.2006E-04  0.0000E+00  1.3279E-04  4.2731E-05  9.8165E-06  5.4313E-05  1.7148E-05  5.4455E-05
 23  0.0000E+00  5.2160E-04  1.8113E-05  2.3094E-04  0.0000E+00  5.1808E-05  3.4004E-05  4.1315E-05  4.6441E-05
 24  0.0000E+00  8.1488E-04  7.1831E-05  4.0669E-05  1.8031E-05  3.7299E-05  1.2796E-04  4.3931E-05  4.9519E-05
 25  0.0000E+00  1.3839E-03  1.5169E-05  6.8338E-04  0.0000E+00  6.0097E-05  1.5218E-05  1.6714E-04  2.2511E-04
 26  0.0000E+00  2.0805E-03  2.8229E-06  0.0000E+00  0.0000E+00  1.3836E-04  3.0863E-04  2.6129E-04  4.3867E-05
 27  0.0000E+00  1.6697E-02  2.1070E-03  1.6128E-02  5.4209E-03  1.7517E-02  3.1100E-02  1.8467E-02  1.7006E-02
 28  0.0000E+00  1.3732E-02  7.7394E-05  5.1647E-04  7.0548E-04  2.6411E-04  1.2029E-03  4.1632E-04  1.3475E-03
 29  0.0000E+00  1.9396E-02  0.0000E+00  1.7577E-02  2.4239E-03  1.5733E-03  1.5144E-03  1.5159E-03  2.7067E-03
 30  0.0000E+00  4.8123E-02  3.4257E-03  1.2642E-03  1.9073E-03  4.8329E-04  7.7315E-03  1.7295E-03  2.7793E-03
 31  0.0000E+00  7.4237E-02  2.3822E-03  5.4990E-02  3.4290E-03  2.8260E-03  0.0000E+00  9.3207E-03  6.0904E-04
 32  0.0000E+00  9.2303E-02  2.7337E-03  0.0000E+00  2.6528E-03  1.7282E-02  7.5840E-03  1.0133E-02  8.0606E-04
 33  0.0000E+00  1.7275E-01  0.0000E+00  4.1646E-01  1.4811E-02  2.5980E-02  2.1359E-02  8.6074E-03  4.9312E-03
 34  0.0000E+00  1.9431E-01  1.3276E-02  1.3898E-01  1.6983E-02  1.7623E-02  6.0147E-02  1.0299E-02  1.3996E-03
 35  0.0000E+00  3.7024E-04  1.5512E-05  2.0961E-04  1.8835E-05  2.3760E-05  2.3426E-05  3.4601E-05  5.7018E-06
 36  0.0000E+00  1.6481E-04  1.4606E-05  1.3511E-06  7.6504E-07  7.1695E-06  0.0000E+00  0.0000E+00  1.4708E-05
 37  0.0000E+00  1.3336E-04  7.1471E-06  0.0000E+00  5.4733E-09  1.8766E-05  1.0948E-05  4.8980E-06  1.2421E-05
 38  0.0000E+00  3.7673E-04  4.6069E-05  0.0000E+00  2.2419E-05  4.9774E-05  4.2360E-05  4.7182E-05  6.5336E-06
 39  0.0000E+00  5.0570E-04  0.0000E+00  1.2783E-04  4.7927E-05  2.7823E-05  1.1182E-04  4.0695E-05  3.6080E-05
 40  0.0000E+00  1.1808E-03  3.7960E-05  4.5245E-04  0.0000E+00  0.0000E+00  5.9704E-05  6.4952E-05  9.5241E-05
 41  0.0000E+00  1.5513E-03  5.5877E-05  6.2321E-04  0.0000E+00  2.5710E-04  2.1137E-04  2.8974E-05  0.0000E+00
 42  0.0000E+00  3.5500E-03  2.3803E-04  5.4446E-04  7.0755E-05  1.3768E-04  8.1371E-05  2.7175E-04  4.5504E-05
 43  0.0000E+00  1.5772E-01  1.4319E-01  1.4750E-01  1.6365E-01  1.6765E-01  7.1393E-02  1.7523E-01  1.6544E-01
 44  0.0000E+00  6.9403E-03  4.3913E-04  0.0000E+00  0.0000E+00  2.6516E-04  1.2388E-04  1.0252E-03  2.0685E-04
 45  0.0000E+00  1.8685E-02  3.7014E-04  0.0000E+00  4.3888E-04  8.7804E-04  2.3509E-03  5.3162E-04  1.1182E-03
 46  0.0000E+00  2.6334E-02  6.3842E-04  1.1314E-02  1.4972E-03  3.9210E-03  1.1205E-03  1.2028E-03  0.0000E+00
 47  0.0000E+00  5.4198E-02  8.1822E-03  7.5316E-02  2.2848E-03  6.5253E-04  7.9693E-04  4.1234E-03  9.7363E-03
 48  0.0000E+00  7.9441E-02  1.0264E-02  1.5093E-01  7.3556E-03  1.0368E-02  0.0000E+00  9.9177E-03  4.1812E-03
 49  3.3797E+01  4.8255E+00  1.4066E+00  4.6728E+00  1.4345E+00  8.6615E+00  5.3722E+00  6.1245E+00  5.8671E+00
 50  6.5479E+01  7.9882E+01  8.8566E+01  8.1991E+01  8.8250E+01  7.9267E+01  8.4801E+01  7.4569E+01  8.2112E+01
 51  0.0000E+00  1.5112E-04  2.3146E-05  3.5641E-05  0.0000E+00  3.7047E-06  8.1557E-06  0.0000E+00  2.5568E-05
 52  0.0000E+00  1.3456E-04  7.4536E-06  4.3788E-05  9.0334E-07  2.2404E-06  0.0000E+00  1.3749E-05  4.5126E-06
 53  0.0000E+00  1.4844E-04  0.0000E+00  4.8785E-05  1.8278E-05  7.2261E-06  1.8767E-05  0.0000E+00  1.1812E-05
 54  0.0000E+00  3.2413E-04  0.0000E+00  1.2586E-04  0.0000E+00  4.0941E-05  1.2342E-05  0.0000E+00  3.8597E-05
 55  0.0000E+00  4.4168E-04  0.0000E+00  1.7166E-05  4.2929E-06  4.6399E-06  3.4768E-05  8.2259E-05  3.1706E-05
 56  0.0000E+00  9.0712E-04  0.0000E+00  0.0000E+00  0.0000E+00  2.1738E-04  1.1944E-04  1.3227E-05  4.2249E-05
 57  0.0000E+00  1.2588E-03  0.0000E+00  3.1452E-05  1.5196E-06  1.0825E-05  0.0000E+00  0.0000E+00  1.3396E-04
 58  0.0000E+00  2.5764E-03  1.0975E-04  0.0000E+00  1.9200E-05  2.8971E-04  2.1462E-04  0.0000E+00  1.0720E-04
 59  0.0000E+00  4.4387E-03  2.6754E-04  0.0000E+00  2.1861E-04  1.5451E-04  4.6790E-04  4.7260E-04  4.1632E-04
 60  0.0000E+00  8.8922E-03  0.0000E+00  1.7052E-03  8.1656E-04  1.1679E-03  2.9701E-04  2.4968E-04  2.2989E-04
 61  0.0000E+00  1.8878E-02  7.6222E-04  0.0000E+00  2.5559E-04  2.7867E-03  4.1687E-04  1.9290E-03  1.2550E-03
 62  0.0000E+00  3.7759E-02  3.9701E-03  2.1468E-02  3.6319E-03  9.9126E-04  4.1957E-03  7.5153E-04  5.2402E-03
 63  0.0000E+00  6.0940E-02  0.0000E+00  1.0434E-02  0.0000E+00  2.8685E-03  3.6087E-03  9.8987E-03  7.8002E-03
 64  7.2471E-01  1.1455E+01  8.6089E+00  1.0788E+01  9.0567E+00  1.0394E+01  8.4753E+00  1.7626E+01  1.0258E+01
 65  0.0000E+00  5.4766E-01  3.6651E-03  0.0000E+00  0.0000E+00  7.7077E-03  1.8648E-02  7.0823E-02  4.4094E-02
 66  0.0000E+00  5.6148E-01  2.4452E-02  1.6572E-01  7.9813E-03  9.7888E-02  2.9171E-02  4.0163E-02  4.9265E-02

# AV, chi2 & Mass for <> & i_chain = 1 ...  7 solutions
AV      -0.9949     -0.3894     -0.4265     -0.4019     -0.4247     -0.3926     -0.4383     -0.3893     -0.4133
chi2 4.1181E-06  5.0142E-06  4.6393E-06  4.6634E-06  4.6470E-06  4.6702E-06  4.6172E-06  4.6742E-06  4.6488E-06
Mass 1.3918E-13  1.9540E-13  2.1524E-13  2.0979E-13  2.1642E-13  2.0778E-13  2.1091E-13  2.0106E-13  2.0611E-13
-213.18                                  [v0_min (km/s) before EX0s...]
 251.09                                  [vd_min (km/s) before EX0s...]


## Synthetic spectrum (Best Model) ##l_obs f_obs f_syn wei
 3478    [Nl_obs]
 3741.00   -0.30735   0.50942    0.000
 3742.00   -0.35005   0.48447    0.000
 3743.00   -0.54685   0.46242    0.000
 3744.00   -0.84505   0.44784    0.000
 3745.00   -1.20234   0.44757    0.000
 3746.00   -0.93517   0.46606    0.000
 3747.00   -0.35091   0.49905    0.000
 3748.00   -0.01658   0.53730    0.000
 3749.00    0.20785   0.57691   -1.000
 3750.00    0.21580   0.61694   -1.000
 3751.00    0.14203   0.64913   -1.000
 3752.00    0.22608   0.66260   -1.000
 3753.00    0.36072   0.65645   -1.000
 3754.00    0.56769   0.64139   -1.000
 3755.00    0.79405   0.62699   -1.000
 3756.00    0.67852   0.61323   -1.000
 3757.00    0.48793   0.59829   -1.000
 3758.00    0.67991   0.58598   -1.000
 3759.00    0.93866   0.58178   -1.000
 3760.00    1.05628   0.58691   -1.000
 3761.00    1.15516   0.59558   -1.000
 3762.00    1.07392   0.60228   -1.000
 3763.00    0.97575   0.61194   -1.000
 3764.00    0.60337   0.63154   -1.000
 3765.00    0.21517   0.65725   -1.000
 3766.00    0.49419   0.68164   -1.000
 3767.00    0.78843   0.70670   -1.000
 3768.00    1.00852   0.73518   -1.000
 3769.00    1.21571   0.76129   -1.000
 3770.00    1.10935   0.77955   -1.000
 3771.00    0.97692   0.79295   -1.000
 3772.00    0.50288   0.80557   -1.000
 3773.00    0.08664   0.81606   -1.000
 3774.00    0.17791   0.82396   -1.000
 3775.00    0.22764   0.83334   -1.000
 3776.00    0.00798   0.84367   -1.000
 3777.00   -0.23003   0.84981    0.000
 3778.00   -0.56093   0.85040    0.000
 3779.00   -0.74654   0.84691    0.000
 3780.00   -0.33745   0.83631    0.000
 3781.00   -0.01585   0.81265    0.000
 3782.00    0.00900   0.77865   -1.000
 3783.00    0.00108   0.74369   -1.000
 3784.00   -0.10059   0.71052    0.000
 3785.00   -0.10753   0.67842    0.000
 3786.00    0.11698   0.65160   -1.000
 3787.00    0.28306   0.63453   -1.000
 3788.00    0.32597   0.62267   -1.000
 3789.00    0.37756   0.61025   -1.000
 3790.00    0.44505   0.59867   -1.000
 3791.00    0.40318   0.59108   -1.000
 3792.00    0.18625   0.58618   -1.000
 3793.00    0.04864   0.58006   -1.000
 3794.00    0.02244   0.57616   -1.000
 3795.00   -0.01517   0.58282    0.000
 3796.00   -0.06689   0.60155    0.000
 3797.00   -0.05562   0.62531    0.000
 3798.00    0.02427   0.64992   -1.000
 3799.00    0.16125   0.67646   -1.000
 3800.00    0.35310   0.70243   -1.000
 3801.00    0.53592   0.72185   -1.000
 3802.00    0.71108   0.73127   -1.000
 3803.00    0.87897   0.73452   -1.000
 3804.00    1.04144   0.73658   -1.000
 3805.00    1.18342   0.73556   -1.000
 3806.00    1.31196   0.72808   -1.000
 3807.00    1.29759   0.71441   -1.000
 3808.00    1.20120   0.69583   -1.000
 3809.00    1.04610   0.67216   -1.000
 3810.00    0.86166   0.64328   -1.000
 3811.00    0.60268   0.60975   -1.000
 3812.00    0.31147   0.57683   -1.000
 3813.00    0.46035   0.55006   -1.000
 3814.00    0.77246   0.52649   -1.000
 3815.00    0.72203   0.50153   -1.000
 3816.00    0.55763   0.47848   -1.000
 3817.00    0.39522   0.46387   -1.000
 3818.00    0.23333   0.45479   -1.000
 3819.00    0.15180   0.44223   -1.000
 3820.00    0.08748   0.42543   -1.000
 3821.00    0.01672   0.41229   -1.000
 3822.00   -0.05513   0.40563    0.000
 3823.00    0.17659   0.40079   -1.000
 3824.00    0.44725   0.39510   -1.000
 3825.00    0.30868   0.39169   -1.000
 3826.00    0.13337   0.39258   -1.000
 3827.00    0.29143   0.39413   -1.000
 3828.00    0.46740   0.39335   -1.000
 3829.00    0.70794   0.39210   -1.000
 3830.00    0.94409   0.39276   -1.000
 3831.00    0.70031   0.39551   -1.000
 3832.00    0.46691   0.39826   -1.000
 3833.00    0.46424   0.40017   -1.000
 3834.00    0.46274   0.40432   -1.000
 3835.00    0.47568   0.41354   -1.000
 3836.00    0.46461   0.42685   -1.000
 3837.00    0.25056   0.44474   -1.000
 3838.00    0.07594   0.46879   -1.000
 3839.00    0.14938   0.49592   -1.000
 3840.00    0.20400   0.52189   -1.000
 3841.00    0.16581   0.54420   -1.000
 3842.00    0.12739   0.56275   -1.000
 3843.00    0.08804   0.57735   -1.000
 3844.00    0.04249   0.58458   -1.000
 3845.00   -0.02365   0.58238    0.000
 3846.00   -0.05684   0.57634    0.000
 3847.00    0.00253   0.57273    0.000
 3848.00    0.15235   0.56835    0.000
 3849.00    0.51942   0.55811    0.000
 3850.00    0.67206   0.54460    0.000
 3851.00    0.38001   0.53132    0.000
 3852.00    0.15419   0.51770    0.000
 3853.00    0.04784   0.50396    0.000
 3854.00    0.17880   0.49107    0.000
 3855.00    0.68399   0.48067    0.000
 3856.00    1.02768   0.47690    0.000
 3857.00    1.14779   0.48317    0.000
 3858.00    1.05313   0.49734    0.000
 3859.00    0.69676   0.51275    0.000
 3860.00    0.53226   0.52599    0.000
 3861.00    0.57386   0.53725    0.000
 3862.00    0.58837   0.54557    0.000
 3863.00    0.57719   0.54779    0.000
 3864.00    0.52351   0.54289    0.000
 3865.00    0.43432   0.53427    0.000
 3866.00    0.50650   0.52579    0.000
 3867.00    0.69738   0.51974    0.000
 3868.00    0.70415   0.51718    0.000
 3869.00    0.59198   0.51956    0.000
 3870.00    0.66181   0.52721    0.000
 3871.00    0.83449   0.53726    0.000
 3872.00    0.93949   0.54483    0.000
 3873.00    1.01121   0.54667    0.000
 3874.00    0.87542   0.54494    0.000
 3875.00    0.65139   0.54532    0.000
 3876.00    0.60590   0.54637    0.000
 3877.00    0.62544   0.54191    0.000
 3878.00    0.64534   0.53607    0.000
 3879.00    0.66535   0.53991    0.000
 3880.00    0.59510   0.55047    0.000
 3881.00    0.50168   0.55506   -1.000
 3882.00    0.53626   0.55659   -1.000
 3883.00    0.59760   0.56784   -1.000
 3884.00    0.56144   0.58813   -1.000
 3885.00    0.50920   0.60921   -1.000
 3886.00    0.29454   0.63280   -1.000
 3887.00    0.05975   0.66263   -1.000
 3888.00    0.33719   0.69499   -1.000
 3889.00    0.65847   0.72295   -1.000
 3890.00    0.81783   0.74285   -1.000
 3891.00    0.96913   0.75485   -1.000
 3892.00    1.22462   0.76320   -1.000
 3893.00    1.47117   0.76939   -1.000
 3894.00    1.02997   0.76827   -1.000
 3895.00    0.60682   0.76129   -1.000
 3896.00    0.55316   0.75720   -1.000
 3897.00    0.52748   0.75675   -1.000
 3898.00    0.83285   0.75200   -1.000
 3899.00    1.11875   0.74469   -1.000
 3900.00    1.24611   0.74305   -1.000
 3901.00    1.35753   0.74534   -1.000
 3902.00    1.37162   0.74876   -1.000
 3903.00    1.36985   0.75938   -1.000
 3904.00    1.29175   0.77925   -1.000
 3905.00    1.17893   0.80122   -1.000
 3906.00    0.93014   0.82155   -1.000
 3907.00    0.72517   0.84262   -1.000
 3908.00    0.66304   0.86155   -1.000
 3909.00    0.64889   0.87204   -1.000
 3910.00    0.76706   0.87307   -1.000
 3911.00    0.81110   0.86665   -1.000
 3912.00    0.68008   0.85207   -1.000
 3913.00    0.63937   0.83021   -1.000
 3914.00    0.78298   0.80409   -1.000
 3915.00    1.08131   0.77460   -1.000
 3916.00    1.65444   0.74255   -1.000
 3917.00    1.78636   0.71177   -1.000
 3918.00    1.23273   0.68484   -1.000
 3919.00    0.79728   0.65996   -1.000
 3920.00    0.52309   0.63510   -1.000
 3921.00    0.36711   0.60855   -1.000
 3922.00    0.35314   0.57843   -1.000
 3923.00    0.46655   0.54341   -1.000
 3924.00    0.71488   0.50322   -1.000
 3925.00    0.96612   0.45954   -1.000
 3926.00    1.22008   0.41537   -1.000
 3927.00    1.15170   0.37420   -1.000
 3928.00    0.81786   0.33951   -1.000
 3929.00    0.97016   0.31470   -1.000
 3930.00    1.47488   0.30220   -1.000
 3931.00    1.38341   0.30294   -1.000
 3932.00    0.91252   0.31652   -1.000
 3933.00    0.78671   0.34105   -1.000
 3934.00    0.85294   0.37408   -1.000
 3935.00    0.82631   0.41237   -1.000
 3936.00    0.75474   0.45168   -1.000
 3937.00    0.73626   0.48992   -1.000
 3938.00    0.73999   0.52742   -1.000
 3939.00    0.64742   0.56212   -1.000
 3940.00    0.52040   0.59287   -1.000
 3941.00    0.69647   0.62547   -1.000
 3942.00    0.96416   0.66310   -1.000
 3943.00    1.00579   0.69890   -1.000
 3944.00    0.99064   0.72895   -1.000
 3945.00    0.99403   0.75944   -1.000
 3946.00    1.00121   0.79292   -1.000
 3947.00    0.90561   0.82056   -1.000
 3948.00    0.79357   0.83568   -1.000
 3949.00    0.88004   0.84493   -1.000
 3950.00    0.99021   0.85535   -1.000
 3951.00    1.18871   0.85971   -1.000
 3952.00    1.39439   0.84950   -1.000
 3953.00    1.44880   0.83011   -1.000
 3954.00    1.49625   0.80860   -1.000
 3955.00    0.98443   0.78104   -1.000
 3956.00    0.47872   0.74107   -1.000
 3957.00    0.66399   0.69046   -1.000
 3958.00    0.85303   0.63677   -1.000
 3959.00    1.11337   0.58437   -1.000
 3960.00    1.33119   0.53141    0.000
 3961.00    1.06968   0.47791    0.000
 3962.00    0.84606   0.42992    0.000
 3963.00    0.92029   0.39276    0.000
 3964.00    0.96858   0.36720    0.000
 3965.00    0.86289   0.35396    0.000
 3966.00    0.75736   0.35569    0.000
 3967.00    0.65251   0.37413    0.000
 3968.00    0.55342   0.40774    0.000
 3969.00    0.47636   0.45327    0.000
 3970.00    0.47893   0.50860    0.000
 3971.00    0.73601   0.57163    0.000
 3972.00    0.93888   0.63749    0.000
 3973.00    0.99494   0.70138    0.000
 3974.00    1.06857   0.76159    0.000
 3975.00    1.18302   0.81714    0.000
 3976.00    1.17293   0.86551    0.000
 3977.00    0.91268   0.90455    0.000
 3978.00    0.76776   0.93470    0.000
 3979.00    0.82457   0.95879    0.000
 3980.00    1.02368   0.97997    0.000
 3981.00    1.44066   0.99891   -1.000
 3982.00    1.57363   1.01427   -1.000
 3983.00    1.32468   1.02838   -1.000
 3984.00    0.97460   1.04509   -1.000
 3985.00    0.50478   1.06067   -1.000
 3986.00    0.50800   1.07011   -1.000
 3987.00    1.00518   1.07762   -1.000
 3988.00    1.32439   1.08645   -1.000
 3989.00    1.47966   1.09122   -1.000
 3990.00    1.43813   1.09045   -1.000
 3991.00    1.23680   1.09040   -1.000
 3992.00    1.24907   1.09365   -1.000
 3993.00    1.41395   1.09628   -1.000
 3994.00    1.52130   1.09909   -1.000
 3995.00    1.59256   1.10880   -1.000
 3996.00    1.62401   1.12280   -1.000
 3997.00    1.63364   1.13036   -1.000
 3998.00    1.38057   1.13235   -1.000
 3999.00    1.00236   1.13684   -1.000
 4000.00    0.92793   1.13818   -1.000
 4001.00    0.97835   1.12863   -1.000
 4002.00    1.26521   1.11874   -1.000
 4003.00    1.63511   1.12056   -1.000
 4004.00    1.61239   1.12858   -1.000
 4005.00    1.47334   1.13644   -1.000
 4006.00    1.18507   1.14921   -1.000
 4007.00    0.86014   1.16886   -1.000
 4008.00    0.90078   1.18934   -1.000
 4009.00    1.01410   1.20557   -1.000
 4010.00    0.93679   1.21780   -1.000
 4011.00    0.82986   1.22963   -1.000
 4012.00    0.88810   1.24091   -1.000
 4013.00    0.96534   1.24595   -1.000
 4014.00    0.91861   1.24647   -1.000
 4015.00    0.86231   1.25036   -1.000
 4016.00    1.04581   1.25395   -1.000
 4017.00    1.23941   1.25023   -1.000
 4018.00    1.57496   1.24588   -1.000
 4019.00    1.89341   1.24618   -1.000
 4020.00    1.40621   1.24465   -1.000
 4021.00    0.94495   1.23934   -1.000
 4022.00    0.94120   1.23393   -1.000
 4023.00    0.96346   1.22553   -1.000
 4024.00    1.26552   1.21138   -1.000
 4025.00    1.52773   1.19277   -1.000
 4026.00    1.48741   1.16680   -1.000
 4027.00    1.37151   1.13595   -1.000
 4028.00    0.81964   1.11181   -1.000
 4029.00    0.36607   1.09811   -1.000
 4030.00    0.36301   1.09216   -1.000
 4031.00    0.49067   1.09899   -1.000
 4032.00    1.10869   1.12061   -1.000
 4033.00    1.47256   1.14867   -1.000
 4034.00    1.03969   1.17549   -1.000
 4035.00    0.73199   1.19720   -1.000
 4036.00    0.75729   1.20755   -1.000
 4037.00    0.79944   1.20110   -1.000
 4038.00    0.88008   1.18169   -1.000
 4039.00    1.05571   1.15672   -1.000
 4040.00    1.41911   1.12764   -1.000
 4041.00    1.58734   1.09585   -1.000
 4042.00    1.41933   1.07296   -1.000
 4043.00    1.19342   1.07032   -1.000
 4044.00    0.88017   1.08333   -1.000
 4045.00    0.78483   1.10080   -1.000
 4046.00    0.97836   1.12330   -1.000
 4047.00    1.16645   1.15034   -1.000
 4048.00    1.34819   1.17022   -1.000
 4049.00    1.48788   1.17765   -1.000
 4050.00    1.58429   1.17531   -1.000
 4051.00    1.49752   1.16479   -1.000
 4052.00    1.24442   1.15040   -1.000
 4053.00    1.00000   1.13622   -1.000
 4054.00    0.76254   1.11950   -1.000
 4055.00    0.86336   1.10091   -1.000
 4056.00    1.20237   1.08555   -1.000
 4057.00    1.20077   1.07434   -1.000
 4058.00    0.98878   1.06405   -1.000
 4059.00    0.86249   1.05011   -1.000
 4060.00    0.78245   1.03797   -1.000
 4061.00    0.86891   1.03996   -1.000
 4062.00    1.03341   1.05221   -1.000
 4063.00    1.03775   1.05962   -1.000
 4064.00    0.97739   1.06579   -1.000
 4065.00    0.94507   1.08313   -1.000
 4066.00    0.92241   1.10263   -1.000
 4067.00    1.12975   1.10714   -1.000
 4068.00    1.40386   1.10230   -1.000
 4069.00    1.60032   1.10277   -1.000
 4070.00    1.77812   1.10493   -1.000
 4071.00    1.63046   1.10019   -1.000
 4072.00    1.41973   1.09544   -1.000
 4073.00    1.45653   1.09912   -1.000
 4074.00    1.53063   1.10986   -1.000
 4075.00    1.49975   1.12488   -1.000
 4076.00    1.45726   1.14456   -1.000
 4077.00    1.70110   1.17000   -1.000
 4078.00    1.96590   1.19780   -1.000
 4079.00    1.58043   1.22211   -1.000
 4080.00    1.17007   1.24434   -1.000
 4081.00    1.46615   1.26696   -1.000
 4082.00    1.75459   1.28658   -1.000
 4083.00    1.60749   1.30343   -1.000
 4084.00    1.44947   1.32055   -1.000
 4085.00    1.11164   1.33379   -1.000
 4086.00    0.81357   1.34027   -1.000
 4087.00    0.92480   1.34088   -1.000
 4088.00    1.06616   1.33198   -1.000
 4089.00    1.42857   1.31327   -1.000
 4090.00    1.66151   1.29113   -1.000
 4091.00    1.16812   1.26485   -1.000
 4092.00    0.86815   1.23061    0.000
 4093.00    1.43372   1.19514    0.000
 4094.00    1.79630   1.16348    0.000
 4095.00    1.41336   1.13573    0.000
 4096.00    1.15110   1.11346    0.000
 4097.00    1.26000   1.09648    0.000
 4098.00    1.39023   1.08828    0.000
 4099.00    1.57618   1.09485    0.000
 4100.00    1.61957   1.10993    0.000
 4101.00    1.34282   1.12633    0.000
 4102.00    1.10590   1.14786    0.000
 4103.00    0.94647   1.17239    0.000
 4104.00    0.79555   1.19033    0.000
 4105.00    0.65907   1.20230    0.000
 4106.00    0.70397   1.21279    0.000
 4107.00    1.01851   1.22019    0.000
 4108.00    1.19615   1.22423    0.000
 4109.00    1.19490   1.22927    0.000
 4110.00    1.27224   1.23652    0.000
 4111.00    1.44004   1.24017    0.000
 4112.00    1.30299   1.24001    0.000
 4113.00    0.85649   1.24165   -1.000
 4114.00    0.91273   1.24083   -1.000
 4115.00    1.41909   1.23222   -1.000
 4116.00    1.58112   1.22423   -1.000
 4117.00    1.47148   1.22326   -1.000
 4118.00    1.59040   1.22127   -1.000
 4119.00    1.86792   1.21587   -1.000
 4120.00    1.90238   1.21378   -1.000
 4121.00    1.78895   1.21403   -1.000
 4122.00    1.68345   1.20962   -1.000
 4123.00    1.58217   1.19899   -1.000
 4124.00    1.53403   1.18573   -1.000
 4125.00    1.51040   1.16980   -1.000
 4126.00    1.55977   1.15238   -1.000
 4127.00    1.63812   1.13579   -1.000
 4128.00    1.57804   1.12265   -1.000
 4129.00    1.47109   1.11606   -1.000
 4130.00    1.32682   1.11777   -1.000
 4131.00    1.17193   1.12576   -1.000
 4132.00    0.95977   1.13974   -1.000
 4133.00    0.73415   1.15597   -1.000
 4134.00    0.87682   1.16656   -1.000
 4135.00    1.08899   1.17132   -1.000
 4136.00    1.04781   1.16770   -1.000
 4137.00    0.96962   1.15555   -1.000
 4138.00    1.08154   1.14031   -1.000
 4139.00    1.21366   1.12048   -1.000
 4140.00    1.33805   1.09956   -1.000
 4141.00    1.46190   1.08965   -1.000
 4142.00    1.26087   1.08908   -1.000
 4143.00    1.04864   1.08832   -1.000
 4144.00    1.32360   1.09110   -1.000
 4145.00    1.58708   1.09871   -1.000
 4146.00    1.43930   1.10187   -1.000
 4147.00    1.28984   1.10065   -1.000
 4148.00    1.11443   1.10115   -1.000
 4149.00    0.96000   1.10081   -1.000
 4150.00    1.01245   1.09913   -1.000
 4151.00    1.09250   1.10130   -1.000
 4152.00    1.36850   1.11023   -1.000
 4153.00    1.54738   1.12135   -1.000
 4154.00    1.19609   1.13446   -1.000
 4155.00    0.87692   1.15485   -1.000
 4156.00    0.69815   1.17679   -1.000
 4157.00    0.61049   1.19205   -1.000
 4158.00    0.85052   1.20376   -1.000
 4159.00    1.11931   1.21579   -1.000
 4160.00    1.47488   1.21905   -1.000
 4161.00    1.76165   1.21122   -1.000
 4162.00    1.87170   1.20303   -1.000
 4163.00    1.88620   1.19308   -1.000
 4164.00    1.68960   1.17515   -1.000
 4165.00    1.50533   1.15625   -1.000
 4166.00    1.34465   1.14030   -1.000
 4167.00    1.21507   1.12289   -1.000
 4168.00    1.13745   1.10405   -1.000
 4169.00    1.18008   1.08620   -1.000
 4170.00    1.39887   1.07373   -1.000
 4171.00    1.39296   1.06709   -1.000
 4172.00    1.09765   1.06410   -1.000
 4173.00    0.96861   1.06600   -1.000
 4174.00    1.02823   1.07125   -1.000
 4175.00    1.12901   1.07901   -1.000
 4176.00    1.27098   1.09028   -1.000
 4177.00    1.35553   1.10094   -1.000
 4178.00    1.38940   1.10978   -1.000
 4179.00    1.35253   1.11965   -1.000
 4180.00    1.26063   1.12751   -1.000
 4181.00    1.17660   1.13253   -1.000
 4182.00    1.09795   1.14056   -1.000
 4183.00    1.11202   1.14562   -1.000
 4184.00    1.18167   1.14349   -1.000
 4185.00    1.13145   1.14698   -1.000
 4186.00    1.01853   1.15665   -1.000
 4187.00    1.35175   1.15917   -1.000
 4188.00    1.88732   1.15465   -1.000
 4189.00    1.99156   1.15325   -1.000
 4190.00    1.92747   1.15098   -1.000
 4191.00    1.61865   1.13599   -1.000
 4192.00    1.22853   1.11419   -1.000
 4193.00    1.02014   1.09742   -1.000
 4194.00    0.86238   1.08217   -1.000
 4195.00    0.70499   1.06385   -1.000
 4196.00    0.54768   1.05490   -1.000
 4197.00    0.82661   1.05965   -1.000
 4198.00    1.18570   1.06575   -1.000
 4199.00    1.32217   1.07708   -1.000
 4200.00    1.42716   1.10164   -1.000
 4201.00    1.63967   1.12829   -1.000
 4202.00    1.86315   1.15179   -1.000
 4203.00    1.57295   1.17609   -1.000
 4204.00    1.24929   1.19750   -1.000
 4205.00    0.97812   1.21283    0.030
 4206.00    0.70886   1.22057    0.015
 4207.00    0.62898   1.22181    0.015
 4208.00    0.57409   1.22075    0.015
 4209.00    1.25354   1.21714    0.015
 4210.00    1.89735   1.21326    0.016
 4211.00    2.02231   1.21328    0.016
 4212.00    2.08287   1.21331    0.016
 4213.00    1.53450   1.21845    0.016
 4214.00    1.08580   1.23238    0.016
 4215.00    1.32231   1.23964    0.016
 4216.00    1.55724   1.23415    0.016
 4217.00    1.78373   1.22266    0.016
 4218.00    1.93823   1.20141    0.015
 4219.00    1.78519   1.16201    0.015
 4220.00    1.61720   1.11346    0.015
 4221.00    1.39656   1.07173    0.015
 4222.00    1.21756   1.03831    0.015
 4223.00    1.16185   1.01099    0.015
 4224.00    1.13378   1.00401    0.015
 4225.00    1.17544   1.02459    0.015
 4226.00    1.23711   1.05088    0.015
 4227.00    1.34226   1.07711    0.015
 4228.00    1.34948   1.11255    0.015
 4229.00    1.17203   1.13924    0.015
 4230.00    1.16454   1.15069    0.015
 4231.00    1.43687   1.16543    0.015
 4232.00    1.39973   1.17643    0.015
 4233.00    0.91586   1.17743    0.014
 4234.00    0.74028   1.18799    0.014
 4235.00    0.95609   1.20709    0.014
 4236.00    1.11126   1.22137    0.014
 4237.00    1.19859   1.23972    0.014
 4238.00    1.36593   1.26687    0.014
 4239.00    1.61223   1.28549    0.014
 4240.00    1.76177   1.29268    0.014
 4241.00    1.82711   1.29935    0.014
 4242.00    1.62703   1.29763    0.014
 4243.00    1.22346   1.27978    0.014
 4244.00    1.09526   1.25423    0.014
 4245.00    1.15263   1.23121    0.015
 4246.00    1.21111   1.20898    0.015
 4247.00    1.27023   1.18259    0.015
 4248.00    1.19199   1.16376    0.015
 4249.00    1.04303   1.15919    0.015
 4250.00    1.06589   1.15646    0.015
 4251.00    1.16540   1.15211    0.015
 4252.00    1.39709   1.15458    0.015
 4253.00    1.67946   1.16383    0.015
 4254.00    1.42725   1.17093    0.014
 4255.00    1.00082   1.17560    0.014
 4256.00    1.05149   1.18740    0.014
 4257.00    1.23239   1.20315    0.014
 4258.00    1.04241   1.21880    0.014
 4259.00    0.76932   1.24173    0.014
 4260.00    1.18689   1.26487    0.014
 4261.00    1.72798   1.27498    0.014
 4262.00    1.63387   1.27683    0.014
 4263.00    1.45285   1.27162    0.015
 4264.00    1.26998   1.24669    0.014
 4265.00    1.08693   1.20675    0.014
 4266.00    1.29037   1.16935    0.014
 4267.00    1.51745   1.13322    0.014
 4268.00    1.33858   1.09385    0.014
 4269.00    1.15020   1.07129    0.014
 4270.00    1.24300   1.07314    0.014
 4271.00    1.31474   1.08059    0.014
 4272.00    0.82959   1.09755    0.014
 4273.00    0.41247   1.12951    0.014
 4274.00    0.93056   1.15965    0.014
 4275.00    1.40723   1.18543    0.014
 4276.00    1.50758   1.20575    0.014
 4277.00    1.54321   1.21542    0.014
 4278.00    1.14772   1.22053    0.014
 4279.00    0.84699   1.21722    0.014
 4280.00    1.03691   1.20570    0.014
 4281.00    1.21328   1.19453    0.014
 4282.00    1.33305   1.17735   -2.000
 4283.00    1.35006   1.15496   -2.000
 4284.00    1.01238   1.13814   -2.000
 4285.00    0.74835   1.12370   -2.000
 4286.00    0.69845   1.10833   -2.000
 4287.00    0.68641   1.09894   -2.000
 4288.00    0.76831   1.09420   -2.000
 4289.00    0.99226   1.09189   -2.000
 4290.00    1.51986   1.08829   -2.000
 4291.00    1.75576   1.07646   -2.000
 4292.00    1.45003   1.06149   -2.000
 4293.00    1.33587   1.04004   -2.000
 4294.00    1.53239   1.00966   -2.000
 4295.00    1.52685   0.97986   -2.000
 4296.00    1.23385   0.94693   -2.000
 4297.00    1.04397   0.91496   -2.000
 4298.00    0.98315   0.89351    0.014
 4299.00    1.02278   0.87282    0.014
 4300.00    1.17320   0.85414    0.014
 4301.00    1.28920   0.84457    0.014
 4302.00    1.37171   0.83662    0.014
 4303.00    1.29110   0.83382    0.014
 4304.00    1.07053   0.84140    0.014
 4305.00    1.08063   0.85652    0.014
 4306.00    1.26507   0.88600    0.014
 4307.00    1.39167   0.93268    0.014
 4308.00    1.47987   0.98836    0.014
 4309.00    1.48494   1.05566    0.014
 4310.00    1.44166   1.13633    0.014
 4311.00    1.46557   1.21266    0.014
 4312.00    1.52354   1.28084    0.014
 4313.00    1.62709   1.34611    0.014
 4314.00    1.75064   1.39079    0.014
 4315.00    1.83180   1.40950    0.014
 4316.00    1.89698   1.41396    0.014
 4317.00    1.75950   1.39776    0.014
 4318.00    1.55721   1.36290    0.014
 4319.00    1.55587   1.32533    0.014
 4320.00    1.60823   1.28835    0.014
 4321.00    1.63421   1.26059    0.014
 4322.00    1.65441   1.25038    0.013
 4323.00    1.37345   1.25541    0.014
 4324.00    1.04010   1.27666    0.014
 4325.00    1.20428   1.31282    0.014
 4326.00    1.43426   1.35413    0.014
 4327.00    1.37675   1.39013    0.014
 4328.00    1.29238   1.41966    0.014
 4329.00    1.34943   1.44222    0.014
 4330.00    1.41456   1.44665    0.000
 4331.00    1.33358   1.43000    0.000
 4332.00    1.24860   1.40798    0.000
 4333.00    1.09335   1.38006    0.000
 4334.00    0.94246   1.33720    0.000
 4335.00    0.89623   1.30200    0.000
 4336.00    0.88365   1.28606    0.000
 4337.00    1.30920   1.27114    0.000
 4338.00    1.71499   1.26771    0.000
 4339.00    1.94814   1.29093    0.000
 4340.00    2.13354   1.31756    0.000
 4341.00    2.01054   1.33937    0.000
 4342.00    1.85064   1.37003    0.000
 4343.00    1.50454   1.39836    0.000
 4344.00    1.27778   1.40954    0.000
 4345.00    1.53813   1.41029    0.000
 4346.00    1.72174   1.40921    0.000
 4347.00    1.64574   1.40371    0.000
 4348.00    1.61383   1.39042    0.000
 4349.00    1.70770   1.37874    0.000
 4350.00    1.84885   1.37859    0.000
 4351.00    2.10526   1.38386    0.013
 4352.00    2.12688   1.38905    0.013
 4353.00    1.65464   1.40113    0.013
 4354.00    1.42161   1.42116    0.013
 4355.00    1.62587   1.44065    0.013
 4356.00    1.74918   1.45701    0.013
 4357.00    1.74317   1.47411    0.013
 4358.00    1.74284   1.49274    0.013
 4359.00    1.75049   1.50713    0.013
 4360.00    1.71217   1.51314    0.013
 4361.00    1.61713   1.51468    0.013
 4362.00    1.60989   1.51330    0.013
 4363.00    1.69814   1.50388    0.013
 4364.00    1.81160   1.48573    0.013
 4365.00    1.94922   1.46629    0.013
 4366.00    1.95391   1.44737    0.013
 4367.00    1.84613   1.42415    0.013
 4368.00    1.79479   1.40077    0.013
 4369.00    1.78548   1.38271    0.013
 4370.00    1.70371   1.36677    0.013
 4371.00    1.57451   1.35234    0.013
 4372.00    1.26439   1.34155    0.013
 4373.00    0.85065   1.33098    0.013
 4374.00    0.84759   1.31637    0.013
 4375.00    1.04939   1.29859    0.013
 4376.00    1.40751   1.27504    0.013
 4377.00    1.83309   1.24180    0.013
 4378.00    2.01488   1.20739    0.013
 4379.00    2.10645   1.17841    0.013
 4380.00    1.86803   1.15290    0.013
 4381.00    1.52611   1.13655    0.013
 4382.00    1.39768   1.13731    0.013
 4383.00    1.32509   1.15110    0.013
 4384.00    1.37152   1.17028    0.013
 4385.00    1.44337   1.19579    0.013
 4386.00    1.52716   1.22694    0.013
 4387.00    1.61296   1.25646    0.013
 4388.00    1.72060   1.28241    0.013
 4389.00    1.83103   1.30753    0.013
 4390.00    1.80793   1.33249    0.013
 4391.00    1.77291   1.35297    0.013
 4392.00    1.48656   1.36724    0.013
 4393.00    1.18682   1.38058    0.013
 4394.00    1.48940   1.38664    0.013
 4395.00    1.79850   1.37943    0.013
 4396.00    1.67939   1.36991    0.013
 4397.00    1.55823   1.35454    0.013
 4398.00    1.39214   1.32597    0.013
 4399.00    1.23537   1.30084    0.013
 4400.00    1.19378   1.28418    0.013
 4401.00    1.16812   1.26533    0.013
 4402.00    1.27653   1.25483    0.013
 4403.00    1.39674   1.26440    0.013
 4404.00    1.59094   1.28205    0.013
 4405.00    1.69967   1.30016    0.013
 4406.00    1.38807   1.32746    0.013
 4407.00    1.17774   1.35984    0.013
 4408.00    1.37167   1.38050    0.013
 4409.00    1.56976   1.39347    0.013
 4410.00    1.78163   1.40946    0.013
 4411.00    1.91490   1.41753    0.013
 4412.00    1.82796   1.41775    0.013
 4413.00    1.72605   1.42530    0.013
 4414.00    1.58828   1.43441    0.013
 4415.00    1.42841   1.43887    0.013
 4416.00    1.22279   1.44533    0.013
 4417.00    1.16641   1.45185    0.013
 4418.00    1.37871   1.45399    0.013
 4419.00    1.54493   1.45290    0.013
 4420.00    1.63862   1.45068    0.013
 4421.00    1.72896   1.44767    0.013
 4422.00    1.81467   1.44444    0.013
 4423.00    1.95938   1.44174    0.013
 4424.00    2.17586   1.43652    0.013
 4425.00    2.15991   1.43213    0.013
 4426.00    1.89475   1.42945    0.013
 4427.00    1.71444   1.42114    0.013
 4428.00    1.61440   1.41351    0.013
 4429.00    1.58789   1.41073    0.013
 4430.00    1.62271   1.40725    0.013
 4431.00    1.61928   1.40734    0.013
 4432.00    1.58778   1.41292    0.013
 4433.00    1.64658   1.42177    0.013
 4434.00    1.76360   1.43316    0.013
 4435.00    1.89940   1.44361    0.013
 4436.00    2.04580   1.45423    0.014
 4437.00    1.92320   1.46410    0.013
 4438.00    1.66855   1.47037    0.013
 4439.00    1.63435   1.47877    0.013
 4440.00    1.69369   1.48930    0.013
 4441.00    1.77700   1.49712    0.013
 4442.00    1.86902   1.50845    0.013
 4443.00    1.89551   1.52095    0.013
 4444.00    1.90184   1.52402    0.013
 4445.00    1.77987   1.52402    0.013
 4446.00    1.62506   1.52067    0.013
 4447.00    1.37956   1.50423    0.013
 4448.00    1.11516   1.48216    0.013
 4449.00    1.37156   1.45740    0.013
 4450.00    1.71353   1.42690    0.013
 4451.00    1.86124   1.39738    0.013
 4452.00    1.98500   1.36968    0.013
 4453.00    1.75174   1.34530    0.013
 4454.00    1.48811   1.33043    0.013
 4455.00    1.28328   1.32070    0.013
 4456.00    1.08135   1.31564    0.013
 4457.00    1.29723   1.32297    0.013
 4458.00    1.51633   1.33574    0.012
 4459.00    1.52041   1.34827    0.013
 4460.00    1.51537   1.36853    0.013
 4461.00    1.32556   1.39138    0.000
 4462.00    1.16840   1.40972    0.000
 4463.00    1.39505   1.42877    0.000
 4464.00    1.62646   1.44913    0.000
 4465.00    1.89650   1.46811    0.000
 4466.00    2.10507   1.48612    0.000
 4467.00    1.93958   1.50666    0.000
 4468.00    1.75644   1.52976    0.000
 4469.00    1.48862   1.55020    0.000
 4470.00    1.29510   1.56921    0.000
 4471.00    1.39173   1.58712    0.000
 4472.00    1.44614   1.59776    0.000
 4473.00    1.36323   1.60112    0.000
 4474.00    1.34856   1.60026    0.000
 4475.00    1.52162   1.59449    0.000
 4476.00    1.62054   1.58464    0.000
 4477.00    1.54474   1.57603    0.000
 4478.00    1.53756   1.57146    0.000
 4479.00    1.67011   1.56864    0.000
 4480.00    1.72753   1.56953    0.000
 4481.00    1.65174   1.57395    0.000
 4482.00    1.60617   1.57598    0.012
 4483.00    1.60745   1.57571    0.012
 4484.00    1.63581   1.57321    0.012
 4485.00    1.70105   1.56560    0.013
 4486.00    1.64577   1.55561    0.013
 4487.00    1.44597   1.54570    0.013
 4488.00    1.35710   1.53534    0.013
 4489.00    1.38552   1.52761    0.012
 4490.00    1.39586   1.52482    0.012
 4491.00    1.38933   1.52542    0.012
 4492.00    1.48131   1.53151    0.012
 4493.00    1.65428   1.54398    0.012
 4494.00    1.66988   1.56111    0.012
 4495.00    1.57159   1.58210    0.012
 4496.00    1.42341   1.60551    0.012
 4497.00    1.24355   1.63194    0.012
 4498.00    1.28950   1.65713    0.012
 4499.00    1.46088   1.67867    0.012
 4500.00    1.59109   1.70001    0.012
 4501.00    1.70142   1.71593    0.012
 4502.00    1.82483   1.72484    0.012
 4503.00    1.95371   1.73065    0.012
 4504.00    1.85441   1.73063    0.012
 4505.00    1.67368   1.72504    0.012
 4506.00    1.63396   1.71587    0.012
 4507.00    1.63675   1.70398    0.012
 4508.00    1.62363   1.69065    0.012
 4509.00    1.60652   1.67550    0.012
 4510.00    1.72459   1.66237    0.012
 4511.00    1.87015   1.65169    0.012
 4512.00    1.81058   1.64144    0.012
 4513.00    1.71829   1.63601    0.012
 4514.00    1.72200   1.63207    0.012
 4515.00    1.73712   1.62680    0.012
 4516.00    1.52861   1.62262    0.012
 4517.00    1.30201   1.61301    0.012
 4518.00    1.47903   1.59831    0.012
 4519.00    1.67441   1.57965    0.013
 4520.00    1.64246   1.55242    0.012
 4521.00    1.60295   1.52330    0.012
 4522.00    1.32033   1.49315    0.012
 4523.00    1.06927   1.46131    0.012
 4524.00    1.41029   1.43651    0.012
 4525.00    1.72759   1.41722    0.012
 4526.00    1.77909   1.40400    0.012
 4527.00    1.82442   1.40086    0.012
 4528.00    1.82152   1.40388    0.012
 4529.00    1.79744   1.41379    0.012
 4530.00    1.64818   1.42901    0.012
 4531.00    1.56280   1.44788    0.012
 4532.00    1.77640   1.46995    0.012
 4533.00    1.93842   1.49055    0.012
 4534.00    1.90335   1.51211    0.012
 4535.00    1.84700   1.53085    0.012
 4536.00    1.72279   1.54292    0.012
 4537.00    1.64216   1.55392    0.012
 4538.00    1.67929   1.55949    0.012
 4539.00    1.63597   1.55902    0.012
 4540.00    1.40624   1.55855    0.012
 4541.00    1.29769   1.55440    0.012
 4542.00    1.43202   1.54840    0.012
 4543.00    1.55778   1.54392    0.012
 4544.00    1.66855   1.53761    0.012
 4545.00    1.60863   1.53347    0.012
 4546.00    1.28788   1.53105    0.012
 4547.00    1.25479   1.52863    0.012
 4548.00    1.60789   1.53189    0.012
 4549.00    1.80753   1.53682    0.012
 4550.00    1.82578   1.54395    0.000
 4551.00    1.84609   1.55807    0.000
 4552.00    1.86855   1.57258    0.000
 4553.00    1.74169   1.58823    0.000
 4554.00    1.47753   1.60630    0.000
 4555.00    1.33758   1.61958    0.000
 4556.00    1.29829   1.62985    0.000
 4557.00    1.36309   1.63653    0.000
 4558.00    1.50213   1.63686    0.000
 4559.00    1.66400   1.63590    0.000
 4560.00    1.84017   1.63194    0.000
 4561.00    1.85461   1.62774    0.000
 4562.00    1.78059   1.62778    0.000
 4563.00    1.77767   1.62595    0.000
 4564.00    1.80854   1.62773    0.000
 4565.00    1.66814   1.63329    0.000
 4566.00    1.45751   1.63381    0.000
 4567.00    1.28403   1.63766    0.000
 4568.00    1.12358   1.64195    0.000
 4569.00    1.27313   1.63935    0.000
 4570.00    1.51430   1.63934    0.000
 4571.00    1.60609   1.63666    0.000
 4572.00    1.66127   1.62667    0.000
 4573.00    1.59730   1.61793    0.000
 4574.00    1.50970   1.60625    0.000
 4575.00    1.64280   1.58984    0.000
 4576.00    1.81006   1.57686    0.000
 4577.00    1.65355   1.56585    0.000
 4578.00    1.45999   1.55561    0.000
 4579.00    1.52446   1.55229    0.000
 4580.00    1.60875   1.55325    0.000
 4581.00    1.65918   1.55633    0.000
 4582.00    1.70820   1.56494    0.000
 4583.00    1.57494   1.57346    0.000
 4584.00    1.44421   1.58040    0.000
 4585.00    1.49013   1.58765    0.000
 4586.00    1.53141   1.58934    0.000
 4587.00    1.49135   1.58686    0.000
 4588.00    1.47143   1.58310    0.000
 4589.00    1.66699   1.57418    0.000
 4590.00    1.82828   1.56445    0.000
 4591.00    1.73057   1.55747    0.000
 4592.00    1.64595   1.54849    0.000
 4593.00    1.63659   1.54329    0.000
 4594.00    1.60082   1.54285    0.000
 4595.00    1.44436   1.54064    0.000
 4596.00    1.33982   1.54386    0.000
 4597.00    1.42950   1.54987    0.000
 4598.00    1.48026   1.55509    0.000
 4599.00    1.40928   1.56610    0.000
 4600.00    1.32775   1.57828    0.000
 4601.00    1.21821   1.59237    0.000
 4602.00    1.28350   1.60963    0.000
 4603.00    1.74719   1.62662    0.000
 4604.00    1.98036   1.64449    0.000
 4605.00    1.75876   1.65891    0.000
 4606.00    1.62944   1.67136    0.000
 4607.00    1.65882   1.68214    0.000
 4608.00    1.61931   1.68596    0.000
 4609.00    1.47607   1.69061    0.000
 4610.00    1.39351   1.69447    0.000
 4611.00    1.39122   1.69253    0.000
 4612.00    1.42813   1.69572    0.000
 4613.00    1.51071   1.69870    0.000
 4614.00    1.61385   1.69658    0.000
 4615.00    1.73811   1.69976    0.000
 4616.00    1.67103   1.70185    0.000
 4617.00    1.43051   1.69930    0.000
 4618.00    1.38559   1.70018    0.000
 4619.00    1.49694   1.69982    0.000
 4620.00    1.64286   1.69665    0.000
 4621.00    1.81306   1.69493    0.000
 4622.00    1.80926   1.69219    0.000
 4623.00    1.69818   1.68919    0.000
 4624.00    1.62800   1.68559    0.000
 4625.00    1.57984   1.68028    0.000
 4626.00    1.61034   1.67508    0.000
 4627.00    1.67762   1.66763    0.000
 4628.00    1.59935   1.65828    0.000
 4629.00    1.46240   1.64689    0.000
 4630.00    1.77250   1.63345    0.000
 4631.00    2.23638   1.62050    0.000
 4632.00    2.22129   1.60492    0.000
 4633.00    2.06745   1.59070    0.000
 4634.00    1.76337   1.57927    0.000
 4635.00    1.42331   1.56559    0.000
 4636.00    1.58204   1.55562    0.000
 4637.00    1.83712   1.54686    0.000
 4638.00    1.75022   1.53478    0.000
 4639.00    1.61199   1.52584    0.000
 4640.00    1.38534   1.51635    0.000
 4641.00    1.14895   1.50532    0.000
 4642.00    1.17939   1.49928    0.000
 4643.00    1.22923   1.49464    0.000
 4644.00    1.23477   1.49340    0.000
 4645.00    1.23863   1.49979    0.000
 4646.00    1.22142   1.50682    0.000
 4647.00    1.20644   1.51733    0.000
 4648.00    1.27809   1.53238    0.000
 4649.00    1.35203   1.54471    0.000
 4650.00    1.46346   1.55897    0.000
 4651.00    1.55541   1.57370    0.000
 4652.00    1.44798   1.58554    0.000
 4653.00    1.35675   1.59826    0.000
 4654.00    1.38397   1.60785    0.000
 4655.00    1.40097   1.61290    0.000
 4656.00    1.36086   1.61425    0.000
 4657.00    1.33999   1.60881    0.000
 4658.00    1.40493   1.59478    0.000
 4659.00    1.40082   1.57467    0.000
 4660.00    1.14380   1.55248    0.000
 4661.00    1.00477   1.52793    0.000
 4662.00    1.22771   1.50455    0.000
 4663.00    1.43488   1.48822    0.000
 4664.00    1.60091   1.47823    0.000
 4665.00    1.63698   1.47609    0.000
 4666.00    1.38177   1.48240    0.000
 4667.00    1.31431   1.49311    0.000
 4668.00    1.61149   1.50873    0.000
 4669.00    1.79151   1.52499    0.000
 4670.00    1.77314   1.53742    0.000
 4671.00    1.71387   1.54913    0.000
 4672.00    1.59394   1.55641    0.000
 4673.00    1.48673   1.55769    0.000
 4674.00    1.39610   1.55727    0.000
 4675.00    1.46973   1.55494    0.000
 4676.00    1.73207   1.55071    0.000
 4677.00    1.77424   1.54686    0.000
 4678.00    1.59332   1.54563    0.000
 4679.00    1.60740   1.54486    0.000
 4680.00    1.79575   1.54480    0.000
 4681.00    1.81595   1.54757    0.000
 4682.00    1.70371   1.54865    0.000
 4683.00    1.65249   1.54931    0.000
 4684.00    1.64354   1.55182    0.000
 4685.00    1.77247   1.55208    0.000
 4686.00    1.98515   1.55225    0.000
 4687.00    1.94055   1.55437    0.000
 4688.00    1.75953   1.55526    0.000
 4689.00    1.67797   1.55595    0.000
 4690.00    1.64218   1.55601    0.000
 4691.00    1.57652   1.55374    0.000
 4692.00    1.49902   1.55023    0.000
 4693.00    1.32847   1.54242    0.000
 4694.00    1.12650   1.53198    0.000
 4695.00    1.11869   1.52203    0.000
 4696.00    1.16598   1.51074    0.000
 4697.00    1.26241   1.50019    0.000
 4698.00    1.37034   1.49098    0.000
 4699.00    1.44246   1.48492    0.000
 4700.00    1.50783   1.48299    0.000
 4701.00    1.56660   1.48129    0.000
 4702.00    1.62442   1.48185    0.000
 4703.00    1.53467   1.48667    0.000
 4704.00    1.42933   1.49115    0.000
 4705.00    1.42060   1.49734    0.000
 4706.00    1.41851   1.50633    0.000
 4707.00    1.49550   1.51473    0.000
 4708.00    1.57519   1.52663    0.000
 4709.00    1.31111   1.53867    0.000
 4710.00    1.05777   1.55110    0.000
 4711.00    1.17074   1.56956    0.000
 4712.00    1.28781   1.58632    0.000
 4713.00    1.46766   1.60252    0.000
 4714.00    1.62803   1.62083    0.000
 4715.00    1.59735   1.63554    0.000
 4716.00    1.58067   1.64763    0.000
 4717.00    1.66296   1.65451    0.000
 4718.00    1.72427   1.65511    0.000
 4719.00    1.67139   1.65168    0.000
 4720.00    1.64079   1.64196    0.000
 4721.00    1.70722   1.62694    0.000
 4722.00    1.77560   1.60732    0.000
 4723.00    1.85092   1.58631    0.000
 4724.00    1.85875   1.56846    0.000
 4725.00    1.66340   1.55208    0.000
 4726.00    1.54325   1.53926    0.000
 4727.00    1.61581   1.53446    0.000
 4728.00    1.63433   1.53331    0.000
 4729.00    1.53369   1.53586    0.000
 4730.00    1.49446   1.54569    0.000
 4731.00    1.57262   1.55342    0.000
 4732.00    1.58425   1.56141    0.000
 4733.00    1.48490   1.57505    0.000
 4734.00    1.58180   1.58439    0.000
 4735.00    1.96566   1.59216    0.000
 4736.00    2.04261   1.60112    0.000
 4737.00    1.72495   1.60785    0.000
 4738.00    1.58662   1.61699    0.000
 4739.00    1.65141   1.62438    0.000
 4740.00    1.64963   1.62823    0.000
 4741.00    1.58132   1.63586    0.000
 4742.00    1.57473   1.64204    0.000
 4743.00    1.62253   1.64361    0.000
 4744.00    1.60564   1.64452    0.000
 4745.00    1.53852   1.64362    0.000
 4746.00    1.47054   1.64000    0.000
 4747.00    1.40197   1.63331    0.000
 4748.00    1.47849   1.62521    0.000
 4749.00    1.64181   1.61614    0.000
 4750.00    1.73576   1.60759    0.000
 4751.00    1.79349   1.59909    0.000
 4752.00    1.84507   1.59073    0.000
 4753.00    1.89388   1.58375    0.000
 4754.00    1.75825   1.57628    0.000
 4755.00    1.55080   1.56949    0.000
 4756.00    1.56872   1.56052    0.000
 4757.00    1.66132   1.54908    0.000
 4758.00    1.61848   1.53966    0.000
 4759.00    1.53801   1.53040    0.000
 4760.00    1.69793   1.52118    0.000
 4761.00    1.91283   1.51527    0.011
 4762.00    1.79620   1.51474    0.011
 4763.00    1.61885   1.51796    0.011
 4764.00    1.37717   1.52589    0.011
 4765.00    1.12644   1.53790    0.011
 4766.00    1.28775   1.54981    0.011
 4767.00    1.49085   1.56477    0.011
 4768.00    1.50224   1.58050    0.011
 4769.00    1.50124   1.59575    0.011
 4770.00    1.52988   1.60955    0.011
 4771.00    1.55928   1.61798    0.011
 4772.00    1.51993   1.62677    0.011
 4773.00    1.48989   1.63212    0.011
 4774.00    1.72933   1.63088    0.011
 4775.00    1.94134   1.62758    0.011
 4776.00    1.75706   1.62102    0.011
 4777.00    1.59635   1.61236    0.011
 4778.00    1.65739   1.59987    0.011
 4779.00    1.71320   1.58814    0.011
 4780.00    1.73316   1.58030    0.011
 4781.00    1.73775   1.56890    0.010
 4782.00    1.66096   1.56280    0.010
 4783.00    1.57432   1.56310    0.010
 4784.00    1.44570   1.56240    0.010
 4785.00    1.35768   1.56854    0.010
 4786.00    1.41232   1.57804    0.010
 4787.00    1.50722   1.58825    0.011
 4788.00    1.72110   1.60277    0.011
 4789.00    1.87590   1.61594    0.011
 4790.00    1.88189   1.62682    0.011
 4791.00    1.83876   1.63566    0.011
 4792.00    1.68912   1.64083    0.011
 4793.00    1.56169   1.64271    0.011
 4794.00    1.47608   1.64158    0.011
 4795.00    1.47764   1.63852    0.010
 4796.00    1.62247   1.63579    0.011
 4797.00    1.71376   1.63278    0.011
 4798.00    1.72791   1.62891    0.011
 4799.00    1.73801   1.62465    0.011
 4800.00    1.74297   1.61928    0.011
 4801.00    1.70952   1.61639    0.011
 4802.00    1.63317   1.61227    0.011
 4803.00    1.53533   1.60690    0.011
 4804.00    1.41630   1.60606    0.011
 4805.00    1.40780   1.60608    0.011
 4806.00    1.49532   1.60746    0.011
 4807.00    1.46200   1.61159    0.011
 4808.00    1.33619   1.61666    0.011
 4809.00    1.20632   1.62475    0.011
 4810.00    1.07372   1.63304    0.011
 4811.00    1.16110   1.64101    0.011
 4812.00    1.37810   1.64912    0.011
 4813.00    1.33283   1.65384    0.011
 4814.00    1.15279   1.65760    0.011
 4815.00    1.23084   1.65776    0.011
 4816.00    1.42380   1.65391    0.011
 4817.00    1.68267   1.64930    0.011
 4818.00    1.96675   1.63899    0.011
 4819.00    1.83806   1.62906    0.011
 4820.00    1.57518   1.62252    0.011
 4821.00    1.48133   1.61307    0.011
 4822.00    1.43349   1.60505    0.011
 4823.00    1.61108   1.59913    0.011
 4824.00    1.83904   1.59377    0.011
 4825.00    1.79586   1.59202    0.011
 4826.00    1.70435   1.58860    0.011
 4827.00    1.54973   1.58442    0.011
 4828.00    1.38651   1.58514    0.011
 4829.00    1.50129   1.58511    0.011
 4830.00    1.64307   1.58345    0.011
 4831.00    1.57496   1.58241    0.011
 4832.00    1.49411   1.58117    0.011
 4833.00    1.56549   1.57913    0.011
 4834.00    1.64042   1.57564    0.011
 4835.00    1.62799   1.57190    0.011
 4836.00    1.62052   1.56971    0.011
 4837.00    1.74242   1.56874    0.011
 4838.00    1.85956   1.56615    0.011
 4839.00    1.91166   1.56655    0.011
 4840.00    1.92578   1.57064    0.011
 4841.00    1.59662   1.57226    0.011
 4842.00    1.32918   1.57416    0.011
 4843.00    1.47130   1.57495    0.011
 4844.00    1.60053   1.57340    0.011
 4845.00    1.66322   1.57225    0.011
 4846.00    1.70359   1.56557    0.011
 4847.00    1.65103   1.55541    0.011
 4848.00    1.66919   1.54477    0.000
 4849.00    1.93083   1.52823    0.000
 4850.00    2.02144   1.50691    0.000
 4851.00    1.61606   1.48420    0.000
 4852.00    1.27465   1.46127    0.000
 4853.00    1.09156   1.43641    0.000
 4854.00    1.05071   1.41058    0.000
 4855.00    1.31332   1.38818    0.000
 4856.00    1.47176   1.36930    0.000
 4857.00    1.43714   1.35861    0.000
 4858.00    1.43691   1.35533    0.000
 4859.00    1.49234   1.35487    0.000
 4860.00    1.54606   1.36298    0.000
 4861.00    1.59734   1.37470    0.000
 4862.00    1.52122   1.38635    0.000
 4863.00    1.28594   1.39922    0.000
 4864.00    1.30013   1.40908    0.000
 4865.00    1.58902   1.41632    0.000
 4866.00    1.68644   1.42081    0.000
 4867.00    1.59789   1.42595    0.000
 4868.00    1.42993   1.43295    0.000
 4869.00    1.19396   1.44089    0.000
 4870.00    1.09965   1.45045    0.000
 4871.00    1.11221   1.46238    0.000
 4872.00    1.28981   1.47796    0.000
 4873.00    1.57683   1.49189    0.000
 4874.00    1.67409   1.50458    0.000
 4875.00    1.66122   1.51395    0.011
 4876.00    1.56990   1.51670    0.011
 4877.00    1.43891   1.51842    0.011
 4878.00    1.28050   1.51533    0.011
 4879.00    1.11009   1.50598    0.011
 4880.00    1.23691   1.49462    0.011
 4881.00    1.47545   1.48126    0.011
 4882.00    1.54673   1.47145    0.011
 4883.00    1.56467   1.46404    0.011
 4884.00    1.65793   1.45767    0.012
 4885.00    1.77125   1.45896    0.012
 4886.00    1.50933   1.46487    0.012
 4887.00    1.16553   1.47999    0.012
 4888.00    1.20164   1.50165    0.011
 4889.00    1.30360   1.52239    0.011
 4890.00    1.49943   1.54873    0.011
 4891.00    1.70762   1.57443    0.011
 4892.00    1.71548   1.59556    0.011
 4893.00    1.70473   1.61329    0.011
 4894.00    1.75566   1.62300    0.011
 4895.00    1.81010   1.62775    0.012
 4896.00    1.67349   1.63032    0.011
 4897.00    1.53444   1.62704    0.011
 4898.00    1.60513   1.62055    0.011
 4899.00    1.66700   1.61509    0.011
 4900.00    1.51928   1.60846    0.011
 4901.00    1.39280   1.60202    0.011
 4902.00    1.54088   1.59459    0.011
 4903.00    1.65619   1.58594    0.011
 4904.00    1.48661   1.57910    0.011
 4905.00    1.35141   1.57152    0.011
 4906.00    1.43741   1.56413    0.011
 4907.00    1.52694   1.55733    0.011
 4908.00    1.63426   1.54947    0.011
 4909.00    1.70955   1.54147    0.011
 4910.00    1.65450   1.53230    0.011
 4911.00    1.61624   1.51978    0.011
 4912.00    1.63468   1.50442    0.011
 4913.00    1.58642   1.48635    0.011
 4914.00    1.34829   1.46764    0.011
 4915.00    1.19706   1.45216    0.011
 4916.00    1.25727   1.44075    0.011
 4917.00    1.32331   1.43538    0.011
 4918.00    1.40162   1.43696    0.011
 4919.00    1.49108   1.44702    0.011
 4920.00    1.60088   1.46448    0.011
 4921.00    1.57622   1.48691    0.011
 4922.00    1.33713   1.51093    0.010
 4923.00    1.26955   1.53238    0.010
 4924.00    1.44201   1.55376    0.010
 4925.00    1.53370   1.57016    0.011
 4926.00    1.52590   1.57833    0.011
 4927.00    1.49293   1.58168    0.011
 4928.00    1.43263   1.57695    0.011
 4929.00    1.44166   1.56849    0.011
 4930.00    1.51706   1.55929    0.011
 4931.00    1.57718   1.54515    0.011
 4932.00    1.62441   1.53253    0.011
 4933.00    1.69184   1.52517    0.011
 4934.00    1.77429   1.52182    0.011
 4935.00    1.80300   1.52432    0.011
 4936.00    1.79660   1.53136    0.010
 4937.00    1.73161   1.54201    0.011
 4938.00    1.63313   1.55782    0.011
 4939.00    1.42232   1.57601    0.011
 4940.00    1.15560   1.59268    0.000
 4941.00    1.22974   1.60839    0.000
 4942.00    1.45067   1.62220    0.000
 4943.00    1.54053   1.63194    0.000
 4944.00    1.58199   1.63844    0.000
 4945.00    1.54072   1.64012    0.000
 4946.00    1.47357   1.63722    0.000
 4947.00    1.59839   1.62961    0.000
 4948.00    1.77331   1.61723    0.000
 4949.00    1.72191   1.60285    0.000
 4950.00    1.62233   1.58323    0.000
 4951.00    1.70313   1.56443    0.000
 4952.00    1.81432   1.54767    0.000
 4953.00    1.83776   1.53397    0.000
 4954.00    1.85003   1.52755    0.000
 4955.00    1.51006   1.52071    0.000
 4956.00    1.13884   1.51955    0.000
 4957.00    1.31186   1.52380    0.000
 4958.00    1.51361   1.52701    0.000
 4959.00    1.56780   1.53148    0.000
 4960.00    1.61844   1.53246    0.000
 4961.00    1.61147   1.53244    0.000
 4962.00    1.60037   1.53425    0.000
 4963.00    1.49968   1.53335    0.000
 4964.00    1.40476   1.53448    0.000
 4965.00    1.38072   1.53772    0.000
 4966.00    1.37628   1.54071    0.000
 4967.00    1.53606   1.54698    0.000
 4968.00    1.66007   1.55063    0.000
 4969.00    1.56079   1.55275    0.000
 4970.00    1.47687   1.55319    0.000
 4971.00    1.46830   1.54676    0.000
 4972.00    1.46760   1.53784    0.000
 4973.00    1.49824   1.52372    0.000
 4974.00    1.60083   1.50563    0.000
 4975.00    1.94150   1.48619    0.000
 4976.00    2.12217   1.46468    0.000
 4977.00    1.85560   1.44657    0.000
 4978.00    1.58570   1.43221    0.000
 4979.00    1.30780   1.42280    0.000
 4980.00    1.17283   1.41959    0.000
 4981.00    1.33308   1.42060    0.000
 4982.00    1.45060   1.42786    0.000
 4983.00    1.49133   1.43853    0.000
 4984.00    1.63538   1.44971    0.000
 4985.00    1.94175   1.46383    0.000
 4986.00    1.99628   1.47464    0.000
 4987.00    1.70343   1.48299    0.000
 4988.00    1.49704   1.49051    0.000
 4989.00    1.39562   1.49229    0.000
 4990.00    1.36170   1.49378    0.000
 4991.00    1.40001   1.49175    0.000
 4992.00    1.34492   1.48401    0.000
 4993.00    1.20163   1.47602    0.000
 4994.00    1.28688   1.46401    0.000
 4995.00    1.56236   1.45055    0.000
 4996.00    1.59292   1.43770    0.000
 4997.00    1.44400   1.42240    0.000
 4998.00    1.33830   1.40831    0.000
 4999.00    1.26042   1.39563    0.000
 5000.00    1.26703   1.38533    0.000
 5001.00    1.32119   1.37948    0.000
 5002.00    1.28355   1.37454    0.000
 5003.00    1.20092   1.37084    0.000
 5004.00    1.34831   1.36780    0.000
 5005.00    1.59311   1.36395    0.000
 5006.00    1.61122   1.36174    0.000
 5007.00    1.54713   1.35730    0.000
 5008.00    1.56675   1.35278    0.000
 5009.00    1.61205   1.34901    0.000
 5010.00    1.61927   1.34322    0.000
 5011.00    1.61678   1.34053    0.000
 5012.00    1.41982   1.34012    0.000
 5013.00    1.18245   1.34217    0.000
 5014.00    1.33857   1.34783    0.000
 5015.00    1.55911   1.35230    0.000
 5016.00    1.50486   1.35938    0.000
 5017.00    1.41690   1.36929    0.000
 5018.00    1.29600   1.37808    0.000
 5019.00    1.17233   1.38926    0.000
 5020.00    1.36189   1.39747    0.000
 5021.00    1.56676   1.40759    0.000
 5022.00    1.56295   1.42077    0.000
 5023.00    1.55434   1.43091    0.000
 5024.00    1.44945   1.44308    0.000
 5025.00    1.35084   1.45281    0.000
 5026.00    1.37797   1.46140    0.000
 5027.00    1.39827   1.46912    0.000
 5028.00    1.33885   1.46966    0.000
 5029.00    1.29315   1.46585    0.010
 5030.00    1.35825   1.46001    0.010
 5031.00    1.43035   1.44882    0.010
 5032.00    1.54485   1.43404    0.011
 5033.00    1.63146   1.41656    0.011
 5034.00    1.58471   1.39764    0.011
 5035.00    1.52365   1.38719    0.011
 5036.00    1.40688   1.38122    0.011
 5037.00    1.27451   1.37905    0.011
 5038.00    1.09152   1.38372    0.010
 5039.00    1.03191   1.39076    0.010
 5040.00    1.31103   1.40313    0.010
 5041.00    1.50948   1.41610    0.010
 5042.00    1.51825   1.42679    0.011
 5043.00    1.50188   1.43737    0.011
 5044.00    1.43441   1.44421    0.011
 5045.00    1.46619   1.44856    0.011
 5046.00    1.67357   1.45244    0.011
 5047.00    1.69295   1.45643    0.011
 5048.00    1.42132   1.46320    0.011
 5049.00    1.30096   1.47129    0.011
 5050.00    1.38627   1.48078    0.011
 5051.00    1.40501   1.49283    0.011
 5052.00    1.34409   1.50380    0.011
 5053.00    1.31627   1.51411    0.011
 5054.00    1.32337   1.52261    0.011
 5055.00    1.24023   1.52669    0.011
 5056.00    1.07309   1.52758    0.011
 5057.00    1.24459   1.52207    0.011
 5058.00    1.69397   1.51304    0.011
 5059.00    1.83186   1.50457    0.011
 5060.00    1.74477   1.49214    0.011
 5061.00    1.54087   1.47907    0.011
 5062.00    1.26292   1.46597    0.011
 5063.00    1.31775   1.45522    0.011
 5064.00    1.55707   1.44825    0.011
 5065.00    1.42986   1.44055    0.011
 5066.00    1.12593   1.43646    0.011
 5067.00    1.13298   1.43360    0.011
 5068.00    1.26950   1.43006    0.011
 5069.00    1.36485   1.42611    0.011
 5070.00    1.44554   1.42019    0.011
 5071.00    1.44573   1.41407    0.011
 5072.00    1.42172   1.40398    0.011
 5073.00    1.44410   1.39318    0.011
 5074.00    1.47806   1.38461    0.011
 5075.00    1.49269   1.37712    0.011
 5076.00    1.50340   1.37130    0.011
 5077.00    1.36561   1.36699    0.011
 5078.00    1.20422   1.36817    0.011
 5079.00    1.44541   1.37449    0.011
 5080.00    1.73421   1.38408    0.010
 5081.00    1.75181   1.39606    0.010
 5082.00    1.74760   1.40998    0.011
 5083.00    1.64039   1.42476    0.011
 5084.00    1.52853   1.43817    0.011
 5085.00    1.45404   1.45020    0.010
 5086.00    1.38027   1.46000    0.010
 5087.00    1.32050   1.46608    0.010
 5088.00    1.26013   1.46817    0.010
 5089.00    1.18865   1.46612    0.010
 5090.00    1.13677   1.46085    0.010
 5091.00    1.30298   1.45300    0.010
 5092.00    1.44446   1.44204    0.010
 5093.00    1.39323   1.43213    0.010
 5094.00    1.33136   1.42281    0.010
 5095.00    1.20676   1.41398    0.010
 5096.00    1.13475   1.40660    0.010
 5097.00    1.30821   1.40025    0.010
 5098.00    1.44547   1.39755    0.010
 5099.00    1.44478   1.39618    0.010
 5100.00    1.45814   1.39399    0.010
 5101.00    1.51617   1.39167    0.010
 5102.00    1.62300   1.39027    0.010
 5103.00    1.86145   1.38877    0.010
 5104.00    1.97823   1.39009    0.010
 5105.00    1.81372   1.39312    0.010
 5106.00    1.66523   1.39748    0.010
 5107.00    1.54880   1.40570    0.010
 5108.00    1.48163   1.41407    0.010
 5109.00    1.50028   1.42446    0.010
 5110.00    1.49954   1.43586    0.010
 5111.00    1.46923   1.44390    0.010
 5112.00    1.48038   1.45006    0.010
 5113.00    1.54710   1.45193    0.011
 5114.00    1.52690   1.44854    0.011
 5115.00    1.40413   1.44234    0.011
 5116.00    1.31224   1.43056    0.011
 5117.00    1.25250   1.41592    0.011
 5118.00    1.32125   1.40029    0.011
 5119.00    1.50792   1.38364    0.011
 5120.00    1.59103   1.36904    0.011
 5121.00    1.59036   1.35633    0.011
 5122.00    1.62324   1.34730    0.011
 5123.00    1.68000   1.34340    0.011
 5124.00    1.55179   1.34349    0.010
 5125.00    1.30805   1.34616    0.010
 5126.00    1.29073   1.35173    0.011
 5127.00    1.39700   1.35773    0.011
 5128.00    1.45496   1.36476    0.011
 5129.00    1.49000   1.37096    0.011
 5130.00    1.51883   1.37383    0.011
 5131.00    1.54512   1.37587    0.011
 5132.00    1.60153   1.37360    0.011
 5133.00    1.66846   1.37101    0.011
 5134.00    1.49140   1.36657    0.011
 5135.00    1.24242   1.35824    0.011
 5136.00    1.32894   1.35170    0.011
 5137.00    1.49742   1.34465    0.011
 5138.00    1.51030   1.33895    0.011
 5139.00    1.49243   1.33513    0.011
 5140.00    1.39303   1.32953    0.011
 5141.00    1.28106   1.32624    0.011
 5142.00    1.34470   1.32550    0.011
 5143.00    1.42834   1.32394    0.011
 5144.00    1.33801   1.32340    0.011
 5145.00    1.23440   1.32413    0.011
 5146.00    1.33895   1.32672    0.011
 5147.00    1.45206   1.33166    0.011
 5148.00    1.44486   1.33787    0.011
 5149.00    1.43553   1.34556    0.011
 5150.00    1.37814   1.35434    0.011
 5151.00    1.32817   1.36357    0.010
 5152.00    1.40653   1.37132    0.011
 5153.00    1.48310   1.37717    0.011
 5154.00    1.54052   1.37949    0.011
 5155.00    1.56869   1.37522    0.011
 5156.00    1.37671   1.36446    0.010
 5157.00    1.23347   1.34526    0.010
 5158.00    1.36944   1.31827    0.011
 5159.00    1.48778   1.28614    0.011
 5160.00    1.52584   1.24825    0.011
 5161.00    1.55508   1.21079    0.011
 5162.00    1.55144   1.17407    0.010
 5163.00    1.49152   1.13886    0.010
 5164.00    1.25596   1.10919    0.010
 5165.00    1.10633   1.08642    0.010
 5166.00    1.18424   1.07543    0.010
 5167.00    1.23300   1.07574    0.010
 5168.00    1.21546   1.08471    0.010
 5169.00    1.19384   1.09786    0.010
 5170.00    1.16419   1.11321    0.010
 5171.00    1.21030   1.13260    0.010
 5172.00    1.38643   1.15387    0.010
 5173.00    1.52766   1.17163    0.010
 5174.00    1.61644   1.18186    0.010
 5175.00    1.70229   1.18642    0.010
 5176.00    1.78428   1.18686    0.010
 5177.00    1.65641   1.18414    0.010
 5178.00    1.28442   1.18288    0.010
 5179.00    1.09731   1.18280    0.010
 5180.00    1.09986   1.18617    0.010
 5181.00    1.12454   1.19275    0.010
 5182.00    1.16924   1.20430    0.010
 5183.00    1.16931   1.22344    0.010
 5184.00    1.13377   1.24284    0.010
 5185.00    1.18389   1.26130    0.010
 5186.00    1.29410   1.27684    0.010
 5187.00    1.39104   1.29048    0.010
 5188.00    1.47981   1.30307    0.010
 5189.00    1.39085   1.31207    0.010
 5190.00    1.20637   1.32018    0.000
 5191.00    1.20927   1.32971    0.000
 5192.00    1.29963   1.33921    0.000
 5193.00    1.28860   1.34569    0.000
 5194.00    1.23677   1.35102    0.000
 5195.00    1.19910   1.35349    0.000
 5196.00    1.16628   1.35092    0.000
 5197.00    1.23272   1.34459    0.000
 5198.00    1.32782   1.33469    0.000
 5199.00    1.54363   1.32098    0.000
 5200.00    1.78826   1.30639    0.000
 5201.00    1.61041   1.29275    0.000
 5202.00    1.35123   1.28177    0.000
 5203.00    1.35741   1.27520    0.000
 5204.00    1.40326   1.27451    0.000
 5205.00    1.33010   1.28165    0.000
 5206.00    1.24391   1.29080    0.000
 5207.00    1.30971   1.30552    0.000
 5208.00    1.38649   1.32396    0.000
 5209.00    1.35598   1.34266    0.000
 5210.00    1.32147   1.36198    0.000
 5211.00    1.56189   1.37784    0.011
 5212.00    1.79463   1.39162    0.011
 5213.00    1.70132   1.40012    0.011
 5214.00    1.61183   1.40537    0.011
 5215.00    1.58427   1.40736    0.011
 5216.00    1.53644   1.40511    0.011
 5217.00    1.28224   1.39907    0.011
 5218.00    1.08883   1.38847    0.010
 5219.00    1.33784   1.37793    0.011
 5220.00    1.56268   1.36646    0.011
 5221.00    1.65296   1.35542    0.011
 5222.00    1.68979   1.34774    0.010
 5223.00    1.48891   1.34247    0.011
 5224.00    1.31127   1.34180    0.011
 5225.00    1.21851   1.34570    0.010
 5226.00    1.17214   1.35562    0.010
 5227.00    1.26775   1.36967    0.010
 5228.00    1.33986   1.38282    0.010
 5229.00    1.35081   1.39806    0.010
 5230.00    1.32949   1.41218    0.010
 5231.00    1.23599   1.42501    0.010
 5232.00    1.18983   1.43997    0.010
 5233.00    1.23541   1.45297    0.010
 5234.00    1.39868   1.46500    0.010
 5235.00    1.76087   1.47498    0.010
 5236.00    1.88484   1.48123    0.010
 5237.00    1.65601   1.48336    0.010
 5238.00    1.46556   1.48117    0.010
 5239.00    1.32508   1.47763    0.010
 5240.00    1.36047   1.47103    0.010
 5241.00    1.59757   1.46065    0.010
 5242.00    1.75671   1.45062    0.010
 5243.00    1.83700   1.44034    0.010
 5244.00    1.69442   1.42955    0.010
 5245.00    1.35301   1.41968    0.010
 5246.00    1.31584   1.41355    0.010
 5247.00    1.51785   1.41248    0.010
 5248.00    1.56332   1.41221    0.010
 5249.00    1.50056   1.41516    0.010
 5250.00    1.53968   1.42040    0.010
 5251.00    1.64057   1.42395    0.010
 5252.00    1.65253   1.42571    0.010
 5253.00    1.61742   1.42232    0.010
 5254.00    1.57962   1.41624    0.010
 5255.00    1.54058   1.40501    0.010
 5256.00    1.50483   1.38689    0.010
 5257.00    1.47038   1.36351    0.010
 5258.00    1.44431   1.33665    0.010
 5259.00    1.42106   1.30781    0.010
 5260.00    1.16175   1.27758    0.010
 5261.00    0.83561   1.25117    0.011
 5262.00    1.03174   1.23164    0.011
 5263.00    1.34978   1.21910    0.011
 5264.00    1.37316   1.21244    0.011
 5265.00    1.34128   1.21599    0.011
 5266.00    1.23898   1.22597    0.011
 5267.00    1.12647   1.23933    0.011
 5268.00    1.03980   1.25964    0.011
 5269.00    0.95585   1.28691    0.011
 5270.00    1.16351   1.31553    0.011
 5271.00    1.39105   1.34088    0.011
 5272.00    1.42055   1.36547    0.011
 5273.00    1.44341   1.38639    0.011
 5274.00    1.50334   1.40418    0.011
 5275.00    1.55986   1.42088    0.011
 5276.00    1.50581   1.43469    0.011
 5277.00    1.45180   1.44588    0.011
 5278.00    1.39852   1.45523    0.011
 5279.00    1.36948   1.46457    0.011
 5280.00    1.57696   1.47507    0.011
 5281.00    1.74973   1.48691    0.011
 5282.00    1.67817   1.49865    0.011
 5283.00    1.62658   1.51155    0.010
 5284.00    1.68322   1.52221    0.010
 5285.00    1.69224   1.52861    0.010
 5286.00    1.49432   1.53036    0.010
 5287.00    1.31393   1.52752    0.010
 5288.00    1.19625   1.52130    0.010
 5289.00    1.14454   1.51072    0.010
 5290.00    1.29095   1.49800    0.010
 5291.00    1.37847   1.48386    0.010
 5292.00    1.31544   1.47055    0.010
 5293.00    1.27862   1.46013    0.010
 5294.00    1.29945   1.45261    0.010
 5295.00    1.30863   1.45000    0.010
 5296.00    1.29558   1.45247    0.010
 5297.00    1.33010   1.46205    0.010
 5298.00    1.44383   1.47529    0.010
 5299.00    1.53911   1.48932    0.010
 5300.00    1.60746   1.50522    0.010
 5301.00    1.63572   1.52147    0.010
 5302.00    1.61253   1.53639    0.010
 5303.00    1.60699   1.54857    0.010
 5304.00    1.62140   1.55729    0.010
 5305.00    1.52457   1.56255    0.010
 5306.00    1.31680   1.56520    0.010
 5307.00    1.24838   1.56574    0.010
 5308.00    1.30252   1.56324    0.010
 5309.00    1.36393   1.55837    0.010
 5310.00    1.43097   1.55146    0.010
 5311.00    1.44334   1.54307    0.010
 5312.00    1.41845   1.53334    0.010
 5313.00    1.49068   1.52244    0.010
 5314.00    1.62090   1.50990    0.010
 5315.00    1.59877   1.49559    0.010
 5316.00    1.49727   1.48066    0.010
 5317.00    1.33794   1.46266    0.010
 5318.00    1.15250   1.44380    0.010
 5319.00    1.21614   1.42407    0.010
 5320.00    1.37656   1.40507    0.010
 5321.00    1.34957   1.38794    0.010
 5322.00    1.26062   1.37258    0.010
 5323.00    1.23292   1.36396    0.010
 5324.00    1.22220   1.36037    0.010
 5325.00    1.32093   1.36170    0.010
 5326.00    1.44462   1.36654    0.010
 5327.00    1.41939   1.37950    0.010
 5328.00    1.36696   1.39717    0.010
 5329.00    1.24462   1.41350    0.010
 5330.00    1.11246   1.42832    0.010
 5331.00    1.33418   1.44009    0.010
 5332.00    1.59159   1.45004    0.010
 5333.00    1.53272   1.45654    0.010
 5334.00    1.45357   1.45871    0.010
 5335.00    1.47795   1.45868    0.010
 5336.00    1.50529   1.45748    0.010
 5337.00    1.48097   1.45549    0.010
 5338.00    1.45662   1.45280    0.010
 5339.00    1.43191   1.45214    0.010
 5340.00    1.40152   1.45519    0.010
 5341.00    1.28967   1.45846    0.010
 5342.00    1.21068   1.46277    0.010
 5343.00    1.43925   1.46912    0.010
 5344.00    1.63776   1.47652    0.010
 5345.00    1.63123   1.48742    0.010
 5346.00    1.61652   1.49912    0.010
 5347.00    1.55864   1.51187    0.010
 5348.00    1.48682   1.52655    0.010
 5349.00    1.35577   1.54139    0.010
 5350.00    1.26698   1.55470    0.009
 5351.00    1.32631   1.56493    0.009
 5352.00    1.40715   1.57293    0.009
 5353.00    1.55144   1.57764    0.009
 5354.00    1.58392   1.57744    0.009
 5355.00    1.33550   1.57368    0.009
 5356.00    1.14426   1.56571    0.009
 5357.00    1.07673   1.55479    0.010
 5358.00    1.09228   1.54061    0.010
 5359.00    1.26389   1.52421    0.009
 5360.00    1.46883   1.50636    0.009
 5361.00    1.72841   1.48920    0.010
 5362.00    1.79164   1.47374    0.010
 5363.00    1.57244   1.45858    0.009
 5364.00    1.42310   1.44782    0.009
 5365.00    1.36216   1.43979    0.010
 5366.00    1.28268   1.43596    0.010
 5367.00    1.18255   1.43662    0.010
 5368.00    1.23783   1.44055   -2.000
 5369.00    1.44594   1.44885   -2.000
 5370.00    1.45161   1.46012   -2.000
 5371.00    1.28172   1.47421   -2.000
 5372.00    1.29363   1.48608   -2.000
 5373.00    1.44440   1.49651   -2.000
 5374.00    1.48463   1.50476   -2.000
 5375.00    1.45064   1.50961   -2.000
 5376.00    1.42479   1.51300   -2.000
 5377.00    1.40373   1.51357   -2.000
 5378.00    1.46982   1.51190   -2.000
 5379.00    1.58060   1.50794   -2.000
 5380.00    1.74545   1.50312   -2.000
 5381.00    1.93433   1.49637   -2.000
 5382.00    1.93859   1.48856   -2.000
 5383.00    1.87237   1.48013    0.010
 5384.00    1.75399   1.46965    0.010
 5385.00    1.61868   1.45832    0.010
 5386.00    1.48836   1.44608    0.010
 5387.00    1.35940   1.43413    0.010
 5388.00    1.39922   1.42228    0.010
 5389.00    1.47663   1.41188    0.010
 5390.00    1.52037   1.40246    0.010
 5391.00    1.55812   1.39475    0.010
 5392.00    1.57440   1.38819    0.010
 5393.00    1.58777   1.38240    0.010
 5394.00    1.52043   1.37805    0.010
 5395.00    1.44529   1.37284    0.009
 5396.00    1.44840   1.36987    0.009
 5397.00    1.45622   1.36652    0.010
 5398.00    1.46736   1.36192    0.009
 5399.00    1.47882   1.35687    0.009
 5400.00    1.53021   1.35308    0.009
 5401.00    1.57835   1.35030    0.009
 5402.00    1.54294   1.34887    0.009
 5403.00    1.51050   1.35146    0.009
 5404.00    1.51842   1.35770    0.009
 5405.00    1.52709   1.36871    0.009
 5406.00    1.54236   1.38193    0.009
 5407.00    1.53849   1.39680    0.009
 5408.00    1.40803   1.41238    0.009
 5409.00    1.31942   1.42925    0.009
 5410.00    1.44609   1.44530    0.009
 5411.00    1.55051   1.45857    0.009
 5412.00    1.56262   1.46953    0.009
 5413.00    1.55648   1.47742    0.009
 5414.00    1.48767   1.48321    0.009
 5415.00    1.43961   1.48618    0.009
 5416.00    1.45160   1.48589    0.009
 5417.00    1.44273   1.48372    0.009
 5418.00    1.38234   1.47992    0.009
 5419.00    1.36342   1.47500    0.009
 5420.00    1.43276   1.46923    0.010
 5421.00    1.41675   1.46231    0.010
 5422.00    1.24286   1.45393    0.010
 5423.00    1.12960   1.44588    0.010
 5424.00    1.11430   1.43816    0.010
 5425.00    1.16829   1.42969    0.010
 5426.00    1.32049   1.42223    0.010
 5427.00    1.39776   1.41631    0.010
 5428.00    1.38158   1.41289    0.010
 5429.00    1.36573   1.41512    0.010
 5430.00    1.35024   1.41878    0.010
 5431.00    1.38395   1.42560    0.010
 5432.00    1.46537   1.43522    0.010
 5433.00    1.50166   1.44632    0.010
 5434.00    1.49936   1.45851    0.010
 5435.00    1.37674   1.46920    0.010
 5436.00    1.16352   1.47803    0.009
 5437.00    1.22835   1.48298    0.009
 5438.00    1.47714   1.48418    0.009
 5439.00    1.59483   1.48182    0.009
 5440.00    1.63655   1.47652    0.010
 5441.00    1.50693   1.46941    0.010
 5442.00    1.29082   1.46126    0.009
 5443.00    1.29899   1.45287    0.009
 5444.00    1.40517   1.44661    0.009
 5445.00    1.47979   1.44088    0.009
 5446.00    1.54258   1.43839    0.009
 5447.00    1.54372   1.43562    0.009
 5448.00    1.52526   1.43377    0.009
 5449.00    1.50667   1.43152    0.009
 5450.00    1.48805   1.43031    0.009
 5451.00    1.52265   1.42912    0.009
 5452.00    1.56884   1.42910    0.009
 5453.00    1.53902   1.42978    0.009
 5454.00    1.49607   1.43119    0.009
 5455.00    1.39685   1.43426    0.009
 5456.00    1.29025   1.43619    0.009
 5457.00    1.31546   1.43788    0.009
 5458.00    1.35284   1.43867    0.009
 5459.00    1.40545   1.43910    0.009
 5460.00    1.45892   1.43953    0.009
 5461.00    1.53267   1.43925    0.009
 5462.00    1.60508   1.43863    0.009
 5463.00    1.48930   1.43725    0.009
 5464.00    1.37749   1.43420    0.009
 5465.00    1.35857   1.42969    0.009
 5466.00    1.35123   1.42406    0.009
 5467.00    1.49279   1.41691    0.009
 5468.00    1.60207   1.40908    0.009
 5469.00    1.43201   1.40078    0.009
 5470.00    1.28545   1.39348    0.009
 5471.00    1.28962   1.38693    0.009
 5472.00    1.29901   1.38162    0.009
 5473.00    1.33463   1.37888    0.009
 5474.00    1.36199   1.37848    0.010
 5475.00    1.35578   1.37998    0.009
 5476.00    1.33587   1.38481    0.009
 5477.00    1.26982   1.39005    0.009
 5478.00    1.27933   1.39661   -2.000
 5479.00    1.50346   1.40294   -2.000
 5480.00    1.65338   1.41011   -2.000
 5481.00    1.62315   1.41720   -2.000
 5482.00    1.61673   1.42294   -2.000
 5483.00    1.66018   1.42790   -2.000
 5484.00    1.54271   1.43121   -2.000
 5485.00    1.13219   1.43431   -2.000
 5486.00    0.78744   1.43610   -2.000
 5487.00    0.54735   1.43842   -2.000
 5488.00    0.35584   1.43964   -2.000
 5489.00    0.23216   1.44028   -2.000
 5490.00    0.60653   1.44072   -2.000
 5491.00    1.59320   1.44039   -2.000
 5492.00    1.97153   1.43964   -2.000
 5493.00    1.69060   1.43827   -2.000
 5494.00    1.67263   1.43637   -2.000
 5495.00    1.90604   1.43389   -2.000
 5496.00    1.95454   1.43060   -2.000
 5497.00    1.84722   1.42715   -2.000
 5498.00    1.75146   1.42279   -2.000
 5499.00    1.66428   1.41843   -2.000
 5500.00    1.64895   1.41389   -2.000
 5501.00    1.68045   1.41023   -2.000
 5502.00    1.73480   1.40598    0.009
 5503.00    1.80219   1.40283    0.009
 5504.00    1.71398   1.39989    0.009
 5505.00    1.54845   1.39776    0.009
 5506.00    1.46160   1.39656    0.009
 5507.00    1.40856   1.39639    0.009
 5508.00    1.49632   1.39683    0.009
 5509.00    1.63595   1.39958    0.009
 5510.00    1.59474   1.40367    0.009
 5511.00    1.49708   1.40973    0.009
 5512.00    1.52651   1.41723    0.009
 5513.00    1.58902   1.42496    0.009
 5514.00    1.54275   1.43304    0.009
 5515.00    1.47340   1.43970    0.009
 5516.00    1.53714   1.44487    0.009
 5517.00    1.62322   1.44777    0.009
 5518.00    1.43396   1.44832    0.009
 5519.00    1.20985   1.44674    0.009
 5520.00    1.26334   1.44359    0.009
 5521.00    1.34131   1.43927    0.009
 5522.00    1.25446   1.43448    0.009
 5523.00    1.15900   1.43004    0.009
 5524.00    1.33633   1.42600    0.009
 5525.00    1.51672   1.42396    0.009
 5526.00    1.54268   1.42335    0.009
 5527.00    1.56233   1.42424    0.009
 5528.00    1.44584   1.42638    0.009
 5529.00    1.33571   1.42908    0.009
 5530.00    1.30311   1.43249    0.009
 5531.00    1.29184   1.43607    0.009
 5532.00    1.45832   1.44028    0.009
 5533.00    1.59388   1.44469    0.009
 5534.00    1.53708   1.44867    0.009
 5535.00    1.47776   1.45328    0.009
 5536.00    1.40608   1.45704    0.009
 5537.00    1.35094   1.46110    0.009
 5538.00    1.36148   1.46437    0.009
 5539.00    1.39829   1.46747    0.009
 5540.00    1.52178   1.47029    0.009
 5541.00    1.58820   1.47318    0.010
 5542.00    1.49549   1.47568    0.024
 5543.00    1.39743   1.47815   -1.000
 5544.00    1.28660   1.48033   -1.000
 5545.00    1.22604   1.48156   -1.000
 5546.00    1.26911   1.48208   -1.000
 5547.00    1.27426   1.48139   -1.000
 5548.00    1.21143   1.47967   -1.000
 5549.00    1.20868   1.47672    0.042
 5550.00    1.30013   1.47312    0.012
 5551.00    1.34683   1.46887    0.008
 5552.00    1.33190   1.46440    0.008
 5553.00    1.28751   1.45943    0.009
 5554.00    1.20740   1.45411    0.009
 5555.00    1.19411   1.44884    0.009
 5556.00    1.25222   1.44298    0.009
 5557.00    1.32373   1.43731    0.009
 5558.00    1.40789   1.43141    0.009
 5559.00    1.47647   1.42560    0.009
 5560.00    1.53210   1.42065    0.009
 5561.00    1.56661   1.41603    0.009
 5562.00    1.58567   1.41226    0.009
 5563.00    1.53854   1.40971    0.009
 5564.00    1.44890   1.40820    0.009
 5565.00    1.48240   1.40785    0.009
 5566.00    1.58511   1.40847    0.009
 5567.00    1.50779   1.41074    0.009
 5568.00    1.34246   1.41298    0.009
 5569.00    1.33543   1.41570    0.009
 5570.00    1.39529   1.41944    0.009
 5571.00    1.37231   1.42244    0.009
 5572.00    1.31936   1.42472    0.009
 5573.00    1.27728   1.42611    0.009
 5574.00    1.23852   1.42572    0.009
 5575.00    1.31201   1.42316    0.009
 5576.00    1.41408   1.41883    0.009
 5577.00    1.41891   1.41201    0.009
 5578.00    1.40361   1.40289    0.009
 5579.00    1.52643   1.39267    0.009
 5580.00    1.67179   1.38111    0.009
 5581.00    1.66611   1.36947    0.009
 5582.00    1.64197   1.35854    0.009
 5583.00    1.47265   1.34897    0.008
 5584.00    1.29112   1.34229    0.008
 5585.00    1.31325   1.33849    0.008
 5586.00    1.34522   1.33758    0.008
 5587.00    1.33749   1.33965    0.008
 5588.00    1.32954   1.34286    0.008
 5589.00    1.34429   1.34785    0.009
 5590.00    1.35496   1.35265    0.009
 5591.00    1.28440   1.35792    0.009
 5592.00    1.22713   1.36306    0.009
 5593.00    1.32417   1.36713    0.009
 5594.00    1.39763   1.37049    0.009
 5595.00    1.28147   1.37411    0.009
 5596.00    1.18908   1.37897    0.009
 5597.00    1.24029   1.38408    0.009
 5598.00    1.29623   1.39155    0.009
 5599.00    1.37473   1.39963    0.009
 5600.00    1.41089   1.40998    0.009
 5601.00    1.28258   1.41999    0.009
 5602.00    1.19370   1.42955    0.009
 5603.00    1.23238   1.43723    0.009
 5604.00    1.26070   1.44238    0.009
 5605.00    1.26063   1.44471    0.009
 5606.00    1.28722   1.44380    0.009
 5607.00    1.37638   1.43997    0.009
 5608.00    1.44241   1.43382    0.009
 5609.00    1.46154   1.42556    0.009
 5610.00    1.46103   1.41642    0.009
 5611.00    1.42585   1.40632    0.009
 5612.00    1.38716   1.39831    0.009
 5613.00    1.34305   1.39249    0.009
 5614.00    1.34080   1.38783    0.009
 5615.00    1.39534   1.38453    0.009
 5616.00    1.40240   1.38270    0.009
 5617.00    1.35273   1.38258    0.008
 5618.00    1.32231   1.38359    0.008
 5619.00    1.31215   1.38529    0.008
 5620.00    1.30992   1.38748    0.008
 5621.00    1.31507   1.39087    0.008
 5622.00    1.33856   1.39596    0.008
 5623.00    1.37707   1.40141    0.008
 5624.00    1.40805   1.40655    0.008
 5625.00    1.43361   1.41179    0.008
 5626.00    1.37908   1.41575    0.008
 5627.00    1.27388   1.41847    0.008
 5628.00    1.22830   1.41919    0.008
 5629.00    1.21570   1.41844    0.008
 5630.00    1.22942   1.41595    0.008
 5631.00    1.25582   1.41243    0.008
 5632.00    1.28811   1.40832    0.008
 5633.00    1.32285   1.40386    0.008
 5634.00    1.35125   1.40020    0.008
 5635.00    1.37741   1.39724    0.008
 5636.00    1.46203   1.39531    0.008
 5637.00    1.56419   1.39413    0.008
 5638.00    1.51861   1.39424    0.008
 5639.00    1.43624   1.39577    0.008
 5640.00    1.43407   1.39747    0.008
 5641.00    1.44809   1.40006    0.008
 5642.00    1.52848   1.40238    0.008
 5643.00    1.61938   1.40460    0.009
 5644.00    1.51271   1.40607    0.009
 5645.00    1.38278   1.40651    0.009
 5646.00    1.46006   1.40584    0.009
 5647.00    1.55389   1.40394    0.009
 5648.00    1.58117   1.40069    0.009
 5649.00    1.60549   1.39596    0.009
 5650.00    1.59585   1.39012    0.009
 5651.00    1.58402   1.38368    0.009
 5652.00    1.48399   1.37747    0.009
 5653.00    1.38082   1.37190    0.009
 5654.00    1.21956   1.36682    0.008
 5655.00    1.07736   1.36381    0.008
 5656.00    1.14628   1.36330    0.008
 5657.00    1.20995   1.36413    0.008
 5658.00    1.23276   1.36672    0.008
 5659.00    1.26190   1.37073    0.008
 5660.00    1.32817   1.37656    0.008
 5661.00    1.38728   1.38261    0.008
 5662.00    1.41312   1.38954    0.008
 5663.00    1.43011   1.39624    0.008
 5664.00    1.41343   1.40352    0.008
 5665.00    1.40772   1.41066    0.008
 5666.00    1.43684   1.41778    0.008
 5667.00    1.46613   1.42444    0.008
 5668.00    1.49587   1.43044    0.008
 5669.00    1.51589   1.43556    0.008
 5670.00    1.51348   1.43913    0.008
 5671.00    1.50879   1.44130    0.008
 5672.00    1.49957   1.44154    0.008
 5673.00    1.50788   1.44051    0.008
 5674.00    1.54665   1.43742    0.008
 5675.00    1.52931   1.43340    0.008
 5676.00    1.42653   1.42809    0.009
 5677.00    1.36906   1.42280    0.009
 5678.00    1.37220   1.41730    0.009
 5679.00    1.45480   1.41261    0.009
 5680.00    1.63098   1.40911    0.009
 5681.00    1.62750   1.40660    0.009
 5682.00    1.43743   1.40585    0.008
 5683.00    1.33328   1.40601    0.008
 5684.00    1.30785   1.40822    0.008
 5685.00    1.28225   1.41061    0.009
 5686.00    1.25652   1.41416    0.009
 5687.00    1.23325   1.41684    0.009
 5688.00    1.21172   1.41910    0.008
 5689.00    1.24984   1.41995    0.008
 5690.00    1.32517   1.41916    0.008
 5691.00    1.35009   1.41684    0.008
 5692.00    1.34754   1.41232    0.008
 5693.00    1.31232   1.40673    0.008
 5694.00    1.26163   1.39945    0.008
 5695.00    1.22541   1.39147    0.008
 5696.00    1.19511   1.38293    0.009
 5697.00    1.20147   1.37431    0.009
 5698.00    1.22063   1.36584    0.009
 5699.00    1.33111   1.35774    0.009
 5700.00    1.46844   1.35017    0.008
 5701.00    1.47382   1.34349    0.008
 5702.00    1.44706   1.33819    0.008
 5703.00    1.38555   1.33435    0.008
 5704.00    1.31719   1.33323    0.008
 5705.00    1.32340   1.33420    0.008
 5706.00    1.34106   1.33800    0.008
 5707.00    1.32924   1.34476    0.008
 5708.00    1.31408   1.35375    0.008
 5709.00    1.29942   1.36480    0.008
 5710.00    1.28481   1.37723    0.008
 5711.00    1.41469   1.39030    0.008
 5712.00    1.55045   1.40331    0.008
 5713.00    1.48340   1.41591    0.008
 5714.00    1.41306   1.42727    0.008
 5715.00    1.27170   1.43709    0.008
 5716.00    1.13278   1.44530    0.008
 5717.00    1.03588   1.45134    0.008
 5718.00    0.96129   1.45564    0.008
 5719.00    1.12268   1.45785    0.008
 5720.00    1.26445   1.45874    0.009
 5721.00    1.25917   1.45787    0.009
 5722.00    1.26249   1.45677    0.008
 5723.00    1.31497   1.45512    0.008
 5724.00    1.35825   1.45346    0.008
 5725.00    1.35979   1.45161    0.008
 5726.00    1.37475   1.45040    0.008
 5727.00    1.43968   1.45007    0.008
 5728.00    1.48295   1.45001    0.008
 5729.00    1.45880   1.45046    0.008
 5730.00    1.41456   1.45089    0.008
 5731.00    1.31720   1.45154    0.008
 5732.00    1.26349   1.45199    0.008
 5733.00    1.30878   1.45242    0.008
 5734.00    1.31122   1.45244    0.008
 5735.00    1.22943   1.45236    0.008
 5736.00    1.18280   1.45182    0.008
 5737.00    1.19636   1.45110    0.008
 5738.00    1.20595   1.45009    0.008
 5739.00    1.20957   1.44900    0.008
 5740.00    1.21112   1.44719    0.000
 5741.00    1.20993   1.44515    0.000
 5742.00    1.22089   1.44224    0.000
 5743.00    1.24595   1.43962    0.000
 5744.00    1.28896   1.43640    0.000
 5745.00    1.35036   1.43323    0.000
 5746.00    1.44514   1.42972    0.000
 5747.00    1.57006   1.42667    0.000
 5748.00    1.62143   1.42409    0.000
 5749.00    1.61425   1.42224    0.000
 5750.00    1.55853   1.42129    0.000
 5751.00    1.46883   1.42044    0.000
 5752.00    1.45475   1.42048    0.000
 5753.00    1.48712   1.42033    0.000
 5754.00    1.49806   1.42112    0.000
 5755.00    1.49751   1.42170    0.000
 5756.00    1.43020   1.42362    0.000
 5757.00    1.33180   1.42552    0.000
 5758.00    1.40531   1.42889    0.000
 5759.00    1.54783   1.43233    0.000
 5760.00    1.52728   1.43652    0.000
 5761.00    1.45090   1.44062    0.000
 5762.00    1.43020   1.44461    0.000
 5763.00    1.42553   1.44798    0.000
 5764.00    1.35682   1.45018    0.000
 5765.00    1.27287   1.45141    0.000
 5766.00    1.41157   1.45085    0.000
 5767.00    1.59300   1.44906    0.000
 5768.00    1.60104   1.44562    0.000
 5769.00    1.58326   1.44070    0.000
 5770.00    1.52975   1.43446    0.000
 5771.00    1.47235   1.42663    0.000
 5772.00    1.44013   1.41785    0.000
 5773.00    1.40972   1.40758    0.000
 5774.00    1.31101   1.39738    0.000
 5775.00    1.20979   1.38665    0.000
 5776.00    1.23758   1.37705    0.000
 5777.00    1.26760   1.36812    0.000
 5778.00    1.35812   1.36154    0.000
 5779.00    1.45038   1.35720    0.000
 5780.00    1.57066   1.35550    0.000
 5781.00    1.68062   1.35661    0.000
 5782.00    1.68609   1.35996    0.000
 5783.00    1.68303   1.36546    0.000
 5784.00    1.61808   1.37268    0.000
 5785.00    1.55707   1.38100    0.000
 5786.00    1.51804   1.38981    0.000
 5787.00    1.48332   1.39865    0.000
 5788.00    1.46775   1.40718    0.000
 5789.00    1.45449   1.41493    0.000
 5790.00    1.44966   1.42207    0.000
 5791.00    1.44708   1.42847   -2.000
 5792.00    1.45143   1.43419   -2.000
 5793.00    1.50367   1.43881   -2.000
 5794.00    1.68023   1.44274   -2.000
 5795.00    1.80535   1.44557   -2.000
 5796.00    1.81565   1.44766   -2.000
 5797.00    1.77967   1.44874   -2.000
 5798.00    1.65416   1.44936   -2.000
 5799.00    1.56818   1.44913   -2.000
 5800.00    1.54889   1.44869   -2.000
 5801.00    1.54062   1.44782   -2.000
 5802.00    1.54863   1.44704   -2.000
 5803.00    1.57291   1.44627   -2.000
 5804.00    1.61832   1.44565   -2.000
 5805.00    1.60741   1.44525   -2.000
 5806.00    1.53201   1.44497   -2.000
 5807.00    1.45920   1.44503   -2.000
 5808.00    1.38901   1.44530   -2.000
 5809.00    1.35771   1.44600   -2.000
 5810.00    1.36107   1.44705   -2.000
 5811.00    1.34982   1.44862    0.000
 5812.00    1.32712   1.45062    0.000
 5813.00    1.27914   1.45313    0.000
 5814.00    1.21370   1.45597    0.000
 5815.00    1.23981   1.45913    0.000
 5816.00    1.32130   1.46218    0.000
 5817.00    1.40584   1.46518    0.000
 5818.00    1.49200   1.46767    0.000
 5819.00    1.48806   1.46990    0.000
 5820.00    1.44283   1.47138    0.000
 5821.00    1.46397   1.47242    0.000
 5822.00    1.51128   1.47277    0.000
 5823.00    1.54906   1.47270    0.000
 5824.00    1.58363   1.47206    0.000
 5825.00    1.52104   1.47106    0.000
 5826.00    1.43102   1.46977    0.000
 5827.00    1.38924   1.46830    0.000
 5828.00    1.35868   1.46674    0.000
 5829.00    1.43410   1.46534    0.000
 5830.00    1.52932   1.46412    0.000
 5831.00    1.56192   1.46331    0.000
 5832.00    1.58549   1.46273    0.000
 5833.00    1.59959   1.46259    0.000
 5834.00    1.61270   1.46246    0.000
 5835.00    1.59524   1.46244    0.000
 5836.00    1.57571   1.46200    0.000
 5837.00    1.54098   1.46115    0.000
 5838.00    1.50575   1.45942    0.000
 5839.00    1.45390   1.45684    0.000
 5840.00    1.40316   1.45309    0.000
 5841.00    1.38773   1.44839    0.000
 5842.00    1.37417   1.44260    0.000
 5843.00    1.38891   1.43612    0.000
 5844.00    1.40824   1.42876    0.000
 5845.00    1.47201   1.42114    0.000
 5846.00    1.52454   1.41300    0.000
 5847.00    1.49810   1.40527    0.000
 5848.00    1.47624   1.39736    0.000
 5849.00    1.47903   1.39058    0.000
 5850.00    1.47504   1.38401    0.000
 5851.00    1.44163   1.37932    0.000
 5852.00    1.41530   1.37514    0.000
 5853.00    1.41420   1.37332    0.000
 5854.00    1.42207   1.37211    0.000
 5855.00    1.45681   1.37326    0.000
 5856.00    1.50312   1.37484    0.000
 5857.00    1.57892   1.37827    0.000
 5858.00    1.60195   1.38183    0.000
 5859.00    1.50912   1.38645    0.000
 5860.00    1.43814   1.39096    0.000
 5861.00    1.40879   1.39576    0.000
 5862.00    1.36992   1.40032    0.000
 5863.00    1.31525   1.40454    0.000
 5864.00    1.25984   1.40834    0.000
 5865.00    1.20336   1.41137    0.000
 5866.00    1.22130   1.41368    0.000
 5867.00    1.33457   1.41492    0.000
 5868.00    1.38435   1.41507    0.000
 5869.00    1.36246   1.41405    0.000
 5870.00    1.33213   1.41158    0.000
 5871.00    1.29340   1.40799    0.000
 5872.00    1.28853   1.40269    0.000
 5873.00    1.31339   1.39629    0.000
 5874.00    1.33932   1.38787    0.000
 5875.00    1.36608   1.37809    0.000
 5876.00    1.40220   1.36583    0.000
 5877.00    1.44469   1.35170    0.000
 5878.00    1.46979   1.33464    0.000
 5879.00    1.48453   1.31540    0.000
 5880.00    1.49950   1.29335    0.000
 5881.00    1.51459   1.26970    0.000
 5882.00    1.47320   1.24455    0.000
 5883.00    1.40636   1.21963    0.000
 5884.00    1.33877   1.19564    0.000
 5885.00    1.27089   1.17447    0.000
 5886.00    1.25485   1.15696    0.000
 5887.00    1.25592   1.14448    0.000
 5888.00    1.28676   1.13758    0.000
 5889.00    1.32583   1.13661    0.000
 5890.00    1.35725   1.14155    0.000
 5891.00    1.38692   1.15182    0.000
 5892.00    1.36375   1.16692    0.000
 5893.00    1.33095   1.18557    0.000
 5894.00    1.36299   1.20695    0.000
 5895.00    1.40408   1.22957    0.000
 5896.00    1.39269   1.25257    0.000
 5897.00    1.37603   1.27463    0.000
 5898.00    1.45095   1.29520    0.000
 5899.00    1.53170   1.31336    0.000
 5900.00    1.48575   1.32899    0.000
 5901.00    1.43604   1.34173    0.008
 5902.00    1.37431   1.35175    0.008
 5903.00    1.31465   1.35918    0.008
 5904.00    1.31337   1.36427    0.008
 5905.00    1.31437   1.36749    0.008
 5906.00    1.34771   1.36905    0.008
 5907.00    1.38045   1.36962    0.008
 5908.00    1.40757   1.36935    0.008
 5909.00    1.42892   1.36892    0.008
 5910.00    1.41102   1.36845    0.008
 5911.00    1.38569   1.36839    0.008
 5912.00    1.32124   1.36889    0.008
 5913.00    1.26457   1.36990    0.008
 5914.00    1.24081   1.37160    0.008
 5915.00    1.23866   1.37349    0.008
 5916.00    1.31210   1.37584    0.008
 5917.00    1.38335   1.37785    0.008
 5918.00    1.44819   1.37990    0.008
 5919.00    1.48925   1.38125    0.008
 5920.00    1.47072   1.38230    0.008
 5921.00    1.45518   1.38262    0.008
 5922.00    1.44611   1.38256    0.008
 5923.00    1.41988   1.38204    0.008
 5924.00    1.36144   1.38129    0.007
 5925.00    1.32658   1.38048    0.007
 5926.00    1.33029   1.37970    0.008
 5927.00    1.36701   1.37914    0.008
 5928.00    1.45113   1.37881    0.008
 5929.00    1.47754   1.37875    0.008
 5930.00    1.43109   1.37899    0.008
 5931.00    1.41221   1.37931    0.008
 5932.00    1.42402   1.37986    0.008
 5933.00    1.42990   1.38029    0.008
 5934.00    1.42995   1.38079    0.008
 5935.00    1.41575   1.38103    0.008
 5936.00    1.38922   1.38120    0.008
 5937.00    1.37140   1.38109    0.008
 5938.00    1.36023   1.38078    0.008
 5939.00    1.33660   1.38022    0.008
 5940.00    1.30462   1.37939    0.008
 5941.00    1.25811   1.37831    0.008
 5942.00    1.20308   1.37698    0.008
 5943.00    1.22629   1.37545    0.008
 5944.00    1.28954   1.37384    0.008
 5945.00    1.32120   1.37217    0.008
 5946.00    1.33885   1.37074    0.007
 5947.00    1.35938   1.36949    0.008
 5948.00    1.38102   1.36884    0.008
 5949.00    1.40716   1.36858    0.008
 5950.00    1.43475   1.36918    0.007
 5951.00    1.39506   1.37029    0.007
 5952.00    1.33714   1.37231    0.007
 5953.00    1.32100   1.37472    0.007
 5954.00    1.31414   1.37788    0.008
 5955.00    1.29352   1.38115    0.008
 5956.00    1.27047   1.38485    0.008
 5957.00    1.28710   1.38833    0.008
 5958.00    1.30910   1.39189    0.008
 5959.00    1.35468   1.39501    0.008
 5960.00    1.40253   1.39790    0.008
 5961.00    1.34320   1.40028    0.008
 5962.00    1.27749   1.40217    0.008
 5963.00    1.25790   1.40348    0.008
 5964.00    1.23977   1.40406    0.008
 5965.00    1.26431   1.40398    0.008
 5966.00    1.28681   1.40297    0.008
 5967.00    1.25716   1.40124    0.008
 5968.00    1.23009   1.39859    0.008
 5969.00    1.23762   1.39534    0.008
 5970.00    1.24892   1.39145    0.008
 5971.00    1.29398   1.38728    0.008
 5972.00    1.33283   1.38291    0.008
 5973.00    1.33073   1.37865    0.008
 5974.00    1.32498   1.37463    0.008
 5975.00    1.30047   1.37102    0.008
 5976.00    1.27040   1.36794    0.007
 5977.00    1.21731   1.36547    0.007
 5978.00    1.17431   1.36376    0.007
 5979.00    1.16595   1.36273    0.007
 5980.00    1.17648   1.36260    0.007
 5981.00    1.24154   1.36313    0.007
 5982.00    1.30873   1.36451    0.008
 5983.00    1.38120   1.36631    0.008
 5984.00    1.43806   1.36863    0.008
 5985.00    1.46176   1.37092    0.007
 5986.00    1.46619   1.37325    0.007
 5987.00    1.43505   1.37507    0.008
 5988.00    1.38850   1.37645    0.008
 5989.00    1.31711   1.37700    0.008
 5990.00    1.30574   1.37691    0.008
 5991.00    1.37931   1.37598    0.008
 5992.00    1.40977   1.37446    0.008
 5993.00    1.38656   1.37233    0.008
 5994.00    1.35699   1.36985    0.008
 5995.00    1.32043   1.36707    0.008
 5996.00    1.30644   1.36418    0.008
 5997.00    1.31430   1.36123    0.008
 5998.00    1.30737   1.35838    0.008
 5999.00    1.28780   1.35564    0.008
 6000.00    1.27643   1.35311    0.008
 6001.00    1.27122   1.35085    0.008
 6002.00    1.29481   1.34882    0.008
 6003.00    1.33742   1.34715    0.007
 6004.00    1.40622   1.34567    0.008
 6005.00    1.49018   1.34447    0.008
 6006.00    1.48709   1.34337    0.008
 6007.00    1.44014   1.34240    0.007
 6008.00    1.37597   1.34141    0.007
 6009.00    1.30428   1.34047    0.007
 6010.00    1.27797   1.33951    0.007
 6011.00    1.26865   1.33873    0.007
 6012.00    1.26469   1.33808    0.007
 6013.00    1.26243   1.33794    0.007
 6014.00    1.21603   1.33817    0.007
 6015.00    1.15793   1.33930    0.007
 6016.00    1.19623   1.34099    0.008
 6017.00    1.25543   1.34381    0.008
 6018.00    1.32150   1.34724    0.008
 6019.00    1.38876   1.35173    0.008
 6020.00    1.41792   1.35669    0.008
 6021.00    1.44210   1.36230    0.008
 6022.00    1.36610   1.36816    0.008
 6023.00    1.28090   1.37408    0.008
 6024.00    1.31289   1.37999    0.008
 6025.00    1.35141   1.38538    0.008
 6026.00    1.44106   1.39053    0.008
 6027.00    1.53080   1.39480    0.008
 6028.00    1.51721   1.39867    0.008
 6029.00    1.50281   1.40156    0.008
 6030.00    1.46983   1.40401    0.008
 6031.00    1.43588   1.40566    0.008
 6032.00    1.38951   1.40695    0.008
 6033.00    1.34455   1.40781    0.008
 6034.00    1.31182   1.40847    0.008
 6035.00    1.28027   1.40910    0.008
 6036.00    1.25629   1.40966    0.008
 6037.00    1.23460   1.41045    0.008
 6038.00    1.22430   1.41117    0.007
 6039.00    1.22572   1.41209    0.007
 6040.00    1.27454   1.41279    0.007
 6041.00    1.30943   1.41338    0.007
 6042.00    1.29754   1.41353    0.007
 6043.00    1.28527   1.41320    0.007
 6044.00    1.27193   1.41229    0.007
 6045.00    1.26687   1.41071    0.008
 6046.00    1.28190   1.40857    0.007
 6047.00    1.28642   1.40589    0.008
 6048.00    1.26902   1.40283    0.008
 6049.00    1.25985   1.39962    0.008
 6050.00    1.26565   1.39623    0.008
 6051.00    1.24863   1.39315    0.008
 6052.00    1.19535   1.39005    0.008
 6053.00    1.19512   1.38756    0.008
 6054.00    1.26886   1.38517    0.008
 6055.00    1.30788   1.38353    0.008
 6056.00    1.30429   1.38217    0.008
 6057.00    1.27967   1.38162    0.008
 6058.00    1.23229   1.38167    0.008
 6059.00    1.21643   1.38254    0.008
 6060.00    1.23064   1.38429    0.008
 6061.00    1.25407   1.38673    0.008
 6062.00    1.28525   1.38997    0.008
 6063.00    1.30646   1.39350    0.008
 6064.00    1.32028   1.39727    0.008
 6065.00    1.34369   1.40065    0.007
 6066.00    1.37333   1.40341    0.007
 6067.00    1.39486   1.40514    0.007
 6068.00    1.41178   1.40556    0.007
 6069.00    1.40927   1.40461    0.007
 6070.00    1.39712   1.40217    0.007
 6071.00    1.37450   1.39854    0.007
 6072.00    1.34738   1.39380    0.007
 6073.00    1.33409   1.38842    0.007
 6074.00    1.32588   1.38264    0.007
 6075.00    1.32318   1.37690    0.007
 6076.00    1.32219   1.37144    0.007
 6077.00    1.34058   1.36652    0.008
 6078.00    1.36398   1.36228    0.008
 6079.00    1.36145   1.35876    0.008
 6080.00    1.35343   1.35600    0.008
 6081.00    1.36117   1.35390    0.008
 6082.00    1.37155   1.35242    0.008
 6083.00    1.28986   1.35148    0.008
 6084.00    1.19655   1.35097    0.008
 6085.00    1.15557   1.35086    0.008
 6086.00    1.11916   1.35099    0.008
 6087.00    1.12406   1.35139    0.008
 6088.00    1.13109   1.35176    0.008
 6089.00    1.17118   1.35215    0.008
 6090.00    1.21029   1.35218    0.008
 6091.00    1.13419   1.35198    0.008
 6092.00    1.06119   1.35115    0.008
 6093.00    1.05423   1.35000    0.007
 6094.00    1.04996   1.34830    0.007
 6095.00    1.07831   1.34650    0.007
 6096.00    1.11153   1.34465    0.007
 6097.00    1.18523   1.34316    0.007
 6098.00    1.25894   1.34229    0.007
 6099.00    1.33269   1.34214    0.007
 6100.00    1.39850   1.34307    0.007
 6101.00    1.42559   1.34470    0.007
 6102.00    1.44418   1.34729    0.007
 6103.00    1.42912   1.35015    0.007
 6104.00    1.39830   1.35337    0.007
 6105.00    1.31560   1.35624    0.007
 6106.00    1.25550   1.35871    0.007
 6107.00    1.25828   1.36025    0.007
 6108.00    1.26152   1.36082    0.007
 6109.00    1.26584   1.36019    0.008
 6110.00    1.27621   1.35836    0.008
 6111.00    1.29901   1.35549    0.008
 6112.00    1.32570   1.35165    0.008
 6113.00    1.35936   1.34730    0.008
 6114.00    1.36461   1.34257    0.007
 6115.00    1.32541   1.33812    0.008
 6116.00    1.30122   1.33397    0.008
 6117.00    1.29766   1.33076    0.008
 6118.00    1.28287   1.32830    0.008
 6119.00    1.25448   1.32695    0.007
 6120.00    1.23256   1.32634    0.007
 6121.00    1.21756   1.32643    0.007
 6122.00    1.19382   1.32669    0.007
 6123.00    1.16187   1.32687    0.007
 6124.00    1.18153   1.32652    0.007
 6125.00    1.24402   1.32539    0.007
 6126.00    1.26058   1.32326    0.007
 6127.00    1.24361   1.32022    0.007
 6128.00    1.21770   1.31638    0.007
 6129.00    1.18605   1.31217    0.007
 6130.00    1.20373   1.30805    0.007
 6131.00    1.24909   1.30450    0.007
 6132.00    1.30919   1.30217    0.007
 6133.00    1.37649   1.30118    0.007
 6134.00    1.40073   1.30204    0.007
 6135.00    1.40682   1.30437    0.008
 6136.00    1.32595   1.30827    0.008
 6137.00    1.21368   1.31302    0.008
 6138.00    1.15420   1.31835    0.008
 6139.00    1.11082   1.32359    0.008
 6140.00    1.13157   1.32831    0.008
 6141.00    1.16859   1.33215    0.008
 6142.00    1.23433   1.33475    0.008
 6143.00    1.30598   1.33613    0.008
 6144.00    1.36006   1.33603    0.008
 6145.00    1.41128   1.33472    0.008
 6146.00    1.44480   1.33197    0.008
 6147.00    1.47616   1.32811    0.008
 6148.00    1.43297   1.32282    0.007
 6149.00    1.38355   1.31647    0.007
 6150.00    1.33727   1.30874    0.007
 6151.00    1.29114   1.30006    0.007
 6152.00    1.26628   1.29034    0.007
 6153.00    1.24272   1.28008    0.007
 6154.00    1.27659   1.26953    0.007
 6155.00    1.30788   1.25925    0.007
 6156.00    1.28849   1.24974    0.007
 6157.00    1.26797   1.24150    0.007
 6158.00    1.23444   1.23492    0.007
 6159.00    1.20153   1.23035    0.007
 6160.00    1.17352   1.22780    0.007
 6161.00    1.15400   1.22741    0.007
 6162.00    1.18559   1.22879    0.007
 6163.00    1.21000   1.23196    0.007
 6164.00    1.20033   1.23635    0.008
 6165.00    1.19658   1.24191    0.008
 6166.00    1.21572   1.24811    0.008
 6167.00    1.23957   1.25484    0.008
 6168.00    1.27863   1.26180    0.008
 6169.00    1.29921   1.26870    0.008
 6170.00    1.26929   1.27549    0.008
 6171.00    1.23874   1.28173    0.008
 6172.00    1.20669   1.28754    0.008
 6173.00    1.18777   1.29235    0.007
 6174.00    1.19542   1.29636    0.007
 6175.00    1.24202   1.29906    0.007
 6176.00    1.35728   1.30062    0.007
 6177.00    1.40559   1.30082    0.007
 6178.00    1.35065   1.29969    0.007
 6179.00    1.27941   1.29746    0.007
 6180.00    1.18609   1.29409    0.007
 6181.00    1.13874   1.29016    0.007
 6182.00    1.14624   1.28577    0.007
 6183.00    1.19130   1.28156    0.007
 6184.00    1.27588   1.27780    0.007
 6185.00    1.33774   1.27488    0.007
 6186.00    1.37854   1.27312    0.007
 6187.00    1.42216   1.27254    0.007
 6188.00    1.46811   1.27325    0.007
 6189.00    1.50328   1.27507    0.007
 6190.00    1.53070   1.27777    0.008
 6191.00    1.48844   1.28118    0.007
 6192.00    1.40218   1.28485    0.007
 6193.00    1.35016   1.28878    0.007
 6194.00    1.31703   1.29244    0.007
 6195.00    1.24008   1.29602    0.008
 6196.00    1.14208   1.29907   -2.000
 6197.00    1.14744   1.30170   -2.000
 6198.00    1.19565   1.30356   -2.000
 6199.00    1.34172   1.30473   -2.000
 6200.00    1.52246   1.30479   -2.000
 6201.00    1.56075   1.30375   -2.000
 6202.00    1.55639   1.30138   -2.000
 6203.00    1.41533   1.29769   -2.000
 6204.00    1.24031   1.29270   -2.000
 6205.00    1.32384   1.28652   -2.000
 6206.00    1.45943   1.27955   -2.000
 6207.00    1.49253   1.27194   -2.000
 6208.00    1.50946   1.26436    0.008
 6209.00    1.48082   1.25689    0.007
 6210.00    1.44683   1.25025    0.007
 6211.00    1.44998   1.24444    0.007
 6212.00    1.45607   1.23991    0.007
 6213.00    1.44625   1.23654    0.007
 6214.00    1.43574   1.23433    0.007
 6215.00    1.37460   1.23318    0.007
 6216.00    1.31309   1.23262    0.007
 6217.00    1.26037   1.23273    0.007
 6218.00    1.20909   1.23274    0.007
 6219.00    1.18413   1.23301    0.007
 6220.00    1.15977   1.23265    0.007
 6221.00    1.14198   1.23244    0.007
 6222.00    1.12261   1.23155    0.007
 6223.00    1.09113   1.23091    0.007
 6224.00    1.07167   1.22996    0.007
 6225.00    1.12253   1.22938    0.007
 6226.00    1.16774   1.22899    0.007
 6227.00    1.18669   1.22893    0.007
 6228.00    1.19956   1.22937    0.008
 6229.00    1.18936   1.22964    0.007
 6230.00    1.18626   1.23025    0.007
 6231.00    1.20566   1.23019    0.007
 6232.00    1.23340   1.23015    0.007
 6233.00    1.28358   1.22922    0.007
 6234.00    1.31070   1.22808    0.007
 6235.00    1.28474   1.22630    0.007
 6236.00    1.24808   1.22445    0.007
 6237.00    1.19013   1.22242    0.007
 6238.00    1.16221   1.22073    0.007
 6239.00    1.18644   1.21909    0.007
 6240.00    1.21567   1.21786    0.007
 6241.00    1.25249   1.21659    0.007
 6242.00    1.27859   1.21552    0.007
 6243.00    1.29040   1.21405    0.007
 6244.00    1.30771   1.21238    0.007
 6245.00    1.33149   1.21012    0.007
 6246.00    1.37458   1.20741    0.007
 6247.00    1.43770   1.20438    0.007
 6248.00    1.43419   1.20108    0.008
 6249.00    1.36975   1.19824    0.008
 6250.00    1.29852   1.19558    0.007
 6251.00    1.22180   1.19437    0.007
 6252.00    1.17503   1.19392    0.007
 6253.00    1.14950   1.19525    0.007
 6254.00    1.12029   1.19769    0.007
 6255.00    1.08877   1.20163    0.008
 6256.00    1.10949   1.20657    0.008
 6257.00    1.15861   1.21220    0.007
 6258.00    1.18428   1.21848    0.007
 6259.00    1.19887   1.22446    0.007
 6260.00    1.13809   1.23064    0.008
 6261.00    1.04660   1.23591    0.008
 6262.00    1.00861   1.24102    0.009
 6263.00    0.98924   1.24509    0.009
 6264.00    1.05503   1.24888    0.009
 6265.00    1.14580   1.25173    0.009
 6266.00    1.22040   1.25422    0.008
 6267.00    1.29107   1.25614    0.008
 6268.00    1.27961   1.25757    0.008
 6269.00    1.25203   1.25875    0.007
 6270.00    1.27408   1.25941    0.007
 6271.00    1.30373   1.26019    0.007
 6272.00    1.39164   1.26052    0.007
 6273.00    1.48613   1.26131    0.007
 6274.00    1.41505   1.26181    0.007
 6275.00    1.33152   1.26300    0.007
 6276.00    1.30377   1.26413    0.007
 6277.00    1.27827   1.26593    0.007
 6278.00    1.27458   1.26779    0.007
 6279.00    1.26972   1.26990    0.007
 6280.00    1.21068   1.27206    0.000
 6281.00    1.15806   1.27372    0.000
 6282.00    1.21481   1.27524    0.000
 6283.00    1.26947   1.27568    0.000
 6284.00    1.30204   1.27571    0.000
 6285.00    1.33332   1.27444    0.000
 6286.00    1.35498   1.27265    0.000
 6287.00    1.37236   1.26972    0.000
 6288.00    1.36537   1.26636    0.000
 6289.00    1.36012   1.26243    0.000
 6290.00    1.36279   1.25838    0.000
 6291.00    1.35918   1.25449    0.000
 6292.00    1.33230   1.25092    0.000
 6293.00    1.29808   1.24800    0.000
 6294.00    1.24106   1.24587    0.000
 6295.00    1.19292   1.24463    0.000
 6296.00    1.16818   1.24437    0.000
 6297.00    1.15087   1.24492    0.000
 6298.00    1.15038   1.24631    0.000
 6299.00    1.15000   1.24811    0.000
 6300.00    1.14981   1.25022    0.000
 6301.00    1.14999   1.25219    0.000
 6302.00    1.15077   1.25375    0.000
 6303.00    1.15438   1.25485    0.000
 6304.00    1.16223   1.25497    0.000
 6305.00    1.16400   1.25427    0.000
 6306.00    1.15781   1.25259    0.000
 6307.00    1.15317   1.25048    0.000
 6308.00    1.15036   1.24780    0.000
 6309.00    1.17999   1.24500    0.000
 6310.00    1.24280   1.24237    0.000
 6311.00    1.31006   1.24045    0.000
 6312.00    1.38134   1.23921    0.000
 6313.00    1.40230   1.23917    0.000
 6314.00    1.38328   1.23995    0.000
 6315.00    1.35940   1.24222    0.000
 6316.00    1.33212   1.24510    0.000
 6317.00    1.31944   1.24907    0.000
 6318.00    1.31569   1.25317    0.000
 6319.00    1.29949   1.25762    0.000
 6320.00    1.27662   1.26188    0.000
 6321.00    1.31303   1.26558    0.007
 6322.00    1.37701   1.26849    0.007
 6323.00    1.39071   1.27030    0.007
 6324.00    1.38428   1.27158    0.007
 6325.00    1.32397   1.27158    0.007
 6326.00    1.24525   1.27070    0.007
 6327.00    1.17437   1.26912    0.007
 6328.00    1.10574   1.26697    0.007
 6329.00    1.10823   1.26453    0.007
 6330.00    1.12761   1.26181    0.007
 6331.00    1.16216   1.25923    0.007
 6332.00    1.19961   1.25709    0.007
 6333.00    1.23160   1.25534    0.007
 6334.00    1.26279   1.25431    0.007
 6335.00    1.26503   1.25358    0.007
 6336.00    1.26414   1.25387    0.007
 6337.00    1.23942   1.25430    0.007
 6338.00    1.21299   1.25545    0.007
 6339.00    1.20375   1.25665    0.007
 6340.00    1.19513   1.25816    0.007
 6341.00    1.18634   1.25969    0.007
 6342.00    1.17831   1.26087    0.007
 6343.00    1.19659   1.26170    0.007
 6344.00    1.21530   1.26167    0.007
 6345.00    1.24077   1.26098    0.007
 6346.00    1.26127   1.25905    0.007
 6347.00    1.23173   1.25617    0.007
 6348.00    1.21278   1.25216    0.007
 6349.00    1.27027   1.24737    0.007
 6350.00    1.31822   1.24192    0.007
 6351.00    1.31334   1.23596    0.007
 6352.00    1.28594   1.23008    0.007
 6353.00    1.15893   1.22463    0.007
 6354.00    1.06471   1.22005    0.007
 6355.00    1.08968   1.21670    0.007
 6356.00    1.10917   1.21485    0.007
 6357.00    1.11200   1.21474    0.007
 6358.00    1.10893   1.21628    0.007
 6359.00    1.09059   1.21958    0.007
 6360.00    1.07721   1.22440    0.007
 6361.00    1.07489   1.23053    0.007
 6362.00    1.08450   1.23736    0.007
 6363.00    1.11713   1.24457    0.007
 6364.00    1.17679   1.25201    0.007
 6365.00    1.28197   1.25893    0.007
 6366.00    1.34679   1.26535    0.007
 6367.00    1.35205   1.27062    0.007
 6368.00    1.33948   1.27512    0.007
 6369.00    1.30379   1.27841    0.007
 6370.00    1.28475   1.28067    0.007
 6371.00    1.28475   1.28204    0.007
 6372.00    1.28311   1.28261    0.007
 6373.00    1.27982   1.28260    0.007
 6374.00    1.25601   1.28205    0.007
 6375.00    1.21394   1.28152    0.007
 6376.00    1.16120   1.28077    0.007
 6377.00    1.10009   1.28005    0.007
 6378.00    1.09082   1.27918    0.007
 6379.00    1.11726   1.27835    0.007
 6380.00    1.13579   1.27727    0.007
 6381.00    1.14954   1.27606    0.007
 6382.00    1.16687   1.27419    0.007
 6383.00    1.18609   1.27234    0.007
 6384.00    1.20669   1.27032    0.007
 6385.00    1.22792   1.26807    0.007
 6386.00    1.21640   1.26563    0.007
 6387.00    1.19200   1.26299    0.007
 6388.00    1.19271   1.26051    0.007
 6389.00    1.20183   1.25759    0.007
 6390.00    1.22734   1.25613    0.007
 6391.00    1.25747   1.25480    0.007
 6392.00    1.29517   1.25416    0.007
 6393.00    1.33463   1.25394    0.007
 6394.00    1.32480   1.25414    0.007
 6395.00    1.30578   1.25494    0.007
 6396.00    1.22460   1.25555    0.007
 6397.00    1.13448   1.25660    0.007
 6398.00    1.12465   1.25761    0.007
 6399.00    1.12317   1.25888    0.007
 6400.00    1.19043   1.25918    0.008
 6401.00    1.26231   1.25932    0.008
 6402.00    1.21901   1.25929    0.008
 6403.00    1.17194   1.25879    0.007
 6404.00    1.19779   1.25826    0.007
 6405.00    1.22272   1.25764    0.007
 6406.00    1.21896   1.25710    0.007
 6407.00    1.21363   1.25630    0.007
 6408.00    1.18471   1.25548    0.007
 6409.00    1.15379   1.25476    0.007
 6410.00    1.10349   1.25422    0.007
 6411.00    1.05476   1.25415    0.007
 6412.00    1.01697   1.25464    0.007
 6413.00    0.99395   1.25513    0.007
 6414.00    1.05049   1.25625    0.007
 6415.00    1.10881   1.25732    0.007
 6416.00    1.17479   1.25894    0.007
 6417.00    1.22678   1.26062    0.007
 6418.00    1.22892   1.26243    0.007
 6419.00    1.24435   1.26380    0.007
 6420.00    1.29952   1.26494    0.007
 6421.00    1.33946   1.26604    0.007
 6422.00    1.34058   1.26654    0.007
 6423.00    1.32154   1.26704    0.007
 6424.00    1.25833   1.26704    0.007
 6425.00    1.19930   1.26703    0.007
 6426.00    1.14824   1.26678    0.007
 6427.00    1.11553   1.26635    0.007
 6428.00    1.11324   1.26597    0.007
 6429.00    1.11128   1.26589    0.007
 6430.00    1.10979   1.26632    0.007
 6431.00    1.09755   1.26713    0.007
 6432.00    1.07153   1.26841    0.007
 6433.00    1.07558   1.26970    0.007
 6434.00    1.11348   1.27130    0.007
 6435.00    1.15939   1.27277    0.007
 6436.00    1.21326   1.27402    0.007
 6437.00    1.25139   1.27477    0.007
 6438.00    1.27574   1.27440    0.007
 6439.00    1.30721   1.27317    0.007
 6440.00    1.34418   1.27130    0.007
 6441.00    1.33096   1.26855    0.007
 6442.00    1.28366   1.26611    0.007
 6443.00    1.21858   1.26320    0.007
 6444.00    1.14293   1.26047    0.007
 6445.00    1.12711   1.25795    0.007
 6446.00    1.14234   1.25588    0.007
 6447.00    1.19344   1.25466    0.007
 6448.00    1.26068   1.25428    0.008
 6449.00    1.28429   1.25494    0.008
 6450.00    1.29103   1.25575    0.008
 6451.00    1.27007   1.25704    0.008
 6452.00    1.24001   1.25803    0.007
 6453.00    1.21811   1.25946    0.007
 6454.00    1.19847   1.26030    0.007
 6455.00    1.21420   1.26195    0.007
 6456.00    1.23795   1.26267    0.007
 6457.00    1.21679   1.26356    0.007
 6458.00    1.18749   1.26370    0.007
 6459.00    1.16322   1.26443    0.007
 6460.00    1.13966   1.26459    0.007
 6461.00    1.16400   1.26516    0.007
 6462.00    1.19313   1.26577    0.007
 6463.00    1.17493   1.26597    0.007
 6464.00    1.15374   1.26681    0.007
 6465.00    1.17082   1.26667    0.007
 6466.00    1.18909   1.26732    0.007
 6467.00    1.23082   1.26688    0.007
 6468.00    1.27152   1.26722    0.007
 6469.00    1.28346   1.26642    0.007
 6470.00    1.28968   1.26559    0.007
 6471.00    1.21502   1.26418    0.007
 6472.00    1.14387   1.26241    0.007
 6473.00    1.10514   1.26035    0.007
 6474.00    1.07658   1.25812    0.007
 6475.00    1.11687   1.25626    0.007
 6476.00    1.14589   1.25381    0.007
 6477.00    1.11577   1.25135    0.007
 6478.00    1.09114   1.24832    0.007
 6479.00    1.08973   1.24505    0.007
 6480.00    1.10171   1.24096    0.007
 6481.00    1.16043   1.23606    0.007
 6482.00    1.20548   1.23024    0.007
 6483.00    1.21048   1.22326    0.007
 6484.00    1.20590   1.21531    0.007
 6485.00    1.17739   1.20604    0.007
 6486.00    1.15342   1.19671    0.007
 6487.00    1.13925   1.18796    0.007
 6488.00    1.13512   1.17949    0.007
 6489.00    1.14980   1.17288    0.007
 6490.00    1.16506   1.16695    0.007
 6491.00    1.18125   1.16401    0.007
 6492.00    1.20074   1.16305    0.007
 6493.00    1.22494   1.16464    0.007
 6494.00    1.21279   1.16871    0.007
 6495.00    1.15485   1.17427    0.007
 6496.00    1.11732   1.18200    0.007
 6497.00    1.10248   1.19002    0.007
 6498.00    1.13823   1.19947    0.007
 6499.00    1.22355   1.20783    0.007
 6500.00    1.28963   1.21652    0.007
 6501.00    1.33908   1.22390    0.007
 6502.00    1.36573   1.23044    0.007
 6503.00    1.37503   1.23560    0.007
 6504.00    1.34773   1.23945    0.007
 6505.00    1.29594   1.24227    0.007
 6506.00    1.26562   1.24374    0.007
 6507.00    1.24786   1.24437    0.007
 6508.00    1.23850   1.24445    0.007
 6509.00    1.23344   1.24390    0.007
 6510.00    1.23697   1.24312    0.007
 6511.00    1.24430   1.24279    0.007
 6512.00    1.29984   1.24235    0.007
 6513.00    1.37370   1.24224    0.007
 6514.00    1.40170   1.24212    0.007
 6515.00    1.41489   1.24248    0.007
 6516.00    1.41327   1.24296    0.007
 6517.00    1.40765   1.24339    0.007
 6518.00    1.38958   1.24367    0.007
 6519.00    1.36874   1.24440    0.007
 6520.00    1.37526   1.24500    0.007
 6521.00    1.38659   1.24560    0.007
 6522.00    1.33906   1.24600    0.007
 6523.00    1.28360   1.24613    0.007
 6524.00    1.26353   1.24623    0.007
 6525.00    1.24683   1.24641    0.007
 6526.00    1.24988   1.24685    0.007
 6527.00    1.25410   1.24732    0.007
 6528.00    1.25717   1.24767    0.000
 6529.00    1.25992   1.24809    0.000
 6530.00    1.21968   1.24861    0.000
 6531.00    1.18150   1.24912    0.000
 6532.00    1.19551   1.24906    0.000
 6533.00    1.21166   1.24856    0.000
 6534.00    1.25646   1.24741    0.000
 6535.00    1.29842   1.24561    0.000
 6536.00    1.31503   1.24340    0.000
 6537.00    1.33030   1.24004    0.000
 6538.00    1.33679   1.23681    0.000
 6539.00    1.33278   1.23281    0.000
 6540.00    1.27511   1.22866    0.000
 6541.00    1.22203   1.22431    0.000
 6542.00    1.18787   1.21919    0.000
 6543.00    1.16802   1.21420    0.000
 6544.00    1.19706   1.20824    0.000
 6545.00    1.23149   1.20220    0.000
 6546.00    1.28145   1.19514    0.000
 6547.00    1.31757   1.18776    0.000
 6548.00    1.31965   1.17951    0.000
 6549.00    1.30048   1.17064    0.000
 6550.00    1.23630   1.16120    0.000
 6551.00    1.17923   1.15083    0.000
 6552.00    1.13527   1.14009    0.000
 6553.00    1.10962   1.12817    0.000
 6554.00    1.11343   1.11677    0.000
 6555.00    1.12695   1.10823    0.000
 6556.00    1.15417   1.10106    0.000
 6557.00    1.17883   1.09749    0.000
 6558.00    1.20031   1.09621    0.000
 6559.00    1.22012   1.09737    0.000
 6560.00    1.23812   1.10069    0.000
 6561.00    1.21409   1.10607    0.000
 6562.00    1.14947   1.11329    0.000
 6563.00    1.10831   1.12130    0.000
 6564.00    1.08714   1.13006    0.000
 6565.00    1.08432   1.13872    0.000
 6566.00    1.09525   1.14810    0.000
 6567.00    1.09205   1.15735    0.000
 6568.00    1.07953   1.16532    0.000
 6569.00    1.09644   1.17281    0.000
 6570.00    1.13035   1.17911    0.000
 6571.00    1.17593   1.18455    0.000
 6572.00    1.22739   1.18936    0.000
 6573.00    1.23525   1.19390    0.000
 6574.00    1.22413   1.19786    0.000
 6575.00    1.21308   1.20134    0.000
 6576.00    1.20204   1.20460    0.000
 6577.00    1.22541   1.20687    0.000
 6578.00    1.25967   1.20908    0.000
 6579.00    1.27293   1.21026    0.000
 6580.00    1.28064   1.21094    0.000
 6581.00    1.31959   1.21081    0.000
 6582.00    1.36530   1.20992    0.000
 6583.00    1.36962   1.20822    0.000
 6584.00    1.36684   1.20591    0.000
 6585.00    1.32625   1.20368    0.000
 6586.00    1.28074   1.20118    0.000
 6587.00    1.27105   1.19937    0.000
 6588.00    1.26464   1.19801    0.000
 6589.00    1.24473   1.19690    0.000
 6590.00    1.22407   1.19643    0.000
 6591.00    1.17466   1.19631    0.000
 6592.00    1.12491   1.19692    0.000
 6593.00    1.10225   1.19799    0.000
 6594.00    1.07652   1.19912    0.000
 6595.00    0.98026   1.20015    0.000
 6596.00    0.89281   1.20111    0.000
 6597.00    0.91708   1.20225    0.000
 6598.00    0.94367   1.20259    0.000
 6599.00    0.99000   1.20285    0.000
 6600.00    1.03488   1.20244    0.000
 6601.00    1.07051   1.20244    0.000
 6602.00    1.10097   1.20244    0.000
 6603.00    1.10563   1.20308    0.000
 6604.00    1.10566   1.20422    0.000
 6605.00    1.08700   1.20530    0.000
 6606.00    1.07050   1.20704    0.000
 6607.00    1.06122   1.20868    0.000
 6608.00    1.04982   1.21132    0.000
 6609.00    1.03241   1.21355    0.007
 6610.00    1.04059   1.21582    0.007
 6611.00    1.11062   1.21759    0.007
 6612.00    1.17724   1.21928    0.007
 6613.00    1.23676   1.22044    0.007
 6614.00    1.25957   1.22066    0.007
 6615.00    1.21580   1.21996    0.007
 6616.00    1.19325   1.21836    0.007
 6617.00    1.20437   1.21649    0.007
 6618.00    1.23314   1.21385    0.007
 6619.00    1.28646   1.21138    0.007
 6620.00    1.31509   1.20840    0.007
 6621.00    1.31348   1.20524    0.007
 6622.00    1.33249   1.20210    0.007
 6623.00    1.37376   1.19881    0.007
 6624.00    1.38496   1.19583    0.007
 6625.00    1.36752   1.19276    0.007
 6626.00    1.32975   1.19025    0.007
 6627.00    1.27490   1.18802    0.007
 6628.00    1.21194   1.18708    0.007
 6629.00    1.14300   1.18656    0.007
 6630.00    1.12780   1.18619    0.007
 6631.00    1.14749   1.18612    0.007
 6632.00    1.14478   1.18622    0.007
 6633.00    1.12933   1.18651    0.007
 6634.00    1.13449   1.18724    0.007
 6635.00    1.14985   1.18793    0.007
 6636.00    1.13800   1.18821    0.007
 6637.00    1.11452   1.18898    0.007
 6638.00    1.10211   1.19010    0.007
 6639.00    1.09376   1.19106    0.007
 6640.00    1.10700   1.19156    0.007
 6641.00    1.12695   1.19212    0.007
 6642.00    1.14121   1.19273    0.007
 6643.00    1.15400   1.19346    0.007
 6644.00    1.16442   1.19387    0.007
 6645.00    1.17435   1.19395    0.007
 6646.00    1.14553   1.19401    0.007
 6647.00    1.11026   1.19388    0.007
 6648.00    1.12558   1.19361    0.007
 6649.00    1.14726   1.19266    0.007
 6650.00    1.20280   1.19129    0.007
 6651.00    1.26131   1.18984    0.007
 6652.00    1.18924   1.18785    0.007
 6653.00    1.11049   1.18561    0.007
 6654.00    1.11134   1.18298    0.007
 6655.00    1.11385   1.18065    0.007
 6656.00    1.13343   1.17783    0.007
 6657.00    1.15424   1.17584    0.007
 6658.00    1.20121   1.17464    0.007
 6659.00    1.24327   1.17336    0.007
 6660.00    1.22610   1.17285    0.007
 6661.00    1.20395   1.17260    0.007
 6662.00    1.14072   1.17300    0.007
 6663.00    1.09270   1.17378    0.007
 6664.00    1.13858   1.17463    0.007
 6665.00    1.18707   1.17521    0.007
 6666.00    1.24820   1.17579    0.007
 6667.00    1.29077   1.17629    0.007
 6668.00    1.26005   1.17641    0.007
 6669.00    1.22558   1.17582    0.007
 6670.00    1.17878   1.17496    0.007
 6671.00    1.14858   1.17328    0.007
 6672.00    1.16444   1.17310    0.007
 6673.00    1.17564   1.17324    0.007
 6674.00    1.17577   1.17296    0.007
 6675.00    1.18126   1.17336    0.007
 6676.00    1.19774   1.17387    0.007
 6677.00    1.21618   1.17514    0.007
 6678.00    1.23814   1.17624    0.007
 6679.00    1.23416   1.17753    0.007
 6680.00    1.18964   1.17857    0.007
 6681.00    1.15610   1.17972    0.007
 6682.00    1.13762   1.18123    0.007
 6683.00    1.14007   1.18160    0.007
 6684.00    1.16780   1.18191    0.007
 6685.00    1.16867   1.18143    0.007
 6686.00    1.14095   1.18072    0.007
 6687.00    1.09121   1.17955    0.007
 6688.00    1.02080   1.17796    0.007
 6689.00    0.97315   1.17589    0.007
 6690.00    0.94434   1.17412    0.007
 6691.00    0.96690   1.17294    0.007
 6692.00    1.02691   1.17141    0.007
 6693.00    1.07481   1.17081    0.007
 6694.00    1.11495   1.16959    0.007
 6695.00    1.09040   1.16887    0.007
 6696.00    1.02964   1.16781    0.000
 6697.00    1.02287   1.16674    0.000
 6698.00    1.04240   1.16592    0.000
 6699.00    1.04679   1.16515    0.000
 6700.00    1.04482   1.16457    0.000
 6701.00    1.07402   1.16305    0.000
 6702.00    1.11444   1.16169    0.000
 6703.00    1.10649   1.15944    0.000
 6704.00    1.08381   1.15709    0.000
 6705.00    1.05479   1.15473    0.000
 6706.00    1.02417   1.15156    0.000
 6707.00    1.01085   1.14912    0.000
 6708.00    1.00108   1.14640    0.000
 6709.00    1.00793   1.14410    0.000
 6710.00    1.01748   1.14183    0.000
 6711.00    1.08277   1.14027    0.000
 6712.00    1.15481   1.14028    0.000
 6713.00    1.19485   1.14026    0.000
 6714.00    1.23223   1.14138    0.000
 6715.00    1.13828   1.14228    0.000
 6716.00    1.03810   1.14431    0.000
 6717.00    1.02992   1.14643    0.000
 6718.00    1.02504   1.14855    0.000
 6719.00    1.13318   1.15057    0.000
 6720.00    1.23510   1.15283    0.000
 6721.00    1.21585   1.15528    0.000
 6722.00    1.19225   1.15716    0.000
 6723.00    1.11869   1.15867    0.000
 6724.00    1.05576   1.15951    0.000
 6725.00    1.07746   1.16025    0.000
 6726.00    1.10124   1.16016    0.000
 6727.00    1.13752   1.15999    0.000
 6728.00    1.15607   1.15912    0.000
 6729.00    1.09069   1.15840    0.000
 6730.00    1.03162   1.15710    0.000
 6731.00    0.99699   1.15536    0.000
 6732.00    0.96612   1.15344    0.000
 6733.00    0.94738   1.15148    0.000
 6734.00    0.92947   1.14978    0.000
 6735.00    0.91386   1.14763    0.000
 6736.00    0.94493   1.14570    0.000
 6737.00    1.08507   1.14399    0.000
 6738.00    1.19059   1.14270    0.000
 6739.00    1.22617   1.14102    0.000
 6740.00    1.22604   1.14008    0.000
 6741.00    1.16310   1.13895    0.000
 6742.00    1.12778   1.13877    0.000
 6743.00    1.13501   1.13854    0.000
 6744.00    1.13735   1.13898    0.000
 6745.00    1.13307   1.13981    0.000
 6746.00    1.12428   1.14049    0.000
 6747.00    1.11011   1.14288    0.000
 6748.00    1.06308   1.14435    0.000
 6749.00    0.98156   1.14697    0.000
 6750.00    0.96118   1.14938    0.000
 6751.00    0.99742   1.15189    0.000
 6752.00    1.06883   1.15426    0.000
 6753.00    1.16895   1.15615    0.007
 6754.00    1.19039   1.15800    0.008
 6755.00    1.15531   1.15870    0.008
 6756.00    1.09399   1.15951    0.008
 6757.00    1.01613   1.15961    0.008
 6758.00    0.98161   1.15917    0.008
 6759.00    0.97098   1.15836    0.008
 6760.00    1.04443   1.15726    0.008
 6761.00    1.15818   1.15600    0.008
 6762.00    1.22129   1.15536    0.009
 6763.00    1.26345   1.15461    0.009
 6764.00    1.26469   1.15415    0.009
 6765.00    1.25145   1.15439    0.009
 6766.00    1.27928   1.15485    0.009
 6767.00    1.31936   1.15594    0.008
 6768.00    1.30568   1.15672    0.008
 6769.00    1.27867   1.15783    0.008
 6770.00    1.24386   1.15842    0.008
 6771.00    1.20748   1.15909    0.007
 6772.00    1.26289   1.15952    0.007
 6773.00    1.33273   1.15881    0.007
 6774.00    1.29080   1.15830    0.007
 6775.00    1.23584   1.15679    0.007
 6776.00    1.25167   1.15509    0.007
 6777.00    1.27309   1.15272    0.007
 6778.00    1.20423   1.15073    0.008
 6779.00    1.13143   1.14860    0.008
 6780.00    1.09649   1.14691    0.008
 6781.00    1.06468   1.14604    0.008
 6782.00    1.16041   1.14484    0.008
 6783.00    1.24748   1.14438    0.008
 6784.00    1.17776   1.14382    0.008
 6785.00    1.11609   1.14383    0.008
 6786.00    1.14264   1.14370    0.008
 6787.00    1.16395   1.14422    0.008
 6788.00    1.14486   1.14486    0.008
 6789.00    1.12959   1.14525    0.008
 6790.00    1.13663   1.14625    0.008
 6791.00    1.15911   1.14671    0.008
 6792.00    1.25297   1.14738    0.008
 6793.00    1.33358   1.14788    0.008
 6794.00    1.36405   1.14861    0.008
 6795.00    1.35534   1.14897    0.007
 6796.00    1.22288   1.14921    0.007
 6797.00    1.13058   1.14952    0.007
 6798.00    1.14586   1.14962    0.007
 6799.00    1.16567   1.14974    0.007
 6800.00    1.19586   1.14934    0.007
 6801.00    1.22881   1.14937    0.008
 6802.00    1.26725   1.14895    0.008
 6803.00    1.28602   1.14880    0.008
 6804.00    1.27073   1.14871    0.008
 6805.00    1.24833   1.14827    0.008
 6806.00    1.21516   1.14819    0.008
 6807.00    1.20134   1.14810    0.008
 6808.00    1.21333   1.14828    0.008
 6809.00    1.19334   1.14857    0.008
 6810.00    1.13579   1.14914    0.007
 6811.00    1.14536   1.14999    0.007
 6812.00    1.22438   1.15067    0.008
 6813.00    1.25550   1.15124    0.008
 6814.00    1.24290   1.15192    0.008
 6815.00    1.20400   1.15255    0.008
 6816.00    1.14395   1.15330    0.007
 6817.00    1.13788   1.15402    0.007
 6818.00    1.17002   1.15454    0.007
 6819.00    1.18689   1.15500    0.007
 6820.00    1.19429   1.15486    0.007
 6821.00    1.12486   1.15441    0.007
 6822.00    1.01374   1.15384    0.007
 6823.00    1.04912   1.15320    0.007
 6824.00    1.15358   1.15270    0.007
 6825.00    1.20085   1.15174    0.007
 6826.00    1.22487   1.15045    0.007
 6827.00    1.27856   1.14866    0.008
 6828.00    1.34255   1.14676    0.008
 6829.00    1.31329   1.14461    0.008
 6830.00    1.25675   1.14234    0.008
 6831.00    1.16275   1.14005    0.008
 6832.00    1.05968   1.13762    0.008
 6833.00    1.14527   1.13546    0.007
 6834.00    1.26777   1.13294    0.007
 6835.00    1.32956   1.13108    0.007
 6836.00    1.38209   1.12973    0.007
 6837.00    1.36994   1.12918    0.007
 6838.00    1.35053   1.12923    0.007
 6839.00    1.24550   1.12956    0.008
 6840.00    1.13408   1.13018    0.008
 6841.00    1.09442   1.13055    0.008
 6842.00    1.05761   1.13099    0.008
 6843.00    1.04094   1.13135    0.008
 6844.00    1.02824   1.13152    0.007
 6845.00    1.16833   1.13155    0.007
 6846.00    1.30076   1.13128    0.008
 6847.00    1.30371   1.13020    0.008
 6848.00    1.30836   1.12866    0.008
 6849.00    1.33081   1.12693    0.008
 6850.00    1.34396   1.12513    0.008
 6851.00    1.28809   1.12365    0.007
 6852.00    1.22876   1.12263    0.007
 6853.00    1.14987   1.12135    0.007
 6854.00    1.08992   1.12017    0.007
 6855.00    1.11545   1.11935    0.007
 6856.00    1.14489   1.11863    0.007
 6857.00    1.18886   1.11832    0.007
 6858.00    1.22946   1.11860    0.007
 6859.00    1.25969   1.11925    0.007
 6860.00    1.29633   1.11902    0.007
 6861.00    1.34985   1.11884    0.007
 6862.00    1.38315   1.11870    0.007
 6863.00    1.37073   1.11865    0.007
 6864.00    1.31706   1.11898    0.007
 6865.00    1.18265   1.11980    0.007
 6866.00    1.08942   1.12048    0.007
 6867.00    1.06645   1.12054    0.007
 6868.00    1.06266   1.12089    0.008
 6869.00    1.08755   1.12135    0.008
 6870.00    1.05953   1.12209    0.008
 6871.00    0.96198   1.12298    0.008
 6872.00    0.91746   1.12429    0.007
 6873.00    0.93431   1.12551    0.007
 6874.00    0.95195   1.12595    0.007
 6875.00    0.97041   1.12697    0.007
 6876.00    1.03590   1.12793    0.007
 6877.00    1.14372   1.12921    0.007
 6878.00    1.15066   1.13059    0.007
 6879.00    1.07758   1.13247    0.007
 6880.00    1.06452   1.13479    0.007
 6881.00    1.09333   1.13614    0.007
 6882.00    1.12910   1.13827    0.007
 6883.00    1.16914   1.14019    0.007
 6884.00    1.21852   1.14208    0.007
 6885.00    1.27289   1.14383    0.007
 6886.00    1.26211   1.14556    0.007
 6887.00    1.22110   1.14718    0.008
 6888.00    1.19753   1.14767    0.008
 6889.00    1.18093   1.14877    0.008
 6890.00    1.15978   1.14953    0.008
 6891.00    1.13708   1.15000    0.007
 6892.00    1.17094   1.15052    0.007
 6893.00    1.22101   1.15105    0.007
 6894.00    1.19989   1.15140    0.007
 6895.00    1.16190   1.15164    0.007
 6896.00    1.14408   1.15202    0.007
 6897.00    1.13010   1.15269    0.007
 6898.00    1.15089   1.15276    0.007
 6899.00    1.17681   1.15275    0.007
 6900.00    1.19061   1.15274    0.007
 6901.00    1.20309   1.15229    0.007
 6902.00    1.16083   1.15182    0.007
 6903.00    1.11470   1.15087    0.007
 6904.00    1.07607   1.15011    0.007
 6905.00    1.03772   1.14867    0.007
 6906.00    1.08901   1.14720    0.007
 6907.00    1.13693   1.14546    0.007
 6908.00    1.05816   1.14422    0.007
 6909.00    0.97965   1.14278    0.007
 6910.00    0.90517   1.14147    0.007
 6911.00    0.84371   1.14080    0.007
 6912.00    0.91258   1.13931    0.007
 6913.00    0.97025   1.13871    0.007
 6914.00    0.94747   1.13781    0.007
 6915.00    0.93557   1.13764    0.007
 6916.00    0.98370   1.13717    0.007
 6917.00    1.04353   1.13649    0.007
 6918.00    1.15498   1.13623    0.007
 6919.00    1.24105   1.13505    0.007
 6920.00    1.23509   1.13468    0.007
 6921.00    1.23217   1.13433    0.007
 6922.00    1.23848   1.13466    0.007
 6923.00    1.23489   1.13513    0.007
 6924.00    1.20575   1.13502    0.007
 6925.00    1.15802   1.13535    0.007
 6926.00    1.06897   1.13526    0.007
 6927.00    1.03798   1.13572    0.007
 6928.00    1.11886   1.13620    0.007
 6929.00    1.20281   1.13686    0.008
 6930.00    1.29191   1.13797    0.008
 6931.00    1.32714   1.13787    0.008
 6932.00    1.28302   1.13785    0.008
 6933.00    1.21571   1.13738    0.008
 6934.00    1.11837   1.13710    0.007
 6935.00    1.07745   1.13689    0.007
 6936.00    1.10088   1.13609    0.008
 6937.00    1.06956   1.13553    0.008
 6938.00    0.98315   1.13411    0.007
 6939.00    0.98979   1.13266    0.007
 6940.00    1.07902   1.13139    0.008
 6941.00    1.14547   1.13057    0.007
 6942.00    1.19411   1.13050    0.007
 6943.00    1.16656   1.12990    0.007
 6944.00    1.08662   1.12968    0.007
 6945.00    1.03376   1.12965    0.007
 6946.00    0.99723   1.12920    0.008
 6947.00    1.04043   1.12974    0.008
 6948.00    1.12559   1.13062    0.008
 6949.00    1.09846   1.13205    0.008
 6950.00    1.02009   1.13350    0.008
 6951.00    1.00312   1.13496    0.008
 6952.00    1.01027   1.13693    0.008
 6953.00    1.02575   1.13795    0.008
 6954.00    1.04400   1.13962    0.008
 6955.00    1.07178   1.14125    0.008
 6956.00    1.10223   1.14298    0.008
 6957.00    1.11950   1.14440    0.008
 6958.00    1.13371   1.14524    0.008
 6959.00    1.11930   1.14585    0.008
 6960.00    1.09957   1.14572    0.007
 6961.00    1.13641   1.14554    0.008
 6962.00    1.18134   1.14496    0.008
 6963.00    1.19586   1.14415    0.008
 6964.00    1.20723   1.14221    0.008
 6965.00    1.23929   1.13982    0.008
 6966.00    1.27273   1.13646    0.008
 6967.00    1.21452   1.13316    0.008
 6968.00    1.15339   1.13096    0.008
 6969.00    1.20121   1.12811    0.008
 6970.00    1.24177   1.12549    0.008
 6971.00    1.05992   1.12290    0.008
 6972.00    0.88512   1.12092    0.008
 6973.00    0.81538   1.11944    0.008
 6974.00    0.76069   1.11878    0.008
 6975.00    0.85044   1.12064    0.008
 6976.00    0.94773   1.12262    0.008
 6977.00    1.09745   1.12437    0.008
 6978.00    1.21831   1.12679    0.008
 6979.00    1.18432   1.12935    0.008
 6980.00    1.17453   1.13200    0.008
 6981.00    1.26903   1.13449    0.008
 6982.00    1.34224   1.13691    0.008
 6983.00    1.33988   1.13899    0.008
 6984.00    1.32174   1.14005    0.008
 6985.00    1.25656   1.14095    0.008
 6986.00    1.19174   1.14183    0.008
 6987.00    1.12786   1.14161    0.008
 6988.00    1.08341   1.14097    0.008
 6989.00    1.08148   1.13993    0.008
 6990.00    1.10193   1.13883    0.008
 6991.00    1.16485   1.13778    0.008
 6992.00    1.16538   1.13604    0.008
 6993.00    1.06259   1.13457    0.008
 6994.00    1.03979   1.13238    0.008
 6995.00    1.13308   1.13018    0.008
 6996.00    1.20895   1.12888    0.008
 6997.00    1.26258   1.12788    0.008
 6998.00    1.20958   1.12687    0.008
 6999.00    1.03666   1.12494    0.008
 7000.00    0.94432   1.12372    0.008
 7001.00    0.93192   1.12274    0.007
 7002.00    0.91690   1.12208    0.008
 7003.00    0.89960   1.12138    0.008
 7004.00    0.95297   1.12032    0.008
 7005.00    1.06079   1.11932    0.008
 7006.00    1.03964   1.11809    0.008
 7007.00    0.93110   1.11739    0.008
 7008.00    0.97031   1.11716    0.008
 7009.00    1.09726   1.11683    0.008
 7010.00    1.11206   1.11583    0.008
 7011.00    1.06878   1.11404    0.008
 7012.00    1.06380   1.11339    0.008
 7013.00    1.07600   1.11448    0.008
 7014.00    1.07610   1.11543    0.008
 7015.00    1.07154   1.11601    0.008
 7016.00    1.11280   1.11665    0.008
 7017.00    1.16911   1.11684    0.008
 7018.00    1.20960   1.11684    0.008
 7019.00    1.24574   1.11743    0.008
 7020.00    1.20168   1.11907    0.008
 7021.00    1.13949   1.12108    0.008
 7022.00    1.19310   1.12207    0.008
 7023.00    1.26763   1.12317    0.008
 7024.00    1.12367   1.12452    0.008
 7025.00    0.94943   1.12574    0.008
 7026.00    1.01501   1.12695    0.008
 7027.00    1.10439   1.12828    0.008
 7028.00    1.11134   1.13023    0.008
 7029.00    1.11312   1.13223    0.009
 7030.00    1.15099   1.13435    0.009
 7031.00    1.18973   1.13711    0.009
 7032.00    1.19052   1.13935    0.009
 7033.00    1.18895   1.14053    0.008
 7034.00    1.12256   1.14270    0.008
 7035.00    1.06317   1.14630    0.008
 7036.00    1.10203   1.14947    0.008
 7037.00    1.14125   1.15195    0.008
 7038.00    1.18380   1.15351    0.008
 7039.00    1.21865   1.15426    0.008
 7040.00    1.20163   1.15350    0.008
 7041.00    1.18852   1.15278    0.008
 7042.00    1.19588   1.15198    0.008
 7043.00    1.19016   1.14968    0.008
 7044.00    1.12934   1.14662    0.008
 7045.00    1.09312   1.14218    0.008
 7046.00    1.14247   1.13740    0.008
 7047.00    1.17759   1.13156    0.009
 7048.00    1.17107   1.12509    0.009
 7049.00    1.17369   1.11959    0.009
 7050.00    1.19913   1.11404   -2.000
 7051.00    1.19467   1.10903   -2.000
 7052.00    1.12591   1.10449   -2.000
 7053.00    1.15508   1.09986   -2.000
 7054.00    1.36716   1.09538   -2.000
 7055.00    1.45360   1.09095   -2.000
 7056.00    1.33514   1.08777   -2.000
 7057.00    1.23017   1.08583   -2.000
 7058.00    1.14449   1.08389   -2.000
 7059.00    1.09545   1.08303   -2.000
 7060.00    1.09253   1.08241   -2.000
 7061.00    1.07899   1.08170   -2.000
 7062.00    1.05365   1.08155   -2.000
 7063.00    1.16549   1.08167   -2.000
 7064.00    1.41148   1.08301   -2.000
 7065.00    1.48475   1.08502   -2.000
 7066.00    1.40902   1.08709   -2.000
 7067.00    1.29508   1.08840   -2.000
 7068.00    1.15212   1.08953   -2.000
 7069.00    1.14882   1.09068   -2.000
 7070.00    1.23877   1.09110   -2.000
 7071.00    1.19216   1.09115   -2.000
 7072.00    1.06570   1.09016   -2.000
 7073.00    1.18229   1.08849   -2.000
 7074.00    1.42279   1.08564   -2.000
 7075.00    1.53591   1.08201   -2.000
 7076.00    1.59278   1.07838   -2.000
 7077.00    1.56440   1.07355   -2.000
 7078.00    1.50368   1.06794   -2.000
 7079.00    1.40625   1.06185   -2.000
 7080.00    1.29700   1.05606   -2.000
 7081.00    1.42231   1.05148   -2.000
 7082.00    1.61081   1.04713   -2.000
 7083.00    1.53827   1.04252   -2.000
 7084.00    1.40810   1.03904   -2.000
 7085.00    1.39627   1.03564   -2.000
 7086.00    1.40525   1.03314   -2.000
 7087.00    1.24325   1.03270   -2.000
 7088.00    1.05835   1.03165   -2.000
 7089.00    1.13989   1.03266   -2.000
 7090.00    1.24676   1.03265   -2.000
 7091.00    1.12015   1.03337   -2.000
 7092.00    0.97984   1.03523   -2.000
 7093.00    1.09329   1.03595   -2.000
 7094.00    1.21222   1.03909   -2.000
 7095.00    1.22685   1.04010   -2.000
 7096.00    1.23769   1.04173   -2.000
 7097.00    1.15448   1.04275   -2.000
 7098.00    1.08185   1.04320   -2.000
 7099.00    1.14982   1.04478   -2.000
 7100.00    1.20489   1.04526   -2.000
 7101.00    1.14558   1.04575   -2.000
 7102.00    1.09566   1.04553   -2.000
 7103.00    1.10708   1.04542   -2.000
 7104.00    1.10346   1.04591   -2.000
 7105.00    1.02320   1.04554   -2.000
 7106.00    0.97868   1.04536   -2.000
 7107.00    1.08133   1.04544   -2.000
 7108.00    1.15222   1.04536   -2.000
 7109.00    1.11484   1.04565   -2.000
 7110.00    1.10610   1.04500   -2.000
 7111.00    1.17964   1.04530   -2.000
 7112.00    1.26121   1.04458   -2.000
 7113.00    1.36249   1.04355   -2.000
 7114.00    1.36438   1.04301   -2.000
 7115.00    1.15594   1.04126   -2.000
 7116.00    1.03287   1.04034   -2.000
 7117.00    1.06675   1.03791   -2.000
 7118.00    1.10582   1.03628   -2.000
 7119.00    1.15324   1.03487   -2.000
 7120.00    1.12846   1.03228   -2.000
 7121.00    1.00192   1.03043   -2.000
 7122.00    0.99851   1.02869   -2.000
 7123.00    1.14785   1.02800   -2.000
 7124.00    1.20781   1.02751   -2.000
 7125.00    1.17005   1.02676   -2.000
 7126.00    1.15431   1.02655   -2.000
 7127.00    1.15981   1.02737   -2.000
 7128.00    1.04127   1.02834   -2.000
 7129.00    0.81724   1.02978   -2.000
 7130.00    0.80387   1.03123   -2.000
 7131.00    0.94825   1.03251   -2.000
 7132.00    1.19611   1.03412   -2.000
 7133.00    1.51206   1.03493   -2.000
 7134.00    1.36630   1.03595   -2.000
 7135.00    0.95458   1.03674   -2.000
 7136.00    0.94020   1.03757   -2.000
 7137.00    1.12520   1.03792   -2.000
 7138.00    1.21382   1.03717   -2.000
 7139.00    1.26059   1.03742   -2.000
 7140.00    1.32718   1.03755   -2.000
 7141.00    1.40116   1.03762   -2.000
 7142.00    1.27127   1.03808   -2.000
 7143.00    1.07699   1.03768   -2.000
 7144.00    1.03535   1.03847   -2.000
 7145.00    1.03397   1.03925   -2.000
 7146.00    1.12715   1.04001   -2.000
 7147.00    1.24071   1.04193   -2.000
 7148.00    1.24989   1.04272   -2.000
 7149.00    1.24123   1.04368   -2.000
 7150.00    1.17211   1.04373   -2.000
 7151.00    1.09516   1.04424   -2.000
 7152.00    1.31902   1.04586   -2.000
 7153.00    1.57020   1.04565   -2.000
 7154.00    1.32281   1.04527   -2.000
 7155.00    1.04813   1.04422   -2.000
 7156.00    1.09195   1.04427   -2.000
 7157.00    1.14310   1.04489   -2.000
 7158.00    1.25488   1.04493   -2.000
 7159.00    1.36061   1.04480   -2.000
 7160.00    1.32892   1.04427   -2.000
 7161.00    1.31916   1.04524   -2.000
 7162.00    1.58556   1.04670   -2.000
 7163.00    1.79994   1.04833   -2.000
 7164.00    1.57050   1.04943   -2.000
 7165.00    1.33714   1.04982   -2.000
 7166.00    1.07896   1.05019   -2.000
 7167.00    0.89940   1.05090   -2.000
 7168.00    1.11019   1.05209   -2.000
 7169.00    1.26174   1.05208   -2.000
 7170.00    1.17486   1.05084   -2.000
 7171.00    1.13721   1.04872   -2.000
 7172.00    1.26403   1.04724   -2.000
 7173.00    1.32093   1.04679   -2.000
 7174.00    1.18061   1.04530   -2.000
 7175.00    1.11774   1.04279   -2.000
 7176.00    1.24165   1.03997   -2.000
 7177.00    1.29142   1.03717   -2.000
 7178.00    1.18683   1.03561   -2.000
 7179.00    1.14820   1.03433   -2.000
 7180.00    1.22899   1.03287   -2.000
 7181.00    1.25829   1.03184   -2.000
 7182.00    1.20607   1.02948   -2.000
 7183.00    1.18113   1.02820   -2.000
 7184.00    1.19410   1.02801   -2.000
 7185.00    1.14987   1.02840   -2.000
 7186.00    1.03570   1.02952   -2.000
 7187.00    1.07779   1.02901   -2.000
 7188.00    1.28834   1.02967   -2.000
 7189.00    1.38068   1.03084   -2.000
 7190.00    1.36064   1.03214   -2.000
 7191.00    1.38089   1.03378   -2.000
 7192.00    1.43493   1.03396   -2.000
 7193.00    1.42301   1.03543   -2.000
 7194.00    1.36241   1.03680   -2.000
 7195.00    1.20718   1.03751   -2.000
 7196.00    0.99058   1.03814   -2.000
 7197.00    1.02104   1.03710   -2.000
 7198.00    1.19164   1.03739   -2.000
 7199.00    1.20632   1.03787   -2.000
 7200.00    1.14399   1.03813   -2.000
 7201.00    1.26333   1.03895   -2.000
 7202.00    1.46026   1.03795   -2.000
 7203.00    1.45572   1.03799   -2.000
 7204.00    1.37747   1.03843   -2.000
 7205.00    1.23717   1.03947   -2.000
 7206.00    1.07765   1.04148   -2.000
 7207.00    1.11238   1.04267   -2.000
 7208.00    1.19725   1.04423   -2.000
 7209.00    1.14646   1.04530   -2.000
 7210.00    1.06714   1.04710   -2.000
 7211.00    1.08824   1.04917   -2.000
 7212.00    1.12602   1.05155   -2.000
 7213.00    1.17755   1.05367   -2.000
 7214.00    1.23080   1.05519   -2.000
 7215.00    1.35796   1.05766   -2.000
 7216.00    1.49151   1.05929   -2.000
 7217.00    1.19700   1.06190   -2.000
 7218.00    0.88074   1.06367   -2.000
