###################################################################
## OUTPUT of StarlightChains_v04.for    [Cid@UFSC - 01/Apr/2007] ##
###################################################################

## Some input info
KUG0210-078._47_53.txt                   [arq_obs]
Base.CB07.vall.4m                        [arq_base]
Masks.EmLines.NEW.gm                     [arq_masks]
StCv04.C11.config                        [arq_config]
   66                                    [N_base]
    0                                    [N_YAV_components = # of components with extra extinction!]
    0                                    [i_FitPowerLaw (1/0 = Yes/No)]
-9.99                                    [alpha_PowerLaw]
CCM                                      [red_law_option]
 1.458241                                [q_norm = A(l_norm)/A(V)]

## (Re)Sampling Parameters
 3741.00                                 [l_ini (A)]
 7218.00                                 [l_fin (A)]
    1.00                                 [dl    (A)]     (OBS: dl_cushion =    50.00 A)

## Normalization info
 4020.00                                 [l_norm (A) - for base]
 4010.00                                 [llow_norm (A) - window for f_obs]
 4060.00                                 [lupp_norm (A) - window for f_obs]
5.180796E-18                             [fobs_norm (in input units)]

## S/N
 3691.00                                 [llow_SN (A) - window for S/N]
 7268.00                                 [lupp_SN (A) - window for S/N]
   2.805                                 [S/N in S/N window]
   2.714                                 [S/N in norm. window]
   0.006                                 [S/N_err in S/N window]
   0.006                                 [S/N_err in norm. window]
  1.0000                                 [fscale_chi2]

## etc...
    -2007924                             [idum_orig]
  2359                                   [NOl_eff]
  2336                                   [Nl_eff]
    23    NSIGMA                         [Ntot_cliped & clip_method]
  1200220                                [Nglobal_steps]
   7                                     [N_chains]
  38                                     [NEX0s_base = N_base in EX0s-fits]
 0   0   1       23   2.0   1.052E+03    [Clip-Bug, RC-Crash & Burn-In warning-flags, n_censored_weights, wei_nsig_threshold & wei_limit]
    24     24.034     23.522      0.512  [idt_all, wdt_TotTime, wdt_UsrTime & wdt_SysTime (sec)]

## Synthesis Results - Best model ##

 1.55781E-05                             [chi2/Nl_eff]
    68.28378                             [adev (%)]

   111.41238                             [sum-of-x (%)]
 9.03179E-17                             [Flux_tot (units of input spectrum!)]
 1.63929E-13                             [Mini_tot (???)]
 8.83445E-14                             [Mcor_tot (???)]

  60.72                                  [v0_min  (km/s)]
  10.05                                  [vd_min  (km/s)]
 2.0477                                  [AV_min  (mag)]
 0.0000                                  [YAV_min (mag)]

# j     x_j(%)      Mini_j(%)     Mcor_j(%)     age_j(yr)     Z_j      (L/M)_j    YAV?  Mstars   component_j        a/Fe...       SSP_chi2r SSP_adev(%)   SSP_AV   SSP_x(%)
  1      6.0194     2.7210E-01    5.0489E-01    1.000000E+06  0.00400  1.094E-02    0   1.0000   age020_m42            0.0000     1.5166E-05    63.5380   2.8566   101.5033
  2      0.0000     0.0000E+00    0.0000E+00    3.160000E+06  0.00400  4.007E-02    0   0.9999   age045_m42            0.0000     1.6234E-05    62.8860   2.1450   107.2608
  3      0.0000     0.0000E+00    0.0000E+00    5.010000E+06  0.00400  2.539E-02    0   0.9488   age055_m42            0.0000     1.5797E-05    63.9082   2.4597   105.1060
  4      0.0000     0.0000E+00    0.0000E+00    6.610000E+06  0.00400  2.620E-02    0   0.9220   age061_m42            0.0000     1.6498E-05    63.3822   2.0806   107.0113
  5      0.0000     0.0000E+00    0.0000E+00    1.000000E+07  0.00400  1.322E-02    0   0.8862   age070_m42            0.0000     1.6474E-05    65.2990   1.8129   108.3261
  6      0.0011     7.1173E-05    1.1319E-04    1.445000E+07  0.00400  7.883E-03    0   0.8571   age078_m42            0.0000     1.6114E-05    65.3710   2.1308   106.2039
  7      6.7839     6.3889E-01    9.6902E-01    2.512000E+07  0.00400  5.251E-03    0   0.8174   age090_m42            0.0000     1.6561E-05    65.6438   1.6882   108.6467
  8      0.0000     0.0000E+00    0.0000E+00    4.000000E+07  0.00400  3.649E-03    0   0.7851   age104_m42            0.0000     1.6733E-05    65.0962   1.4620   109.4815
  9      0.0000     0.0000E+00    0.0000E+00    5.500000E+07  0.00400  3.098E-03    0   0.7629   age110_m42            0.0000     1.7019E-05    64.0668   1.6119   109.6416
 10      0.0000     0.0000E+00    0.0000E+00    1.015200E+08  0.00400  2.228E-03    0   0.7207   age116_m42            0.0000     1.7383E-05    63.3460   1.6407   109.4891
 11      0.0000     0.0000E+00    0.0000E+00    2.861200E+08  0.00400  1.093E-03    0   0.6648   age125_m42            0.0000     1.7889E-05    63.6945   1.0840   111.5209
 12      0.0000     0.0000E+00    0.0000E+00    5.088000E+08  0.00400  6.597E-04    0   0.6365   age130_m42            0.0000     1.8216E-05    62.5434   1.0770   112.4452
 13      0.0000     0.0000E+00    0.0000E+00    1.434000E+09  0.00400  2.132E-04    0   0.5798   age139_m42            0.0000     1.8113E-05    60.4176   0.0992   115.0785
 14      0.0166     1.3918E-01    1.3887E-01    4.250000E+09  0.00400  5.895E-05    0   0.5377   age158_m42            0.0000     1.7272E-05    59.7121  -0.3724   112.4537
 15      0.0000     0.0000E+00    0.0000E+00    7.500000E+09  0.00400  3.510E-05    0   0.5212   age171_m42            0.0000     1.7260E-05    59.2778  -0.5725   112.1452
 16      1.8158     4.4786E+01    4.1834E+01    1.300000E+10  0.00400  2.005E-05    0   0.5034   age193_m42            0.0000     1.7310E-05    58.5123  -0.7426   111.7076
 17      0.0000     0.0000E+00    0.0000E+00    1.800000E+10  0.00400  1.525E-05    0   0.4967   age213_m42            0.0000     1.7229E-05    58.6679  -0.7656   111.2615
 18      0.0000     0.0000E+00    0.0000E+00    1.000000E+06  0.00800  1.238E-02    0   1.0000   age020_m52            0.0000     1.5142E-05    63.5984   2.8507   101.7810
 19      0.0000     0.0000E+00    0.0000E+00    3.160000E+06  0.00800  3.074E-02    0   0.9966   age045_m52            0.0000     1.5188E-05    63.7439   2.7717   102.7864
 20      0.0000     0.0000E+00    0.0000E+00    5.010000E+06  0.00800  2.668E-02    0   0.9443   age055_m52            0.0000     1.5636E-05    63.9973   2.5396   104.3907
 21      0.0000     0.0000E+00    0.0000E+00    6.610000E+06  0.00800  2.136E-02    0   0.9177   age061_m52            0.0000     1.6023E-05    64.8261   1.3045   110.1988
 22      0.0000     0.0000E+00    0.0000E+00    1.000000E+07  0.00800  1.215E-02    0   0.8827   age070_m52            0.0000     1.6249E-05    65.9975   1.9897   108.1550
 23      0.0000     0.0000E+00    0.0000E+00    1.445000E+07  0.00800  8.717E-03    0   0.8552   age078_m52            0.0000     1.6185E-05    65.4406   2.0938   107.6722
 24      0.0000     0.0000E+00    0.0000E+00    2.512000E+07  0.00800  5.592E-03    0   0.8162   age090_m52            0.0000     1.6615E-05    65.7761   1.7508   109.8916
 25      0.0000     0.0000E+00    0.0000E+00    4.000000E+07  0.00800  3.896E-03    0   0.7841   age104_m52            0.0000     1.6873E-05    65.3117   1.6608   110.6819
 26      0.0000     0.0000E+00    0.0000E+00    1.015200E+08  0.00800  2.148E-03    0   0.7226   age116_m52            0.0000     1.7308E-05    64.1568   1.6083   110.1817
 27      0.0000     0.0000E+00    0.0000E+00    2.861200E+08  0.00800  9.925E-04    0   0.6683   age125_m52            0.0000     1.8315E-05    62.3126   1.1405   113.4494
 28      0.0000     0.0000E+00    0.0000E+00    9.047900E+08  0.00800  3.141E-04    0   0.6138   age135_m52            0.0000     1.8382E-05    60.3918   0.3189   119.1632
 29      0.0000     0.0000E+00    0.0000E+00    1.434000E+09  0.00800  1.719E-04    0   0.5853   age139_m52            0.0000     1.7756E-05    60.4887  -0.2791   117.5924
 30      0.0000     0.0000E+00    0.0000E+00    2.500000E+09  0.00800  7.872E-05    0   0.5600   age150_m52            0.0000     1.7581E-05    59.3526  -0.5597   115.4259
 31      4.2298     4.8241E+01    4.8571E+01    4.250000E+09  0.00800  4.336E-05    0   0.5426   age158_m52            0.0000     1.7512E-05    59.3879  -0.5793   114.5320
 32      0.0000     0.0000E+00    0.0000E+00    6.250000E+09  0.00800  3.159E-05    0   0.5319   age166_m52            0.0000     1.7790E-05    58.1994  -0.7821   114.5455
 33      0.0000     0.0000E+00    0.0000E+00    1.300000E+10  0.00800  1.361E-05    0   0.5073   age193_m52            0.0000     1.8324E-05    55.6292  -1.0000   107.1647
 34      0.0000     0.0000E+00    0.0000E+00    1.800000E+10  0.00800  9.886E-06    0   0.4990   age213_m52            0.0000     1.8843E-05    54.3131  -1.0000   103.5701
 35     26.3851     8.4508E-01    1.5681E+00    1.000000E+06  0.02000  1.544E-02    0   1.0000   age020_m62            0.0000     1.5108E-05    63.6257   2.8448   102.0968
 36     49.9104     6.5608E-01    1.2001E+00    3.160000E+06  0.02000  3.762E-02    0   0.9858   age045_m62            0.0000     1.5081E-05    63.8146   2.7790   103.2639
 37      0.0048     7.1416E-05    1.2380E-04    5.010000E+06  0.02000  3.296E-02    0   0.9342   age055_m62            0.0000     1.6080E-05    63.3861   2.4177   106.3805
 38      0.0000     0.0000E+00    0.0000E+00    8.710000E+06  0.02000  1.154E-02    0   0.8861   age067_m62            0.0000     1.6107E-05    69.8457   1.4575   109.7138
 39      0.0000     0.0000E+00    0.0000E+00    1.445000E+07  0.02000  7.663E-03    0   0.8472   age078_m62            0.0000     1.6186E-05    67.2855   1.6334   110.3244
 40      0.0000     0.0000E+00    0.0000E+00    2.512000E+07  0.02000  4.532E-03    0   0.8099   age090_m62            0.0000     1.6450E-05    67.7182   1.6311   109.5479
 41      0.0000     0.0000E+00    0.0000E+00    5.500000E+07  0.02000  2.733E-03    0   0.7595   age110_m62            0.0000     1.6874E-05    65.2928   1.6467   109.7794
 42      0.5860     2.1168E-01    2.7437E-01    1.609000E+08  0.02000  1.369E-03    0   0.6985   age120_m62            0.0000     1.7929E-05    63.1182   1.5050   111.7834
 43      0.0000     0.0000E+00    0.0000E+00    2.861200E+08  0.02000  9.013E-04    0   0.6714   age125_m62            0.0000     1.8599E-05    61.7077   1.2666   114.3768
 44      0.9554     9.3969E-01    1.1245E+00    5.088000E+08  0.02000  5.028E-04    0   0.6449   age130_m62            0.0000     1.8758E-05    59.6816   0.8692   118.3741
 45      0.0000     0.0000E+00    0.0000E+00    9.047900E+08  0.02000  2.428E-04    0   0.6179   age135_m62            0.0000     1.8096E-05    59.8376   0.2532   119.1429
 46      0.7222     2.8279E+00    3.1001E+00    1.434000E+09  0.02000  1.263E-04    0   0.5908   age139_m62            0.0000     1.7698E-05    59.7519  -0.2078   118.2223
 47      0.0000     0.0000E+00    0.0000E+00    2.500000E+09  0.02000  5.985E-05    0   0.5673   age150_m62            0.0000     1.7675E-05    58.8005  -0.5891   117.3983
 48      0.0000     0.0000E+00    0.0000E+00    4.250000E+09  0.02000  3.271E-05    0   0.5468   age158_m62            0.0000     1.8143E-05    56.6882  -0.8940   116.3628
 49      0.0000     0.0000E+00    0.0000E+00    1.000000E+10  0.02000  1.360E-05    0   0.5167   age181_m62            0.0000     1.8961E-05    53.6072  -1.0000   109.2038
 50      0.0000     0.0000E+00    0.0000E+00    1.800000E+10  0.02000  7.124E-06    0   0.5013   age213_m62            0.0000     1.9778E-05    52.0460  -1.0000   102.2196
 51      0.0000     0.0000E+00    0.0000E+00    1.000000E+06  0.05000  2.592E-02    0   0.9998   age020_m72            0.0000     1.5003E-05    63.7867   2.8375   102.1620
 52      0.0000     0.0000E+00    0.0000E+00    3.160000E+06  0.05000  4.845E-02    0   0.9577   age045_m72            0.0000     1.5460E-05    63.7299   2.6675   104.2865
 53      8.3199     1.3393E-01    2.2732E-01    5.010000E+06  0.05000  3.072E-02    0   0.9147   age055_m72            0.0000     1.5817E-05    66.4226   2.1915   107.4261
 54      0.0000     0.0000E+00    0.0000E+00    6.610000E+06  0.05000  1.455E-02    0   0.8877   age061_m72            0.0000     1.6448E-05    72.9083   1.4685   110.2670
 55      5.6618     3.0856E-01    4.8805E-01    1.000000E+07  0.05000  9.074E-03    0   0.8524   age070_m72            0.0000     1.5961E-05    67.2517   2.3451   107.3907
 56      0.0000     0.0000E+00    0.0000E+00    2.512000E+07  0.05000  4.250E-03    0   0.7902   age090_m72            0.0000     1.6578E-05    66.7186   2.0828   108.1390
 57      0.0000     0.0000E+00    0.0000E+00    4.000000E+07  0.05000  3.087E-03    0   0.7618   age104_m72            0.0000     1.6972E-05    66.6925   1.8668   109.2135
 58      0.0000     0.0000E+00    0.0000E+00    1.015200E+08  0.05000  1.700E-03    0   0.7096   age116_m72            0.0000     1.7827E-05    64.0639   1.6467   111.1593
 59      0.0000     0.0000E+00    0.0000E+00    2.861200E+08  0.05000  7.384E-04    0   0.6633   age125_m72            0.0000     1.8747E-05    60.4460   1.1264   116.3316
 60      0.0000     0.0000E+00    0.0000E+00    5.088000E+08  0.05000  3.819E-04    0   0.6372   age130_m72            0.0000     1.8372E-05    59.2559   0.6061   119.8224
 61      0.0000     0.0000E+00    0.0000E+00    9.047900E+08  0.05000  1.676E-04    0   0.6110   age135_m72            0.0000     1.7822E-05    58.1516  -0.1313   119.7942
 62      0.0000     0.0000E+00    0.0000E+00    1.434000E+09  0.05000  8.837E-05    0   0.5874   age139_m72            0.0000     1.7828E-05    58.1174  -0.5960   119.2855
 63      0.0000     0.0000E+00    0.0000E+00    2.500000E+09  0.05000  4.233E-05    0   0.5598   age150_m72            0.0000     1.8271E-05    56.4322  -0.9079   117.8803
 64      0.0000     0.0000E+00    0.0000E+00    6.250000E+09  0.05000  1.435E-05    0   0.5249   age166_m72            0.0000     1.9158E-05    53.0696  -1.0000   106.1132
 65      0.0000     0.0000E+00    0.0000E+00    1.300000E+10  0.05000  6.513E-06    0   0.5036   age193_m72            0.0000     2.0430E-05    51.3541  -1.0000    98.4617
 66      0.0000     7.1219E-12    6.5349E-12    1.800000E+10  0.05000  4.527E-06    0   0.4945   age213_m72            0.0000     2.1258E-05    50.8548  -1.0000    93.1802


## Synthesis Results - Average & Chains ##

# j      x_j: min, <> & last-chain-values for 1 ...  7 chains
  1      6.0194      1.4237      3.4445      0.3888      0.8749      0.6467      0.5995      0.2958      0.0000
  2      0.0000      1.0363      0.0000      1.5817      0.4695      1.0874      0.3369      0.5762      0.0000
  3      0.0000      1.3613      2.2577      0.8827      0.7358      0.0000      0.5021      0.3600      1.7745
  4      0.0000      1.4022      1.2052      0.9636      3.6411      0.0000      0.0000      0.0000      0.1778
  5      0.0000      1.5897      0.2543      0.0000      0.4079      0.0000      1.2811      0.5168      1.4609
  6      0.0011      1.1611      0.0000      1.2681      0.0000      0.5513      1.2796      0.5828      0.8612
  7      6.7839      1.9524      1.2620      0.4243      0.7785      1.6156      2.0706      2.3113      1.1950
  8      0.0000      1.5497      0.0000      1.4662      0.0000      0.5949      0.4965      0.0000      0.0000
  9      0.0000      1.5150      0.1195      1.0585      0.0000      2.1737      2.1144      0.8430      0.0000
 10      0.0000      1.4100      2.2611      0.5365      0.3848      2.2263      0.4738      0.9574      0.0000
 11      0.0000      1.6825      0.0000      0.4315      2.6491      0.0000      0.7773      0.0000      1.0889
 12      0.0000      3.3372      6.5161      9.2622      6.9355      2.7864      8.2377      6.4133      6.9217
 13      0.0000      1.6611      1.9590      0.1931      0.0000      0.3804      0.6154      0.4098      1.0352
 14      0.0166      1.1523      0.0000      0.7819      0.0000      0.6507      0.0891      0.0000      3.5753
 15      0.0000      1.6116      1.4245      0.3257      4.4312      0.0000      2.3034      0.0000      0.0000
 16      1.8158      1.0312      0.5181      0.4087      0.7243      1.1557      2.9907      1.1336      1.3670
 17      0.0000      1.0956      0.0000      0.8889      0.1091      0.0000      0.5608      0.5004      0.9064
 18      0.0000      1.2335      1.2883      0.0000      2.0364      1.1113      0.0000      1.6445      0.0000
 19      0.0000      2.1182      2.0046      0.5457      0.0168      8.0851      0.4043      1.4078      3.2129
 20      0.0000      1.0670      0.0000      3.1911      0.0000      1.2430      1.7059      0.0793      0.0000
 21      0.0000      1.4198      1.1396      0.1541      0.4844      1.7987      2.7183      0.0000      0.8289
 22      0.0000      1.4989      0.0000      1.7370      0.8989      0.0000      0.0000      1.0213      0.3902
 23      0.0000      1.2667      2.4663      0.7308      1.4865      0.7736      0.0000      1.0556      0.2735
 24      0.0000      1.3691      1.3415      0.6683      0.9698      0.6092      0.4171      3.9881      0.9519
 25      0.0000      1.0192      0.0172      0.0000      0.0000      0.0000      2.5691      0.6922      0.0000
 26      0.0000      1.5869      0.4582      0.0643      0.0000      0.0000      1.1724      0.2979      0.9984
 27      0.0000      1.6730      1.3613      0.0000      0.0000      1.6989      2.4029      0.0000      0.0000
 28      0.0000      0.9697      1.7315      0.3299      0.0348      0.0000      1.4042      0.0000      0.0174
 29      0.0000      1.9473      1.4673      0.4533      1.1215      0.0000      0.0000      3.3051      0.0789
 30      0.0000      1.6645      0.1117      1.4249      0.1496      0.0000      0.9427      0.0000      2.6465
 31      4.2298      1.2364      0.0000      1.4491      2.9171      2.3558      0.8764      1.2245      0.0000
 32      0.0000      1.4663      0.0000      0.7123      0.0000      0.0000      0.0000      2.3105      0.2306
 33      0.0000      1.0159      0.5282      0.0000      2.2978      0.6081      0.0000      0.0000      0.7815
 34      0.0000      1.3253      5.0600      0.0920      0.0000      0.2339      0.0000      0.0000      0.2573
 35     26.3851      1.2310      0.0000      0.0000      0.1806      0.7911      1.1208      0.0000      0.0000
 36     49.9104      2.2075      2.8683      5.7143      3.7196      5.5188      4.8040      3.1683      4.9713
 37      0.0048      1.1719      0.0000      0.0000      2.5436      1.1465      0.0000      2.2743      0.0000
 38      0.0000      1.5473      3.0056      3.6829      2.4992      1.9973      2.7406      4.7973      2.8555
 39      0.0000      1.4228      1.0752      0.0000      0.4629      5.0993      0.1989      0.0000      1.3113
 40      0.0000      1.2245      0.0000      1.5274      1.3414      1.9843      2.1705      4.4234      0.0000
 41      0.0000      1.8346      1.8050      1.4656      0.8356      0.0000      0.2592      2.0663      1.7173
 42      0.5860      1.4705      0.0412      0.8695      0.0000      2.3766      0.6519      0.8340      0.0000
 43      0.0000      1.0241      1.7629      0.0000      0.5276      0.0000      0.0030      0.2922      0.0000
 44      0.9554      1.1677      0.0000      1.8859      0.5847      0.8729      0.0000      0.6674      3.0150
 45      0.0000      1.7100      1.6698      0.6350      0.0468      0.1849      0.4128      0.6382      0.0000
 46      0.7222      1.3904      0.0000      0.0000      1.3086      0.7117      0.8809      0.0000      0.0000
 47      0.0000      1.1439      0.3020      0.0000      0.0000      0.0000      1.3992      1.5311      1.8479
 48      0.0000      2.1514      2.5038      1.8516      0.7386      2.0104      0.0000      0.8894      0.0000
 49      0.0000      1.5650      0.0000      0.8905      0.4047      0.4293      0.4033      0.7541      2.2788
 50      0.0000      1.2291      0.0000      2.8230      0.5483      0.9204      0.0000      2.1956      1.7070
 51      0.0000      1.5586      0.1822      0.0000      1.5426      0.0000      0.0000      0.5231      3.3263
 52      0.0000      1.2983      2.4353      1.3199      0.0000      1.3721      0.0000      0.7085      1.8417
 53      8.3199      1.2361      3.3582      0.0000      0.0000      1.9373      1.4259      0.2608      1.9325
 54      0.0000      2.3772      5.2482      6.1234      6.4568      3.6164      5.8002      4.7712      5.0595
 55      5.6618      1.3560      0.0000      0.7387      1.7513      0.9441      0.0000      0.1279      0.6882
 56      0.0000      1.3124      0.5846      0.4084      1.3727      0.2974      0.7477      2.7884      0.5683
 57      0.0000      1.6333      0.0214      0.0000      3.2474      2.1934      1.0848      0.5329      0.5946
 58      0.0000      1.3132      0.0000      0.8289      0.4569      0.0000      0.0000      0.6420      0.6125
 59      0.0000      1.1899      4.5127      0.0000      0.7227      0.0000      0.0000      0.1461      1.0021
 60      0.0000      1.4450      1.4230      2.2919      0.0000      1.1077      2.6555      0.0000      0.0000
 61      0.0000      1.5303      0.3901      0.0000      4.0509      0.0000      1.9163      2.5540      0.0000
 62      0.0000      2.0035      1.2646      0.0000      1.1870      0.0000      0.7709      2.1312      0.5904
 63      0.0000      1.2612      0.3568      0.0000      0.0000      0.4133      0.0000      0.9118      0.0000
 64      0.0000      1.2955      3.6036      0.0866      1.0772      0.0000      0.2260      0.0000      2.9058
 65      0.0000      1.4082      0.5289      1.2782      2.0604      1.2852      1.0418      0.6800      1.6901
 66      0.0000     10.0399     27.6493     40.7677     32.6119     36.9617     36.3609     32.8006     33.3988

# j      m_j: min, <> & last-chain-values for 1 ...  7 chains
  1  5.0489E-01  7.3276E-03  8.7486E-03  7.1967E-04  1.9578E-03  1.3517E-03  1.2815E-03  6.7421E-04  0.0000E+00
  2  0.0000E+00  1.4560E-03  0.0000E+00  7.9921E-04  2.8681E-04  6.2043E-04  1.9660E-04  3.5862E-04  0.0000E+00
  3  0.0000E+00  2.8643E-03  2.3443E-03  6.6793E-04  6.7311E-04  0.0000E+00  4.3877E-04  3.3551E-04  1.5446E-03
  4  0.0000E+00  2.7785E-03  1.1785E-03  6.8663E-04  3.1369E-03  0.0000E+00  0.0000E+00  0.0000E+00  1.4572E-04
  5  0.0000E+00  6.0002E-03  4.7368E-04  0.0000E+00  6.6937E-04  0.0000E+00  2.0084E-03  8.6395E-04  2.2811E-03
  6  1.1319E-04  7.1086E-03  0.0000E+00  2.7920E-03  0.0000E+00  1.3705E-03  3.2536E-03  1.5803E-03  2.1812E-03
  7  9.6902E-01  1.7113E-02  5.4584E-03  1.3374E-03  2.9669E-03  5.7504E-03  7.5380E-03  8.9730E-03  4.3330E-03
  8  0.0000E+00  1.8774E-02  0.0000E+00  6.3876E-03  0.0000E+00  2.9266E-03  2.4980E-03  0.0000E+00  0.0000E+00
  9  0.0000E+00  2.1007E-02  8.1791E-04  5.2784E-03  0.0000E+00  1.2239E-02  1.2177E-02  5.1774E-03  0.0000E+00
 10  0.0000E+00  2.5682E-02  2.0323E-02  3.5143E-03  3.0470E-03  1.6467E-02  3.5840E-03  7.7234E-03  0.0000E+00
 11  0.0000E+00  5.7620E-02  0.0000E+00  5.3146E-03  3.9446E-02  0.0000E+00  1.1057E-02  0.0000E+00  1.5428E-02
 12  0.0000E+00  1.8130E-01  1.7469E-01  1.8096E-01  1.6382E-01  6.1471E-02  1.8587E-01  1.5432E-01  1.5556E-01
 13  0.0000E+00  2.5436E-01  1.4803E-01  1.0634E-02  0.0000E+00  2.3653E-02  3.9137E-02  2.7794E-02  6.5577E-02
 14  1.3887E-01  5.9180E-01  0.0000E+00  1.4441E-01  0.0000E+00  1.3571E-01  1.9013E-02  0.0000E+00  7.5963E-01
 15  0.0000E+00  1.3475E+00  5.8776E-01  9.7919E-02  1.6108E+00  0.0000E+00  7.9989E-01  0.0000E+00  0.0000E+00
 16  4.1834E+01  1.4579E+00  3.6147E-01  2.0779E-01  4.4519E-01  6.6345E-01  1.7560E+00  7.0980E-01  7.9948E-01
 17  0.0000E+00  2.0093E+00  0.0000E+00  5.8623E-01  8.6992E-02  0.0000E+00  4.2718E-01  4.0644E-01  6.8763E-01
 18  0.0000E+00  5.6104E-03  2.8914E-03  0.0000E+00  4.0269E-03  2.0525E-03  0.0000E+00  3.3129E-03  0.0000E+00
 19  0.0000E+00  3.8667E-03  1.8058E-03  3.5826E-04  1.3370E-05  5.9935E-03  3.0655E-04  1.1383E-03  2.4263E-03
 20  0.0000E+00  2.1265E-03  0.0000E+00  2.2870E-03  0.0000E+00  1.0060E-03  1.4120E-03  6.9992E-05  0.0000E+00
 21  0.0000E+00  3.4348E-03  1.3604E-03  1.3402E-04  5.0949E-04  1.7670E-03  2.7312E-03  0.0000E+00  8.2958E-04
 22  0.0000E+00  6.1314E-03  0.0000E+00  2.5553E-03  1.5988E-03  0.0000E+00  0.0000E+00  1.8504E-03  6.6024E-04
 23  0.0000E+00  6.9973E-03  6.7230E-03  1.4518E-03  3.5702E-03  1.7355E-03  0.0000E+00  2.5828E-03  6.2502E-04
 24  0.0000E+00  1.1252E-02  5.4405E-03  1.9751E-03  3.4653E-03  2.0332E-03  1.4237E-03  1.4517E-02  3.2363E-03
 25  0.0000E+00  1.1550E-02  9.6075E-05  0.0000E+00  0.0000E+00  0.0000E+00  1.2092E-02  3.4744E-03  0.0000E+00
 26  0.0000E+00  3.0059E-02  4.2825E-03  4.3788E-04  0.0000E+00  0.0000E+00  9.2232E-03  2.4996E-03  7.8234E-03
 27  0.0000E+00  6.3432E-02  2.5469E-02  0.0000E+00  0.0000E+00  2.6157E-02  3.7839E-02  0.0000E+00  0.0000E+00
 28  0.0000E+00  1.0670E-01  9.4020E-02  1.3054E-02  1.6661E-03  0.0000E+00  6.4173E-02  0.0000E+00  7.9117E-04
 29  0.0000E+00  3.7334E-01  1.3882E-01  3.1254E-02  9.3486E-02  0.0000E+00  0.0000E+00  2.8066E-01  6.2557E-03
 30  0.0000E+00  6.6672E-01  2.2086E-02  2.0525E-01  2.6060E-02  0.0000E+00  1.5683E-01  0.0000E+00  4.3854E-01
 31  4.8571E+01  8.7118E-01  0.0000E+00  3.6721E-01  8.9366E-01  6.7408E-01  2.5649E-01  3.8216E-01  0.0000E+00
 32  0.0000E+00  1.3902E+00  0.0000E+00  2.4285E-01  0.0000E+00  0.0000E+00  0.0000E+00  9.7022E-01  9.0441E-02
 33  0.0000E+00  2.1321E+00  5.4706E-01  0.0000E+00  2.0967E+00  5.1823E-01  0.0000E+00  0.0000E+00  6.7849E-01
 34  0.0000E+00  3.7666E+00  7.0967E+00  9.4068E-02  0.0000E+00  2.6991E-01  0.0000E+00  0.0000E+00  3.0250E-01
 35  1.5681E+00  4.4893E-03  0.0000E+00  0.0000E+00  2.8631E-04  1.1716E-03  1.6976E-03  0.0000E+00  0.0000E+00
 36  1.2001E+00  3.2571E-03  2.0884E-03  3.0321E-03  2.3861E-03  3.3066E-03  2.9439E-03  2.0705E-03  3.0344E-03
 37  1.2380E-04  1.8703E-03  0.0000E+00  0.0000E+00  1.7649E-03  7.4302E-04  0.0000E+00  1.6077E-03  0.0000E+00
 38  0.0000E+00  6.6899E-03  6.4126E-03  5.7263E-03  4.6980E-03  3.5068E-03  4.9213E-03  9.1866E-03  5.1074E-03
 39  0.0000E+00  8.8568E-03  3.3031E-03  0.0000E+00  1.2529E-03  1.2891E-02  5.1422E-04  0.0000E+00  3.3769E-03
 40  0.0000E+00  1.2321E-02  0.0000E+00  5.5270E-03  5.8683E-03  8.1082E-03  9.0709E-03  1.9715E-02  0.0000E+00
 41  0.0000E+00  2.8707E-02  1.3937E-02  8.2474E-03  5.6846E-03  0.0000E+00  1.6844E-03  1.4321E-02  1.1117E-02
 42  2.7437E-01  4.2247E-02  5.8409E-04  8.9838E-03  0.0000E+00  2.7727E-02  7.7780E-03  1.0613E-02  0.0000E+00
 43  0.0000E+00  4.2955E-02  3.6490E-02  0.0000E+00  9.6211E-03  0.0000E+00  5.1866E-05  5.4284E-03  0.0000E+00
 44  1.1245E+00  8.4331E-02  0.0000E+00  4.8982E-02  1.8359E-02  2.5600E-02  0.0000E+00  2.1347E-02  9.0077E-02
 45  0.0000E+00  2.4503E-01  1.1808E-01  3.2724E-02  2.9187E-03  1.0757E-02  2.4568E-02  4.0504E-02  0.0000E+00
 46  3.1001E+00  3.6622E-01  0.0000E+00  0.0000E+00  1.4986E-01  7.6119E-02  9.6365E-02  0.0000E+00  0.0000E+00
 47  0.0000E+00  6.1050E-01  7.9546E-02  0.0000E+00  0.0000E+00  0.0000E+00  3.1017E-01  3.6194E-01  4.0800E-01
 48  0.0000E+00  2.0250E+00  1.1630E+00  6.2677E-01  3.0227E-01  7.6845E-01  0.0000E+00  3.7078E-01  0.0000E+00
 49  0.0000E+00  3.3478E+00  0.0000E+00  6.8511E-01  3.7637E-01  3.7296E-01  3.5834E-01  7.1456E-01  2.0167E+00
 50  0.0000E+00  4.8698E+00  0.0000E+00  4.0224E+00  9.4456E-01  1.4809E+00  0.0000E+00  3.8531E+00  2.7980E+00
 51  0.0000E+00  3.3852E-03  1.9526E-04  0.0000E+00  1.4566E-03  0.0000E+00  0.0000E+00  5.0325E-04  2.9886E-03
 52  0.0000E+00  1.4450E-03  1.3376E-03  5.2831E-04  0.0000E+00  6.2013E-04  0.0000E+00  3.4926E-04  8.4800E-04
 53  2.2732E-01  2.0724E-03  2.7783E-03  0.0000E+00  0.0000E+00  1.3189E-03  9.9288E-04  1.9366E-04  1.3403E-03
 54  0.0000E+00  8.1662E-03  8.8969E-03  7.5649E-03  9.6439E-03  5.0449E-03  8.2757E-03  7.2597E-03  7.1902E-03
 55  4.8805E-01  7.1726E-03  0.0000E+00  1.4051E-03  4.0276E-03  2.0279E-03  0.0000E+00  2.9964E-04  1.5059E-03
 56  0.0000E+00  1.3740E-02  3.0201E-03  1.5374E-03  6.2484E-03  1.2645E-03  3.2510E-03  1.2930E-02  2.4613E-03
 57  0.0000E+00  2.2694E-02  1.4700E-04  0.0000E+00  1.9619E-02  1.2376E-02  6.2607E-03  3.2797E-03  3.4181E-03
 58  0.0000E+00  3.0865E-02  0.0000E+00  7.0060E-03  4.6686E-03  0.0000E+00  0.0000E+00  6.6836E-03  5.9556E-03
 59  0.0000E+00  6.0184E-02  1.1264E-01  0.0000E+00  1.5893E-02  0.0000E+00  0.0000E+00  3.2731E-03  2.0968E-02
 60  0.0000E+00  1.3576E-01  6.5973E-02  7.7433E-02  0.0000E+00  4.2260E-02  1.0362E-01  0.0000E+00  0.0000E+00
 61  0.0000E+00  3.1412E-01  3.9516E-02  0.0000E+00  3.6153E-01  0.0000E+00  1.6338E-01  2.3221E-01  0.0000E+00
 62  0.0000E+00  7.4984E-01  2.3356E-01  0.0000E+00  1.9316E-01  0.0000E+00  1.1984E-01  3.5330E-01  9.1414E-02
 63  0.0000E+00  9.3912E-01  1.3110E-01  0.0000E+00  0.0000E+00  1.2498E-01  0.0000E+00  3.0074E-01  0.0000E+00
 64  0.0000E+00  2.6683E+00  3.6626E+00  6.4141E-02  9.6462E-01  0.0000E+00  1.9331E-01  0.0000E+00  2.4758E+00
 65  0.0000E+00  6.1310E+00  1.1363E+00  2.0013E+00  3.9002E+00  2.2722E+00  1.8839E+00  1.3112E+00  3.0440E+00
 66  6.5349E-12  6.1751E+01  8.3920E+01  9.0173E+01  8.7209E+01  9.2318E+01  9.2885E+01  8.9356E+01  8.4980E+01

# AV, chi2 & Mass for <> & i_chain = 1 ...  7 solutions
AV       2.0477     -0.3257     -0.1967     -0.4369     -0.2839     -0.2508     -0.2879     -0.2676     -0.3162
chi2 1.5578E-05  1.8699E-05  1.7018E-05  1.7088E-05  1.6984E-05  1.6748E-05  1.7112E-05  1.7027E-05  1.7063E-05
Mass 8.8344E-14  5.9412E-14  1.4316E-13  1.4229E-13  1.4454E-13  1.6179E-13  1.5048E-13  1.4501E-13  1.4545E-13
  60.72                                  [v0_min (km/s) before EX0s...]
  10.05                                  [vd_min (km/s) before EX0s...]


## Synthetic spectrum (Best Model) ##l_obs f_obs f_syn wei
 3478    [Nl_obs]
 3741.00    2.80364   1.05981    0.000
 3742.00    2.43203   1.07085    0.000
 3743.00   -0.26910   1.07169    0.000
 3744.00   -0.92006   1.06406    0.000
 3745.00   -0.37652   1.04880    0.000
 3746.00   -0.33228   1.02444    0.000
 3747.00   -0.54159   0.99393    0.000
 3748.00   -0.92207   0.95471    0.000
 3749.00   -1.37781   0.89753    0.000
 3750.00   -0.77977   0.83806    0.000
 3751.00    0.21611   0.81962    0.017
 3752.00    0.84647   0.85969    0.017
 3753.00    1.35968   0.92298    0.016
 3754.00    0.58131   0.97164    0.016
 3755.00   -0.54318   1.00112    0.000
 3756.00   -0.87946   1.02564    0.000
 3757.00   -1.04273   1.04523    0.000
 3758.00   -1.07349   1.05311    0.000
 3759.00   -1.08110   1.05608    0.000
 3760.00   -0.84843   1.05351    0.000
 3761.00   -0.58384   1.05749    0.000
 3762.00   -0.05131   1.07279    0.000
 3763.00    0.50640   1.07756    0.015
 3764.00    0.48858   1.07376    0.015
 3765.00    0.43756   1.06712    0.015
 3766.00    1.96754   1.04898    0.015
 3767.00    3.51418   1.01647    0.016
 3768.00    2.53056   0.97429    0.015
 3769.00    1.55759   0.92006    0.015
 3770.00    0.84347   0.85248    0.016
 3771.00    0.23511   0.79993    0.016
 3772.00    1.01267   0.80691    0.016
 3773.00    1.82547   0.86759    0.015
 3774.00    2.94766   0.93207    0.015
 3775.00    3.67361   0.98233    0.015
 3776.00    1.83047   1.02484    0.015
 3777.00    0.06584   1.05515    0.015
 3778.00   -1.30144   1.07256    0.000
 3779.00   -2.04982   1.08557    0.000
 3780.00   -0.26498   1.10031    0.000
 3781.00    1.08625   1.11537    0.015
 3782.00    0.96681   1.12394    0.015
 3783.00    0.96015   1.12698    0.015
 3784.00    1.27602   1.12699    0.015
 3785.00    1.45955   1.12270    0.015
 3786.00    1.31974   1.11660    0.015
 3787.00    1.12559   1.11275    0.015
 3788.00    0.81689   1.10923    0.015
 3789.00    0.54780   1.10395    0.015
 3790.00    0.35123   1.09365    0.015
 3791.00    0.33270   1.07371    0.015
 3792.00    0.59917   1.05058    0.015
 3793.00    0.94482   1.03428    0.015
 3794.00    1.40167   1.01204    0.015
 3795.00    1.60263   0.96957    0.015
 3796.00    1.48733   0.90874    0.015
 3797.00    1.39728   0.83351    0.015
 3798.00    1.33477   0.76593    0.015
 3799.00    1.76138   0.75322    0.015
 3800.00    2.65802   0.81111    0.015
 3801.00    2.36982   0.89430    0.015
 3802.00    1.07761   0.96144    0.015
 3803.00    0.46504   1.00792    0.015
 3804.00    0.35961   1.04170    0.015
 3805.00    0.43689   1.06282    0.015
 3806.00    0.63393   1.06589    0.015
 3807.00   -0.20972   1.06349    0.000
 3808.00   -1.65056   1.07967    0.000
 3809.00   -1.18302   1.10585    0.000
 3810.00    0.23836   1.12103    0.015
 3811.00    0.35210   1.12742    0.015
 3812.00   -0.09964   1.12939    0.000
 3813.00   -0.28020   1.12708    0.000
 3814.00   -0.36019   1.12199    0.000
 3815.00   -0.25000   1.11805    0.000
 3816.00   -0.08003   1.11524    0.000
 3817.00   -0.19036   1.11075    0.000
 3818.00   -0.37423   1.09487    0.000
 3819.00   -0.09243   1.04752    0.000
 3820.00    0.28914   0.98704    0.013
 3821.00    0.45035   0.98564    0.014
 3822.00    0.57415   1.04466    0.014
 3823.00    0.94086   1.09146    0.014
 3824.00    1.33874   1.10482    0.014
 3825.00    1.05202   1.10016    0.014
 3826.00    0.70384   1.09172    0.014
 3827.00    0.84686   1.08405    0.014
 3828.00    1.01629   1.07415    0.014
 3829.00    1.15401   1.05941    0.014
 3830.00    1.29164   1.03910    0.014
 3831.00    1.47508   1.01191    0.014
 3832.00    1.63168   0.97207    0.014
 3833.00    1.19180   0.91562    0.014
 3834.00    0.77479   0.84365    0.014
 3835.00    0.64218   0.76402    0.014
 3836.00    0.60286   0.71657    0.014
 3837.00    1.35213   0.74340    0.014
 3838.00    1.84875   0.81762    0.015
 3839.00    0.75593   0.88968    0.015
 3840.00    0.33162   0.95065    0.015
 3841.00    3.20578   0.99817    0.015
 3842.00    4.95722   1.03112    0.016
 3843.00    2.21426   1.05571    0.015
 3844.00    0.28569   1.07439    0.014
 3845.00    1.06462   1.08825    0.015
 3846.00    1.59315   1.09769    0.015
 3847.00    1.41852   1.10483    0.000
 3848.00    0.92301   1.11074    0.000
 3849.00   -0.34324   1.11444    0.000
 3850.00   -0.98606   1.11452    0.000
 3851.00   -0.33595   1.11130    0.000
 3852.00   -0.22117   1.11401    0.000
 3853.00   -1.07194   1.12285    0.000
 3854.00   -0.87076   1.12567    0.000
 3855.00    0.98940   1.12087    0.000
 3856.00    2.32546   1.11286    0.000
 3857.00    2.93596   1.10809    0.000
 3858.00    2.66200   1.11315    0.000
 3859.00    1.31033   1.11795    0.000
 3860.00    0.62003   1.11484    0.000
 3861.00    0.64015   1.11110    0.000
 3862.00    0.94668   1.11417    0.000
 3863.00    1.52458   1.11762    0.000
 3864.00    1.66523   1.11480    0.000
 3865.00    1.44061   1.11065    0.000
 3866.00    1.00852   1.11000    0.000
 3867.00    0.42385   1.10491    0.000
 3868.00    0.23120   1.09323    0.000
 3869.00    0.29178   1.09852    0.000
 3870.00    0.64552   1.11461    0.000
 3871.00    1.16495   1.11034    0.000
 3872.00    1.30284   1.08753    0.000
 3873.00    1.25307   1.07541    0.000
 3874.00    1.21482   1.08703    0.000
 3875.00    1.18148   1.09828    0.000
 3876.00    0.92828   1.09010    0.000
 3877.00    0.59500   1.07707    0.000
 3878.00    0.47177   1.07538    0.000
 3879.00    0.41330   1.07695    0.000
 3880.00    0.91026   1.07551    0.000
 3881.00    1.54981   1.06964    0.013
 3882.00    1.87323   1.05244    0.013
 3883.00    2.13055   1.02824    0.013
 3884.00    1.48864   1.00799    0.013
 3885.00    0.69845   0.98525    0.014
 3886.00    0.67548   0.94352    0.014
 3887.00    0.74751   0.88113    0.014
 3888.00    0.24853   0.80093    0.014
 3889.00   -0.29932   0.71753    0.000
 3890.00    1.13275   0.68841    0.014
 3891.00    2.66351   0.74706    0.014
 3892.00    1.73445   0.84087    0.014
 3893.00    0.77581   0.91622    0.013
 3894.00    0.50748   0.96806    0.013
 3895.00    0.23170   1.00424    0.013
 3896.00   -0.19681   1.02974    0.000
 3897.00   -0.56929   1.05004    0.000
 3898.00   -0.27911   1.06486    0.000
 3899.00   -0.01955   1.06920    0.000
 3900.00   -0.00944   1.07191    0.000
 3901.00    0.00236   1.08407    0.012
 3902.00    0.02449   1.09830    0.011
 3903.00   -0.02576   1.10471    0.000
 3904.00   -0.42436   1.10669    0.000
 3905.00   -0.61461   1.10864    0.000
 3906.00    0.01105   1.10813    0.011
 3907.00    0.06068   1.10822    0.011
 3908.00   -1.76723   1.11345    0.000
 3909.00   -3.58180   1.12091    0.000
 3910.00   -5.35960   1.12509    0.000
 3911.00   -5.39092   1.12326    0.000
 3912.00   -1.29799   1.11575    0.000
 3913.00    1.11404   1.11153    0.012
 3914.00    0.09555   1.11657    0.013
 3915.00   -0.46688   1.12279    0.000
 3916.00   -0.21931   1.12465    0.000
 3917.00    0.13538   1.12267    0.013
 3918.00    0.65650   1.11502    0.013
 3919.00    1.04697   1.09565    0.014
 3920.00    1.25916   1.07210    0.014
 3921.00    1.12937   1.06299    0.014
 3922.00    0.58877   1.07307    0.014
 3923.00   -0.01921   1.08710    0.000
 3924.00   -0.69854   1.08687    0.000
 3925.00   -0.46308   1.07944    0.000
 3926.00    0.62699   1.07143    0.013
 3927.00    0.76756   1.06066    0.013
 3928.00    0.12615   1.06192    0.013
 3929.00   -0.46558   1.07267    0.000
 3930.00   -1.02130   1.07904    0.000
 3931.00   -0.78097   1.08094    0.000
 3932.00   -0.03401   1.07514    0.000
 3933.00    0.68739   1.06108    0.013
 3934.00    1.39457   1.04455    0.013
 3935.00    1.10426   1.04117    0.013
 3936.00    0.33108   1.05366    0.013
 3937.00    0.74658   1.07039    0.013
 3938.00    1.65904   1.08450    0.013
 3939.00    1.60428   1.09359    0.013
 3940.00    1.20353   1.09970    0.013
 3941.00    0.79436   1.10477    0.013
 3942.00    0.38264   1.10649    0.013
 3943.00    0.43967   1.10538    0.013
 3944.00    0.61443   1.10095    0.013
 3945.00    0.65802   1.09326    0.013
 3946.00    0.67485   1.09261    0.013
 3947.00    0.88986   1.10090    0.013
 3948.00    1.13660   1.10397    0.013
 3949.00    1.40118   1.10241    0.013
 3950.00    1.66789   1.10473    0.013
 3951.00    1.74848   1.10811    0.013
 3952.00    1.81390   1.10693    0.013
 3953.00    2.39586   1.10021    0.013
 3954.00    3.00157   1.09070    0.013
 3955.00    2.29293   1.08283    0.013
 3956.00    1.56266   1.08164    0.013
 3957.00    0.57694   1.08293    0.013
 3958.00   -0.36711   1.08299    0.000
 3959.00   -0.52171   1.08262    0.000
 3960.00   -0.60398   1.07729    0.000
 3961.00    0.12904   1.05928    0.000
 3962.00    0.70244   1.03089    0.000
 3963.00    0.02115   1.01000    0.000
 3964.00   -0.39684   0.99046    0.000
 3965.00    0.74754   0.95320    0.000
 3966.00    1.55375   0.91830    0.000
 3967.00    0.77212   0.89024    0.000
 3968.00    0.17599   0.83792    0.000
 3969.00    0.29073   0.75717    0.000
 3970.00    0.22482   0.67599    0.000
 3971.00   -0.41850   0.64933    0.000
 3972.00   -0.69814   0.70619    0.000
 3973.00    0.00717   0.79550    0.000
 3974.00    0.49703   0.86809    0.000
 3975.00    0.48660   0.92687    0.000
 3976.00    0.46466   0.97400    0.000
 3977.00    0.41960   1.00472    0.000
 3978.00    0.55613   1.02630    0.000
 3979.00    1.01027   1.04411    0.000
 3980.00    1.13813   1.05837    0.000
 3981.00    0.76645   1.06914    0.013
 3982.00    0.47136   1.07319    0.013
 3983.00    0.27925   1.06979    0.013
 3984.00    0.37288   1.07085    0.013
 3985.00    0.80489   1.08198    0.013
 3986.00    0.78917   1.09275    0.013
 3987.00    0.30592   1.09815    0.012
 3988.00   -0.08514   1.10267    0.000
 3989.00   -0.39130   1.10758    0.000
 3990.00   -0.14901   1.10876    0.000
 3991.00    0.53857   1.10842    0.012
 3992.00    1.01662   1.11090    0.012
 3993.00    1.34499   1.11403    0.011
 3994.00    1.46464   1.11173    0.012
 3995.00    1.45344   1.10107    0.012
 3996.00    1.59875   1.09452    0.012
 3997.00    1.82983   1.09990    0.012
 3998.00    1.71492   1.10404    0.012
 3999.00    1.43519   1.10388    0.012
 4000.00    0.81162   1.10846    0.012
 4001.00    0.04673   1.11435    0.012
 4002.00   -0.09458   1.11514    0.000
 4003.00   -0.01688   1.11242    0.000
 4004.00    0.32612   1.10791    0.012
 4005.00    0.74773   1.10060    0.012
 4006.00    1.50536   1.09323    0.012
 4007.00    2.34554   1.09176    0.012
 4008.00    1.89352   1.08770    0.012
 4009.00    1.18458   1.06900    0.012
 4010.00    0.70456   1.05296    0.012
 4011.00    0.26011   1.06556    0.012
 4012.00    1.07977   1.09162    0.012
 4013.00    2.04478   1.10617    0.012
 4014.00    1.82766   1.11134    0.012
 4015.00    1.51913   1.11379    0.013
 4016.00    1.49003   1.11543    0.013
 4017.00    1.47270   1.11525    0.013
 4018.00    1.18568   1.11290    0.013
 4019.00    0.90477   1.11306    0.012
 4020.00    1.00000   1.11514    0.012
 4021.00    1.09238   1.11270    0.012
 4022.00    1.13466   1.10456    0.012
 4023.00    1.13678   1.09205    0.012
 4024.00    0.70695   1.06947    0.012
 4025.00    0.34533   1.02451    0.012
 4026.00    0.50151   0.95928    0.012
 4027.00    0.51451   0.92713    0.012
 4028.00   -0.29838   0.97505    0.000
 4029.00   -0.86170   1.04720    0.000
 4030.00   -0.28129   1.08310    0.000
 4031.00    0.30321   1.09184    0.012
 4032.00    0.90299   1.09307    0.012
 4033.00    1.29566   1.09451    0.011
 4034.00    1.03903   1.09583    0.011
 4035.00    0.95558   1.09673    0.011
 4036.00    1.33284   1.10007    0.011
 4037.00    1.84983   1.11076    0.012
 4038.00    2.68590   1.12092    0.012
 4039.00    2.95697   1.12264    0.012
 4040.00    2.11106   1.11898    0.011
 4041.00    1.23879   1.11177    0.011
 4042.00    0.32111   1.10611    0.011
 4043.00   -0.19763   1.10678    0.000
 4044.00   -0.11458   1.10527    0.000
 4045.00    0.11249   1.09734    0.011
 4046.00    0.53047   1.09214    0.011
 4047.00    1.16281   1.09564    0.012
 4048.00    2.04542   1.10545    0.012
 4049.00    2.05137   1.11221    0.012
 4050.00    1.15476   1.11488    0.012
 4051.00    0.56814   1.11731    0.012
 4052.00    0.26304   1.11737    0.012
 4053.00    0.28629   1.11279    0.012
 4054.00    0.57233   1.10558    0.012
 4055.00    0.48258   1.09934    0.012
 4056.00    0.12819   1.09727    0.012
 4057.00    0.44162   1.10007    0.012
 4058.00    1.16756   1.10447    0.012
 4059.00    1.51578   1.10546    0.012
 4060.00    1.66018   1.10165    0.012
 4061.00    1.07851   1.09700    0.012
 4062.00    0.15655   1.09581    0.012
 4063.00    0.49533   1.09435    0.012
 4064.00    1.34348   1.09044    0.012
 4065.00    1.34933   1.09292    0.012
 4066.00    1.06476   1.10067    0.012
 4067.00    0.84685   1.09957    0.012
 4068.00    0.64831   1.08542    0.012
 4069.00    0.79575   1.06596    0.012
 4070.00    1.02629   1.04833    0.012
 4071.00    0.75674   1.04335    0.012
 4072.00    0.39029   1.05097    0.012
 4073.00    0.02141   1.06215    0.012
 4074.00   -0.34784   1.07725    0.000
 4075.00   -0.61773   1.07868    0.000
 4076.00   -0.87663   1.05913    0.000
 4077.00    0.13077   1.05026    0.012
 4078.00    1.23090   1.06149    0.012
 4079.00    0.95644   1.07254    0.012
 4080.00    0.62935   1.07910    0.011
 4081.00    0.56651   1.08727    0.012
 4082.00    0.51827   1.09162    0.012
 4083.00    0.96513   1.08979    0.012
 4084.00    1.35560   1.08190    0.012
 4085.00    0.81676   1.07118    0.012
 4086.00    0.32854   1.06752    0.011
 4087.00    0.36117   1.07041    0.011
 4088.00    0.38652   1.06457    0.011
 4089.00    0.35843   1.04298    0.011
 4090.00    0.37410   1.03217    0.011
 4091.00    0.63525   1.04878    0.011
 4092.00    0.88477   1.06055    0.000
 4093.00    1.08228   1.05036    0.000
 4094.00    1.10371   1.03750    0.000
 4095.00    0.47850   1.02423    0.000
 4096.00    0.02982   0.99764    0.000
 4097.00    0.12407   0.95733    0.000
 4098.00    0.37499   0.91699    0.000
 4099.00    1.03538   0.88373    0.000
 4100.00    1.36635   0.83585    0.000
 4101.00    0.95752   0.75415    0.000
 4102.00    0.48444   0.67256    0.000
 4103.00   -0.11366   0.66268    0.000
 4104.00   -0.24321   0.73558    0.000
 4105.00    0.42225   0.82654    0.000
 4106.00    0.75683   0.89708    0.000
 4107.00    0.59956   0.94860    0.000
 4108.00    0.45350   0.98309    0.000
 4109.00    0.32209   1.00506    0.000
 4110.00    0.40655   1.01918    0.000
 4111.00    0.73947   1.02811    0.000
 4112.00    0.69550   1.03681    0.000
 4113.00    0.26893   1.04884    0.010
 4114.00    0.18846   1.06008    0.010
 4115.00    0.41788   1.06255    0.010
 4116.00    0.78019   1.05343    0.010
 4117.00    1.24735   1.04923    0.010
 4118.00    1.39342   1.06106    0.010
 4119.00    1.31667   1.06096    0.010
 4120.00    1.05512   1.03896    0.010
 4121.00    0.68112   1.01655    0.011
 4122.00    0.50988   1.01825    0.016
 4123.00    0.44635   1.04804    0.067
 4124.00    0.63747   1.07781   -1.000
 4125.00    0.94600   1.09116   -1.000
 4126.00    1.11458   1.09612   -1.000
 4127.00    1.22758   1.09320   -1.000
 4128.00    1.30314   1.08356   -1.000
 4129.00    1.36602   1.07627   -1.000
 4130.00    0.92624   1.07773   -1.000
 4131.00    0.34344   1.07671   -1.000
 4132.00    0.40545   1.07101    0.026
 4133.00    0.61886   1.06786    0.012
 4134.00    0.62444   1.07211    0.011
 4135.00    0.59080   1.08314    0.011
 4136.00    0.54202   1.09393    0.011
 4137.00    0.49103   1.09796    0.011
 4138.00    0.36259   1.09585    0.011
 4139.00    0.22593   1.09501    0.011
 4140.00    0.09194   1.09591    0.011
 4141.00   -0.04186   1.09368    0.000
 4142.00   -0.08599   1.08286    0.000
 4143.00   -0.12702   1.05139    0.000
 4144.00    0.47081   1.00922    0.011
 4145.00    1.04584   1.00366    0.010
 4146.00    0.82593   1.04261    0.010
 4147.00    0.60942   1.07672    0.011
 4148.00    0.44563   1.08996    0.011
 4149.00    0.32580   1.09315    0.011
 4150.00    0.63942   1.08842    0.010
 4151.00    0.91178   1.08440    0.010
 4152.00    0.89131   1.08619    0.010
 4153.00    0.79376   1.08170    0.010
 4154.00    0.27546   1.07412    0.010
 4155.00   -0.10585   1.07746    0.000
 4156.00    0.11165   1.08334    0.010
 4157.00    0.38594   1.08265    0.010
 4158.00    0.86455   1.08577    0.010
 4159.00    1.29816   1.09474    0.010
 4160.00    1.59598   1.10022    0.010
 4161.00    1.70695   1.10023    0.010
 4162.00    1.33806   1.09690    0.010
 4163.00    1.09861   1.09177    0.010
 4164.00    1.14510   1.08912    0.010
 4165.00    1.05371   1.08989    0.010
 4166.00    0.69821   1.09179    0.010
 4167.00    0.46188   1.09266    0.010
 4168.00    0.42473   1.08773    0.010
 4169.00    0.48640   1.07875    0.010
 4170.00    0.69283   1.07657    0.010
 4171.00    0.62660   1.08337    0.010
 4172.00    0.20922   1.08411    0.010
 4173.00    0.17706   1.07691    0.010
 4174.00    0.58205   1.07476    0.010
 4175.00    0.81379   1.07842    0.010
 4176.00    0.87212   1.08210    0.010
 4177.00    0.81751   1.08313    0.010
 4178.00    0.66322   1.08301    0.010
 4179.00    0.58724   1.08368    0.010
 4180.00    0.57218   1.08716    0.010
 4181.00    0.46654   1.09238    0.010
 4182.00    0.29895   1.09356    0.010
 4183.00    0.44455   1.09133    0.010
 4184.00    0.77788   1.09008    0.010
 4185.00    0.65875   1.08711    0.010
 4186.00    0.30297   1.08044    0.010
 4187.00    0.38365   1.07405    0.010
 4188.00    0.66230   1.07268    0.010
 4189.00    1.07128   1.07574    0.010
 4190.00    1.53111   1.07480    0.010
 4191.00    1.21307   1.07521    0.010
 4192.00    0.63666   1.08449    0.010
 4193.00    0.29564   1.09284    0.010
 4194.00    0.02022   1.09711    0.010
 4195.00    0.47098   1.09456    0.010
 4196.00    1.08834   1.08524    0.010
 4197.00    0.77563   1.07614    0.010
 4198.00    0.29199   1.06758    0.010
 4199.00    0.35721   1.05265    0.010
 4200.00    0.50003   1.03619    0.010
 4201.00    0.54681   1.03424    0.010
 4202.00    0.58380   1.04753    0.010
 4203.00    0.77427   1.06340    0.010
 4204.00    0.97473   1.07540    0.010
 4205.00    1.15024   1.08229    0.010
 4206.00    1.32434   1.08575    0.010
 4207.00    1.07871   1.09006    0.010
 4208.00    0.83428   1.09437    0.010
 4209.00    0.62516   1.09690    0.010
 4210.00    0.45886   1.09595    0.010
 4211.00    0.91575   1.09331    0.010
 4212.00    1.33226   1.09065    0.010
 4213.00    1.36679   1.08793    0.010
 4214.00    1.31657   1.08931    0.010
 4215.00    0.68376   1.09024    0.010
 4216.00    0.17139   1.08478    0.010
 4217.00    0.29911   1.08277    0.010
 4218.00    0.34193   1.08975    0.010
 4219.00    0.02218   1.09631    0.010
 4220.00   -0.16265   1.09854    0.000
 4221.00    0.12787   1.09903    0.010
 4222.00    0.43267   1.09683    0.010
 4223.00    0.77981   1.09100    0.010
 4224.00    1.04456   1.08671    0.010
 4225.00    1.10142   1.08187    0.010
 4226.00    0.97172   1.07151    0.010
 4227.00    0.43664   1.06029    0.009
 4228.00    0.10878   1.05811    0.009
 4229.00    0.17168   1.07184    0.009
 4230.00    0.23646   1.08840    0.009
 4231.00    0.30431   1.09536    0.009
 4232.00    0.35524   1.09575    0.009
 4233.00    0.38171   1.09107    0.009
 4234.00    0.55950   1.08512    0.009
 4235.00    0.92940   1.08489    0.009
 4236.00    0.93935   1.08452    0.009
 4237.00    0.54661   1.07753    0.009
 4238.00    0.27817   1.07462    0.009
 4239.00    0.13240   1.07948    0.009
 4240.00    0.31490   1.08375    0.009
 4241.00    0.78307   1.08476    0.009
 4242.00    0.93902   1.08309    0.009
 4243.00    0.85561   1.08226    0.009
 4244.00    0.68373   1.08805    0.009
 4245.00    0.45222   1.09529    0.009
 4246.00    0.46137   1.09518    0.009
 4247.00    0.61261   1.08751    0.009
 4248.00    0.80328   1.08187    0.010
 4249.00    1.01424   1.08174    0.010
 4250.00    1.10433   1.08180    0.010
 4251.00    1.14048   1.07956    0.010
 4252.00    1.54726   1.08135    0.010
 4253.00    2.09614   1.08204    0.010
 4254.00    2.04805   1.07215    0.010
 4255.00    1.80541   1.06703    0.010
 4256.00    1.09694   1.07659    0.009
 4257.00    0.26130   1.08683    0.009
 4258.00    0.60780   1.08954    0.009
 4259.00    1.21920   1.08596    0.009
 4260.00    1.20451   1.08042    0.009
 4261.00    1.07783   1.07617    0.010
 4262.00    1.02689   1.07731    0.010
 4263.00    0.98630   1.08540    0.010
 4264.00    0.89111   1.09307    0.010
 4265.00    0.79059   1.09489    0.010
 4266.00    0.70583   1.08675    0.010
 4267.00    0.62203   1.05772    0.009
 4268.00    0.30585   1.03199    0.009
 4269.00   -0.01272   1.04609    0.000
 4270.00    0.42771   1.07338    0.009
 4271.00    0.86458   1.07778    0.009
 4272.00    1.20750   1.07026    0.009
 4273.00    1.50980   1.06745    0.010
 4274.00    1.25379   1.06974    0.010
 4275.00    0.96347   1.06646    0.010
 4276.00    0.36151   1.05804    0.010
 4277.00   -0.07518   1.05573    0.000
 4278.00    0.58903   1.06460    0.010
 4279.00    1.10389   1.07838    0.010
 4280.00    0.84557   1.08584    0.010
 4281.00    0.70016   1.08318    0.010
 4282.00    1.02614   1.07768   -2.000
 4283.00    1.38512   1.07128   -2.000
 4284.00    1.85808   1.06665   -2.000
 4285.00    1.97105   1.06448   -2.000
 4286.00    1.03766   1.06386   -2.000
 4287.00    0.42169   1.06918   -2.000
 4288.00    0.59303   1.07529   -2.000
 4289.00    0.77871   1.07030   -2.000
 4290.00    0.99503   1.05982   -2.000
 4291.00    0.96885   1.05604   -2.000
 4292.00    0.49239   1.06354   -2.000
 4293.00    0.36250   1.07586   -2.000
 4294.00    0.79470   1.08009   -2.000
 4295.00    1.06528   1.07144   -2.000
 4296.00    1.10593   1.06624   -2.000
 4297.00    1.05701   1.06974   -2.000
 4298.00    0.89596   1.07118    0.010
 4299.00    0.78112   1.06676    0.010
 4300.00    0.71725   1.05794    0.010
 4301.00    0.68766   1.05319    0.010
 4302.00    0.69142   1.05512    0.009
 4303.00    0.60768   1.05149    0.009
 4304.00    0.44885   1.04175    0.009
 4305.00    0.42648   1.04193    0.009
 4306.00    0.50722   1.05132    0.010
 4307.00    0.65806   1.05596    0.010
 4308.00    0.85543   1.05053    0.010
 4309.00    0.95480   1.04353    0.010
 4310.00    0.99716   1.04398    0.009
 4311.00    1.08904   1.05124    0.009
 4312.00    1.20602   1.05839    0.009
 4313.00    1.21676   1.05909    0.009
 4314.00    1.18088   1.05495    0.009
 4315.00    1.00016   1.05469    0.009
 4316.00    0.76486   1.06172    0.009
 4317.00    0.98449   1.06867    0.009
 4318.00    1.34956   1.07002    0.009
 4319.00    0.88244   1.06998    0.009
 4320.00    0.19289   1.06764    0.009
 4321.00    0.49706   1.06694    0.009
 4322.00    1.01869   1.07213    0.009
 4323.00    1.04627   1.07430    0.009
 4324.00    0.98792   1.06650    0.009
 4325.00    0.91571   1.05085    0.009
 4326.00    0.84167   1.03320    0.009
 4327.00    1.29024   1.02852    0.009
 4328.00    1.78765   1.03995    0.009
 4329.00    2.05268   1.05032    0.009
 4330.00    2.30442   1.05134    0.000
 4331.00    1.81004   1.04448    0.000
 4332.00    1.30084   1.03275    0.000
 4333.00    1.08381   1.01935    0.000
 4334.00    0.89594   1.00668    0.000
 4335.00    1.40783   0.99433    0.000
 4336.00    1.84778   0.97453    0.000
 4337.00    1.35135   0.93599    0.000
 4338.00    0.83414   0.87635    0.000
 4339.00    0.13546   0.80316    0.000
 4340.00   -0.39800   0.71899    0.000
 4341.00    0.13577   0.65356    0.000
 4342.00    0.63355   0.67184    0.000
 4343.00    0.94973   0.76341    0.000
 4344.00    1.11846   0.84958    0.000
 4345.00    0.68533   0.90141    0.000
 4346.00    0.46863   0.93726    0.000
 4347.00    0.98414   0.96561    0.000
 4348.00    1.32850   0.98596    0.000
 4349.00    1.18448   1.00129    0.000
 4350.00    0.95492   1.01203    0.000
 4351.00    0.51683   1.01534    0.009
 4352.00    0.26765   1.01203    0.008
 4353.00    0.41580   1.01662    0.008
 4354.00    0.64793   1.03505    0.008
 4355.00    1.03361   1.05215    0.008
 4356.00    1.27605   1.06281    0.008
 4357.00    1.28963   1.07081    0.008
 4358.00    1.19656   1.07518    0.011
 4359.00    0.95397   1.07389    0.030
 4360.00    0.90401   1.07117   -1.000
 4361.00    1.09172   1.07272   -1.000
 4362.00    1.29768   1.07635   -1.000
 4363.00    1.52351   1.08115   -1.000
 4364.00    1.45219   1.08549   -1.000
 4365.00    1.09584   1.08705   -1.000
 4366.00    0.84711   1.08596    0.033
 4367.00    0.68941   1.07610    0.012
 4368.00    0.58441   1.06614    0.009
 4369.00    0.51867   1.06807    0.009
 4370.00    0.45175   1.07448    0.009
 4371.00    0.38407   1.07764    0.009
 4372.00    0.48399   1.07566    0.009
 4373.00    0.67989   1.07145    0.009
 4374.00    0.75171   1.06945    0.009
 4375.00    0.76164   1.06659    0.009
 4376.00    0.81634   1.06603    0.009
 4377.00    0.89036   1.07337    0.009
 4378.00    0.95089   1.08343    0.009
 4379.00    1.00642   1.08667    0.009
 4380.00    0.76506   1.08443    0.009
 4381.00    0.43059   1.08575    0.009
 4382.00    0.53599   1.08675    0.009
 4383.00    0.75647   1.07515    0.009
 4384.00    1.10977   1.05539    0.009
 4385.00    1.49145   1.04466    0.009
 4386.00    1.22075   1.04755    0.009
 4387.00    0.83974   1.04288    0.009
 4388.00    0.64223   1.01155    0.009
 4389.00    0.46816   0.99340    0.009
 4390.00    0.79057   1.02175    0.009
 4391.00    1.15728   1.05735    0.009
 4392.00    1.07076   1.07491    0.009
 4393.00    0.96009   1.08612    0.009
 4394.00    1.11532   1.08902    0.009
 4395.00    1.27699   1.08130    0.009
 4396.00    1.53952   1.07124    0.009
 4397.00    1.77256   1.07500    0.009
 4398.00    1.35742   1.08980    0.009
 4399.00    0.99921   1.09622    0.009
 4400.00    1.34436   1.09030    0.009
 4401.00    1.64522   1.08211    0.009
 4402.00    1.57351   1.08247    0.009
 4403.00    1.52870   1.09062    0.009
 4404.00    1.65245   1.08899    0.009
 4405.00    1.65774   1.07657    0.009
 4406.00    1.08030   1.07074    0.009
 4407.00    0.72513   1.07740    0.009
 4408.00    1.25723   1.08301    0.009
 4409.00    1.66985   1.08272    0.009
 4410.00    1.68620   1.08492    0.009
 4411.00    1.63075   1.08881    0.009
 4412.00    1.37414   1.08923    0.009
 4413.00    1.16122   1.09324    0.009
 4414.00    1.05299   1.09176    0.009
 4415.00    0.95747   1.07039    0.009
 4416.00    0.88824   1.05047    0.009
 4417.00    0.89076   1.05010    0.009
 4418.00    1.02243   1.06017    0.009
 4419.00    1.01775   1.07464    0.009
 4420.00    0.79843   1.08926    0.009
 4421.00    0.70818   1.09545    0.009
 4422.00    0.79628   1.09629    0.009
 4423.00    0.98604   1.09203    0.009
 4424.00    1.29943   1.09131    0.009
 4425.00    1.48977   1.09455    0.009
 4426.00    1.54819   1.09463    0.009
 4427.00    1.53047   1.09063    0.009
 4428.00    1.44074   1.08786    0.009
 4429.00    1.36054   1.09019    0.009
 4430.00    1.28829   1.09210    0.009
 4431.00    1.49756   1.08649    0.009
 4432.00    1.91354   1.08263    0.009
 4433.00    1.98861   1.08419    0.009
 4434.00    1.84389   1.08252    0.009
 4435.00    1.48200   1.07828    0.009
 4436.00    0.99761   1.07496    0.009
 4437.00    0.97914   1.07272    0.009
 4438.00    1.18941   1.07247    0.009
 4439.00    1.27194   1.08263    0.009
 4440.00    1.30028   1.09575    0.009
 4441.00    1.14839   1.09577    0.009
 4442.00    0.93098   1.08436    0.009
 4443.00    0.76675   1.07362    0.009
 4444.00    0.61887   1.07187    0.009
 4445.00    1.04858   1.08117    0.009
 4446.00    1.62617   1.09259    0.009
 4447.00    1.43268   1.09110    0.009
 4448.00    1.07847   1.08248    0.009
 4449.00    1.27407   1.08299    0.009
 4450.00    1.56000   1.09078    0.009
 4451.00    1.36349   1.09355    0.009
 4452.00    1.10750   1.09100    0.009
 4453.00    1.10634   1.08814    0.009
 4454.00    1.12686   1.08731    0.009
 4455.00    1.25384   1.08441    0.009
 4456.00    1.38607   1.07953    0.009
 4457.00    1.46608   1.08139    0.009
 4458.00    1.54418   1.08614    0.008
 4459.00    1.55566   1.08719    0.009
 4460.00    1.56045   1.08539    0.009
 4461.00    1.42995   1.08412    0.000
 4462.00    1.32375   1.08078    0.000
 4463.00    1.50311   1.07948    0.000
 4464.00    1.65676   1.08533    0.000
 4465.00    1.60182   1.08934    0.000
 4466.00    1.59781   1.08633    0.000
 4467.00    1.90369   1.08055    0.000
 4468.00    1.98171   1.07425    0.000
 4469.00    0.96662   1.06386    0.000
 4470.00    0.23572   1.04249    0.000
 4471.00    0.61473   0.99438    0.000
 4472.00    0.94469   0.93981    0.000
 4473.00    1.11512   0.95286    0.000
 4474.00    1.22642   1.02727    0.000
 4475.00    1.17505   1.07934    0.000
 4476.00    1.17292   1.09293    0.000
 4477.00    1.28682   1.09801    0.000
 4478.00    1.22243   1.10330    0.000
 4479.00    0.79493   1.10291    0.000
 4480.00    0.63116   1.08765    0.000
 4481.00    0.93491   1.05834    0.000
 4482.00    1.08673   1.04053    0.008
 4483.00    1.00291   1.05635    0.008
 4484.00    1.04730   1.08619    0.008
 4485.00    1.26630   1.10220    0.008
 4486.00    1.35757   1.10780    0.008
 4487.00    1.29566   1.10819    0.008
 4488.00    1.32349   1.10370    0.008
 4489.00    1.44619   1.09389    0.008
 4490.00    1.63172   1.08579    0.008
 4491.00    1.87583   1.08722    0.008
 4492.00    2.09752   1.09542    0.008
 4493.00    2.30079   1.10216    0.008
 4494.00    2.03427   1.10231    0.008
 4495.00    1.42781   1.09650    0.008
 4496.00    1.14010   1.09278    0.008
 4497.00    1.05487   1.09346    0.008
 4498.00    1.09967   1.09788    0.008
 4499.00    1.21671   1.10321    0.008
 4500.00    1.28954   1.10535    0.008
 4501.00    1.34101   1.10159    0.008
 4502.00    1.35248   1.09641    0.008
 4503.00    1.34727   1.09976    0.008
 4504.00    1.17266   1.11038    0.008
 4505.00    0.93760   1.11675    0.008
 4506.00    1.11022   1.11605    0.008
 4507.00    1.40576   1.11228    0.008
 4508.00    1.59972   1.10753    0.008
 4509.00    1.76823   1.10530    0.008
 4510.00    1.71401   1.10613    0.008
 4511.00    1.61451   1.10582    0.008
 4512.00    1.51912   1.10149    0.008
 4513.00    1.42439   1.09600    0.008
 4514.00    1.24971   1.09218    0.008
 4515.00    1.06552   1.08707    0.008
 4516.00    1.25885   1.08539    0.008
 4517.00    1.48273   1.09208    0.008
 4518.00    1.34649   1.09651    0.008
 4519.00    1.19388   1.09672    0.008
 4520.00    0.96074   1.10032    0.008
 4521.00    0.72916   1.10530    0.008
 4522.00    0.62725   1.10677    0.008
 4523.00    0.53703   1.10031    0.008
 4524.00    0.66642   1.09221    0.008
 4525.00    0.81005   1.09083    0.008
 4526.00    1.11338   1.09131    0.008
 4527.00    1.35797   1.08994    0.008
 4528.00    1.14293   1.08551    0.008
 4529.00    0.96908   1.07491    0.008
 4530.00    1.03875   1.06639    0.008
 4531.00    1.01640   1.07071    0.008
 4532.00    0.56331   1.08263    0.008
 4533.00    0.27665   1.09127    0.008
 4534.00    0.62608   1.08796    0.008
 4535.00    0.98122   1.07816    0.008
 4536.00    1.35455   1.07582    0.008
 4537.00    1.57407   1.08515    0.008
 4538.00    1.37795   1.09732    0.008
 4539.00    1.30182   1.09888    0.008
 4540.00    1.50370   1.08604    0.008
 4541.00    1.64748   1.06216    0.008
 4542.00    1.67479   1.04105    0.008
 4543.00    1.49302   1.04497    0.008
 4544.00    0.94626   1.06712    0.008
 4545.00    0.72515   1.08160    0.008
 4546.00    1.00169   1.08655    0.008
 4547.00    1.21899   1.09250    0.008
 4548.00    1.35678   1.09653    0.008
 4549.00    1.38244   1.09269    0.008
 4550.00    1.27556   1.08441    0.000
 4551.00    1.31078   1.08467    0.000
 4552.00    1.49412   1.08629    0.000
 4553.00    1.54225   1.07379    0.000
 4554.00    1.46605   1.06813    0.000
 4555.00    1.38829   1.07789    0.000
 4556.00    1.30926   1.08593    0.000
 4557.00    1.14074   1.09249    0.000
 4558.00    0.90840   1.10214    0.000
 4559.00    0.97968   1.10683    0.000
 4560.00    1.24097   1.10762    0.000
 4561.00    1.31335   1.10905    0.000
 4562.00    1.28242   1.11055    0.000
 4563.00    1.38098   1.10910    0.000
 4564.00    1.54110   1.10192    0.000
 4565.00    1.51105   1.09537    0.000
 4566.00    1.40300   1.09530    0.000
 4567.00    1.27599   1.09645    0.000
 4568.00    1.14234   1.09207    0.000
 4569.00    1.49825   1.08928    0.000
 4570.00    1.99887   1.09645    0.000
 4571.00    1.94320   1.10195    0.000
 4572.00    1.75127   1.09754    0.000
 4573.00    1.19673   1.09642    0.000
 4574.00    0.57033   1.10204    0.000
 4575.00    0.39123   1.10015    0.000
 4576.00    0.28138   1.09663    0.000
 4577.00    0.49120   1.10245    0.000
 4578.00    0.73760   1.10804    0.000
 4579.00    1.05806   1.10628    0.000
 4580.00    1.38421   1.10001    0.000
 4581.00    1.29116   1.09501    0.000
 4582.00    1.18067   1.09480    0.000
 4583.00    1.12003   1.09697    0.000
 4584.00    1.06271   1.09622    0.000
 4585.00    1.12918   1.09473    0.000
 4586.00    1.18307   1.09642    0.000
 4587.00    1.01724   1.09833    0.000
 4588.00    0.87848   1.10070    0.000
 4589.00    1.02927   1.10379    0.000
 4590.00    1.18315   1.10380    0.000
 4591.00    1.36031   1.09361    0.000
 4592.00    1.49146   1.08366    0.000
 4593.00    1.35815   1.08671    0.000
 4594.00    1.25295   1.09645    0.000
 4595.00    1.27623   1.09857    0.000
 4596.00    1.30449   1.08989    0.000
 4597.00    1.35140   1.08297    0.000
 4598.00    1.38227   1.08952    0.000
 4599.00    1.36298   1.10088    0.000
 4600.00    1.34080   1.10397    0.000
 4601.00    1.31092   1.09806    0.000
 4602.00    1.28639   1.08737    0.000
 4603.00    1.27402   1.08594    0.000
 4604.00    1.17747   1.09369    0.000
 4605.00    0.91482   1.10058    0.000
 4606.00    0.76211   1.10170    0.000
 4607.00    0.79841   1.09950    0.000
 4608.00    0.98249   1.09919    0.000
 4609.00    1.38909   1.10252    0.000
 4610.00    1.54262   1.10314    0.000
 4611.00    1.36131   1.10082    0.000
 4612.00    1.23158   1.10278    0.000
 4613.00    1.16197   1.10466    0.000
 4614.00    1.26891   1.10174    0.000
 4615.00    1.55729   1.10231    0.000
 4616.00    1.59823   1.10764    0.000
 4617.00    1.41487   1.10891    0.000
 4618.00    1.46653   1.10597    0.000
 4619.00    1.70595   1.09575    0.000
 4620.00    1.72328   1.08569    0.000
 4621.00    1.58450   1.08971    0.000
 4622.00    1.45386   1.10025    0.000
 4623.00    1.32823   1.10623    0.000
 4624.00    1.25677   1.11086    0.000
 4625.00    1.21446   1.11281    0.000
 4626.00    1.07197   1.11042    0.000
 4627.00    0.88261   1.10850    0.000
 4628.00    0.69110   1.10936    0.000
 4629.00    0.49872   1.10758    0.000
 4630.00    0.62198   1.09787    0.000
 4631.00    0.85383   1.08595    0.000
 4632.00    1.24021   1.08380    0.000
 4633.00    1.67134   1.09213    0.000
 4634.00    1.44668   1.09670    0.000
 4635.00    1.06496   1.09643    0.000
 4636.00    1.02698   1.09935    0.000
 4637.00    1.05540   1.10339    0.000
 4638.00    1.16836   1.09865    0.000
 4639.00    1.29401   1.08670    0.000
 4640.00    0.90359   1.08006    0.000
 4641.00    0.45636   1.07966    0.000
 4642.00    0.83832   1.07685    0.000
 4643.00    1.28058   1.07773    0.000
 4644.00    1.57686   1.08862    0.000
 4645.00    1.86761   1.09954    0.000
 4646.00    1.58202   1.09805    0.000
 4647.00    1.30571   1.07570    0.000
 4648.00    1.48209   1.04934    0.000
 4649.00    1.65560   1.04070    0.000
 4650.00    1.78218   1.03933    0.000
 4651.00    1.88297   1.03445    0.000
 4652.00    1.71978   1.04499    0.000
 4653.00    1.56207   1.07323    0.000
 4654.00    1.44439   1.09129    0.000
 4655.00    1.32639   1.08746    0.000
 4656.00    1.20660   1.08537    0.000
 4657.00    1.14633   1.09261    0.000
 4658.00    1.35157   1.09979    0.000
 4659.00    1.51379   1.10794    0.000
 4660.00    1.51843   1.11526    0.000
 4661.00    1.53273   1.11338    0.000
 4662.00    1.57667   1.10065    0.000
 4663.00    1.62087   1.09247    0.000
 4664.00    1.66574   1.09436    0.000
 4665.00    1.64197   1.09720    0.000
 4666.00    1.46436   1.09450    0.000
 4667.00    1.34156   1.08630    0.000
 4668.00    1.32519   1.07809    0.000
 4669.00    1.32640   1.07783    0.000
 4670.00    1.35735   1.08600    0.000
 4671.00    1.32657   1.09800    0.000
 4672.00    1.20417   1.10697    0.000
 4673.00    1.13043   1.10538    0.000
 4674.00    1.12015   1.09531    0.000
 4675.00    1.17368   1.09082    0.000
 4676.00    1.30054   1.09196    0.000
 4677.00    1.27197   1.09342    0.000
 4678.00    1.08591   1.09557    0.000
 4679.00    1.07894   1.09840    0.000
 4680.00    1.23203   1.09745    0.000
 4681.00    1.30599   1.09628    0.000
 4682.00    1.31761   1.09361    0.000
 4683.00    1.17173   1.09056    0.000
 4684.00    0.91674   1.08588    0.000
 4685.00    0.91910   1.06374    0.000
 4686.00    1.07777   1.02544    0.000
 4687.00    1.23824   1.01710    0.000
 4688.00    1.39966   1.05140    0.000
 4689.00    1.31834   1.08490    0.000
 4690.00    1.12531   1.09710    0.000
 4691.00    1.15199   1.09892    0.000
 4692.00    1.26572   1.09697    0.000
 4693.00    1.31294   1.09985    0.000
 4694.00    1.33771   1.10472    0.000
 4695.00    1.33180   1.10702    0.000
 4696.00    1.31719   1.10857    0.000
 4697.00    1.36996   1.10971    0.000
 4698.00    1.43850   1.10596    0.000
 4699.00    1.27267   1.09144    0.000
 4700.00    1.06275   1.07976    0.000
 4701.00    1.11927   1.08415    0.000
 4702.00    1.21454   1.09181    0.000
 4703.00    1.32793   1.08944    0.000
 4704.00    1.44323   1.08616    0.000
 4705.00    1.56913   1.08466    0.000
 4706.00    1.69577   1.08533    0.000
 4707.00    1.52390   1.08896    0.000
 4708.00    1.34187   1.09441    0.000
 4709.00    1.23091   1.09366    0.000
 4710.00    1.11911   1.09054    0.000
 4711.00    0.97643   1.09272    0.000
 4712.00    0.84671   1.09659    0.000
 4713.00    0.91575   1.07253    0.000
 4714.00    0.98662   1.04341    0.000
 4715.00    1.07533   1.05280    0.000
 4716.00    1.15717   1.08511    0.000
 4717.00    1.19041   1.09778    0.000
 4718.00    1.24220   1.10435    0.000
 4719.00    1.39490   1.11050    0.000
 4720.00    1.47007   1.11483    0.000
 4721.00    1.20737   1.11660    0.000
 4722.00    0.97299   1.11578    0.000
 4723.00    0.84025   1.11310    0.000
 4724.00    0.77233   1.11308    0.000
 4725.00    0.89959   1.11652    0.000
 4726.00    1.00984   1.11861    0.000
 4727.00    1.07647   1.11449    0.000
 4728.00    1.16603   1.10468    0.000
 4729.00    1.30609   1.09731    0.000
 4730.00    1.41173   1.09711    0.000
 4731.00    1.45154   1.09895    0.000
 4732.00    1.42532   1.10015    0.000
 4733.00    1.28894   1.10351    0.000
 4734.00    1.17490   1.10700    0.000
 4735.00    1.09354   1.10890    0.000
 4736.00    1.02922   1.10968    0.000
 4737.00    0.98680   1.10629    0.000
 4738.00    0.87114   1.10373    0.000
 4739.00    0.67252   1.10801    0.000
 4740.00    0.60683   1.11093    0.000
 4741.00    0.67395   1.10806    0.000
 4742.00    0.76533   1.10448    0.000
 4743.00    0.87809   1.10602    0.000
 4744.00    0.97838   1.11112    0.000
 4745.00    1.06900   1.11314    0.000
 4746.00    1.22150   1.11166    0.000
 4747.00    1.41624   1.11309    0.000
 4748.00    1.49167   1.11584    0.000
 4749.00    1.49571   1.11545    0.000
 4750.00    1.39858   1.11466    0.000
 4751.00    1.24865   1.11416    0.000
 4752.00    1.20375   1.11231    0.000
 4753.00    1.20641   1.10972    0.000
 4754.00    1.47994   1.10881    0.000
 4755.00    1.85894   1.10779    0.000
 4756.00    1.81809   1.10719    0.000
 4757.00    1.63814   1.10687    0.000
 4758.00    1.55961   1.10698    0.000
 4759.00    1.50928   1.10834    0.000
 4760.00    1.40988   1.11029    0.000
 4761.00    1.29925   1.11167    0.007
 4762.00    1.24912   1.10796    0.007
 4763.00    1.21006   1.10040    0.007
 4764.00    1.28215   1.09604    0.007
 4765.00    1.36990   1.09535    0.007
 4766.00    1.39456   1.09432    0.007
 4767.00    1.41283   1.09485    0.007
 4768.00    1.23094   1.09840    0.007
 4769.00    1.03611   1.10314    0.007
 4770.00    1.34121   1.10783    0.007
 4771.00    1.65996   1.10998    0.007
 4772.00    1.24331   1.10623    0.007
 4773.00    0.84440   1.10214    0.007
 4774.00    0.95977   1.10406    0.007
 4775.00    1.08163   1.10973    0.007
 4776.00    1.29738   1.11277    0.007
 4777.00    1.48458   1.11243    0.007
 4778.00    1.40328   1.11282    0.007
 4779.00    1.32111   1.11175    0.007
 4780.00    1.23301   1.10702    0.007
 4781.00    1.16413   1.10481    0.007
 4782.00    1.19706   1.10644    0.007
 4783.00    1.27159   1.10595    0.007
 4784.00    1.52322   1.10258    0.007
 4785.00    1.67958   1.10288    0.007
 4786.00    1.50114   1.10454    0.007
 4787.00    1.34251   1.10086    0.007
 4788.00    1.24243   1.09819    0.007
 4789.00    1.16149   1.09935    0.007
 4790.00    1.12876   1.09974    0.007
 4791.00    1.14126   1.10194    0.007
 4792.00    1.25184   1.10436    0.007
 4793.00    1.25193   1.10559    0.007
 4794.00    1.04409   1.10914    0.007
 4795.00    0.87229   1.11470    0.007
 4796.00    0.75970   1.11794    0.007
 4797.00    0.90246   1.11742    0.007
 4798.00    1.41317   1.11415    0.007
 4799.00    1.68311   1.10932    0.007
 4800.00    1.64791   1.10449    0.007
 4801.00    1.45849   1.10352    0.007
 4802.00    1.09682   1.10679    0.007
 4803.00    1.06284   1.10826    0.007
 4804.00    1.35167   1.10669    0.007
 4805.00    1.41856   1.10490    0.007
 4806.00    1.29264   1.10313    0.007
 4807.00    1.28740   1.10271    0.007
 4808.00    1.37451   1.10349    0.007
 4809.00    1.39827   1.10295    0.007
 4810.00    1.37941   1.10312    0.007
 4811.00    1.32356   1.10427    0.007
 4812.00    1.24592   1.10491    0.007
 4813.00    1.25708   1.10158    0.007
 4814.00    1.31388   1.09767    0.007
 4815.00    1.44065   1.09857    0.007
 4816.00    1.59856   1.10293    0.007
 4817.00    1.47854   1.10686    0.007
 4818.00    1.25219   1.11073    0.007
 4819.00    1.23355   1.10967    0.007
 4820.00    1.28243   1.10237    0.007
 4821.00    1.28285   1.09962    0.007
 4822.00    1.27007   1.10563    0.007
 4823.00    1.32321   1.10696    0.007
 4824.00    1.39108   1.09787    0.007
 4825.00    1.31331   1.09307    0.007
 4826.00    1.20958   1.09869    0.007
 4827.00    1.07930   1.10548    0.007
 4828.00    0.94540   1.10450    0.007
 4829.00    1.12955   1.09466    0.007
 4830.00    1.34460   1.08845    0.007
 4831.00    1.31680   1.09375    0.007
 4832.00    1.27427   1.09874    0.007
 4833.00    1.27150   1.09636    0.007
 4834.00    1.27053   1.09780    0.007
 4835.00    1.40149   1.10129    0.007
 4836.00    1.51971   1.10180    0.007
 4837.00    1.30539   1.10029    0.007
 4838.00    1.09408   1.10001    0.007
 4839.00    0.92374   1.09802    0.007
 4840.00    0.79701   1.09228    0.007
 4841.00    1.06446   1.08766    0.007
 4842.00    1.28692   1.08823    0.007
 4843.00    1.21092   1.08816    0.007
 4844.00    1.12106   1.08425    0.007
 4845.00    0.95973   1.08314    0.007
 4846.00    0.85588   1.08674    0.007
 4847.00    0.99127   1.08683    0.007
 4848.00    1.08134   1.07998    0.000
 4849.00    1.01536   1.06926    0.000
 4850.00    1.01443   1.06316    0.000
 4851.00    1.20214   1.06149    0.000
 4852.00    1.27092   1.05695    0.000
 4853.00    1.04532   1.04830    0.000
 4854.00    0.94045   1.03740    0.000
 4855.00    1.09315   1.01892    0.000
 4856.00    1.25051   0.99173    0.000
 4857.00    1.41651   0.96599    0.000
 4858.00    1.48227   0.94009    0.000
 4859.00    1.38578   0.89685    0.000
 4860.00    1.28107   0.82880    0.000
 4861.00    1.16470   0.73768    0.000
 4862.00    1.06396   0.66944    0.000
 4863.00    0.98274   0.69017    0.000
 4864.00    0.95119   0.78245    0.000
 4865.00    0.97431   0.86678    0.000
 4866.00    0.95509   0.92137    0.000
 4867.00    0.89476   0.95791    0.000
 4868.00    0.95538   0.98349    0.000
 4869.00    1.11961   1.00531    0.000
 4870.00    1.28106   1.02509    0.000
 4871.00    1.44043   1.03186    0.000
 4872.00    1.33662   1.02855    0.000
 4873.00    1.05838   1.03276    0.000
 4874.00    1.04870   1.04774    0.000
 4875.00    1.19489   1.06031   -1.000
 4876.00    1.37881   1.06607   -1.000
 4877.00    1.58181   1.07099   -1.000
 4878.00    1.59607   1.07636   -1.000
 4879.00    1.52767   1.08080   -1.000
 4880.00    1.49323   1.08779   -1.000
 4881.00    1.47155   1.09195   -1.000
 4882.00    1.35037   1.08846   -1.000
 4883.00    1.19746   1.08613   -1.000
 4884.00    1.08896   1.08824    0.017
 4885.00    0.99230   1.08805    0.008
 4886.00    1.10199   1.08480    0.007
 4887.00    1.25671   1.08358    0.007
 4888.00    1.19398   1.08687    0.007
 4889.00    1.09356   1.09049    0.007
 4890.00    1.01785   1.08860    0.007
 4891.00    0.94539   1.07922    0.007
 4892.00    1.11080   1.07200    0.007
 4893.00    1.29831   1.08163    0.007
 4894.00    1.43487   1.09920    0.007
 4895.00    1.56854   1.10936    0.007
 4896.00    1.46693   1.11505    0.007
 4897.00    1.35772   1.11664    0.007
 4898.00    1.00431   1.11625    0.007
 4899.00    0.68358   1.11395    0.007
 4900.00    1.13859   1.10700    0.007
 4901.00    1.55871   1.10094    0.007
 4902.00    1.52785   1.10370    0.007
 4903.00    1.46807   1.10628    0.007
 4904.00    1.15681   1.10267    0.007
 4905.00    0.92406   1.10138    0.007
 4906.00    1.19642   1.10618    0.007
 4907.00    1.41290   1.10775    0.007
 4908.00    1.34831   1.10606    0.007
 4909.00    1.28987   1.10433    0.007
 4910.00    1.25642   1.10133    0.007
 4911.00    1.22163   1.09552    0.007
 4912.00    1.18231   1.09568    0.007
 4913.00    1.14572   1.10117    0.007
 4914.00    1.11694   1.10574    0.007
 4915.00    1.06356   1.10847    0.007
 4916.00    0.95039   1.11250    0.007
 4917.00    0.86158   1.11260    0.007
 4918.00    0.82395   1.10470    0.007
 4919.00    0.84882   1.08974    0.007
 4920.00    0.98772   1.07175    0.007
 4921.00    1.06812   1.04793    0.007
 4922.00    1.05521   1.01109    0.007
 4923.00    1.14477   1.00272    0.007
 4924.00    1.37775   1.02685    0.007
 4925.00    1.47211   1.05576    0.007
 4926.00    1.39576   1.07101    0.007
 4927.00    1.41445   1.09279    0.007
 4928.00    1.53631   1.10813    0.007
 4929.00    1.43595   1.11273    0.007
 4930.00    1.12279   1.11655    0.007
 4931.00    1.15201   1.11842    0.007
 4932.00    1.47030   1.11743    0.007
 4933.00    1.53716   1.11243    0.007
 4934.00    1.41707   1.10091    0.007
 4935.00    1.41370   1.09445    0.007
 4936.00    1.48656   1.10109    0.007
 4937.00    1.42064   1.10736    0.007
 4938.00    1.27539   1.10209    0.007
 4939.00    1.20302   1.09160    0.007
 4940.00    1.16694   1.08732    0.000
 4941.00    1.22836   1.09201    0.000
 4942.00    1.33177   1.09938    0.000
 4943.00    1.49380   1.09941    0.000
 4944.00    1.67747   1.10212    0.000
 4945.00    1.70759   1.10951    0.000
 4946.00    1.68967   1.11312    0.000
 4947.00    1.71167   1.11131    0.000
 4948.00    1.74410   1.11309    0.000
 4949.00    1.64600   1.11635    0.000
 4950.00    1.52010   1.11724    0.000
 4951.00    1.32220   1.11767    0.000
 4952.00    1.11216   1.11878    0.000
 4953.00    1.14319   1.11729    0.000
 4954.00    1.20487   1.11334    0.000
 4955.00    1.22970   1.11031    0.000
 4956.00    1.25127   1.10539    0.000
 4957.00    1.10517   1.09456    0.000
 4958.00    0.95022   1.07831    0.000
 4959.00    1.20654   1.07611    0.000
 4960.00    1.46544   1.09282    0.000
 4961.00    1.30961   1.10749    0.000
 4962.00    1.16268   1.11009    0.000
 4963.00    1.20916   1.10857    0.000
 4964.00    1.25050   1.10874    0.000
 4965.00    1.22871   1.10711    0.000
 4966.00    1.19061   1.10076    0.000
 4967.00    1.01600   1.09623    0.000
 4968.00    0.89597   1.09638    0.000
 4969.00    1.11681   1.09701    0.000
 4970.00    1.31081   1.09799    0.000
 4971.00    1.37321   1.09939    0.000
 4972.00    1.41231   1.10199    0.000
 4973.00    1.35868   1.10571    0.000
 4974.00    1.33334   1.10783    0.000
 4975.00    1.40159   1.11008    0.000
 4976.00    1.46463   1.11072    0.000
 4977.00    1.51310   1.10878    0.000
 4978.00    1.48922   1.10569    0.000
 4979.00    1.29231   1.10122    0.000
 4980.00    1.15579   1.09820    0.000
 4981.00    1.14403   1.09697    0.000
 4982.00    1.13128   1.09048    0.000
 4983.00    1.11675   1.07899    0.000
 4984.00    1.10158   1.07268    0.000
 4985.00    1.08543   1.07626    0.000
 4986.00    1.01205   1.08380    0.000
 4987.00    0.85974   1.09140    0.000
 4988.00    0.83053   1.09925    0.000
 4989.00    0.95078   1.10295    0.000
 4990.00    1.20353   1.10115    0.000
 4991.00    1.59812   1.09638    0.000
 4992.00    1.66350   1.09217    0.000
 4993.00    1.41807   1.09446    0.000
 4994.00    1.24328   1.09524    0.000
 4995.00    1.12728   1.09347    0.000
 4996.00    1.03321   1.09701    0.000
 4997.00    0.95519   1.10278    0.000
 4998.00    0.90009   1.10348    0.000
 4999.00    0.85973   1.10064    0.000
 5000.00    0.94303   1.09308    0.000
 5001.00    1.09593   1.07889    0.000
 5002.00    1.20105   1.06818    0.000
 5003.00    1.28274   1.06900    0.000
 5004.00    1.27850   1.08083    0.000
 5005.00    1.23786   1.08154    0.000
 5006.00    1.25091   1.07251    0.000
 5007.00    1.28342   1.06583    0.000
 5008.00    1.36229   1.07156    0.000
 5009.00    1.45538   1.08450    0.000
 5010.00    1.33772   1.09142    0.000
 5011.00    1.16625   1.08869    0.000
 5012.00    1.16997   1.08411    0.000
 5013.00    1.21008   1.07921    0.000
 5014.00    1.05071   1.07155    0.000
 5015.00    0.85869   1.05293    0.000
 5016.00    0.93141   1.02190    0.000
 5017.00    1.03664   1.02125    0.000
 5018.00    1.03529   1.04853    0.000
 5019.00    1.02494   1.06977    0.000
 5020.00    1.08985   1.07618    0.000
 5021.00    1.15843   1.08533    0.000
 5022.00    1.28314   1.08822    0.000
 5023.00    1.40422   1.08444    0.000
 5024.00    1.25162   1.08556    0.000
 5025.00    1.11423   1.09117    0.000
 5026.00    1.28180   1.09247    0.000
 5027.00    1.42414   1.08965    0.000
 5028.00    1.27174   1.08516    0.000
 5029.00    1.15098   1.08601    0.007
 5030.00    1.28574   1.09324    0.007
 5031.00    1.41218   1.09729    0.007
 5032.00    1.48819   1.09646    0.007
 5033.00    1.55716   1.09776    0.007
 5034.00    1.59242   1.10287    0.007
 5035.00    1.58583   1.10333    0.007
 5036.00    1.41625   1.09355    0.007
 5037.00    1.24458   1.08402    0.007
 5038.00    1.06612   1.08657    0.007
 5039.00    0.98163   1.08887    0.007
 5040.00    1.15503   1.08079    0.007
 5041.00    1.24631   1.06251    0.007
 5042.00    1.14447   1.05019    0.007
 5043.00    1.13163   1.06080    0.007
 5044.00    1.29971   1.08387    0.007
 5045.00    1.34819   1.09302    0.006
 5046.00    1.18505   1.09674    0.006
 5047.00    1.17140   1.09632    0.006
 5048.00    1.38917   1.08261    0.006
 5049.00    1.47866   1.06999    0.006
 5050.00    1.39376   1.07285    0.007
 5051.00    1.28361   1.08387    0.007
 5052.00    1.14323   1.08553    0.007
 5053.00    1.05660   1.09056    0.007
 5054.00    1.02668   1.09879    0.007
 5055.00    1.08047   1.10258    0.007
 5056.00    1.21217   1.09248    0.007
 5057.00    1.24458   1.08565    0.006
 5058.00    1.19549   1.08998    0.006
 5059.00    1.12048   1.10123    0.006
 5060.00    1.02676   1.10385    0.006
 5061.00    1.11608   1.10451    0.006
 5062.00    1.32146   1.10672    0.006
 5063.00    1.27815   1.10720    0.006
 5064.00    1.09698   1.10229    0.006
 5065.00    1.00985   1.09057    0.006
 5066.00    0.96806   1.08281    0.006
 5067.00    1.04860   1.08634    0.006
 5068.00    1.18006   1.09095    0.006
 5069.00    1.20289   1.08989    0.006
 5070.00    1.18704   1.09084    0.006
 5071.00    1.07360   1.09556    0.006
 5072.00    0.93080   1.09507    0.006
 5073.00    0.95144   1.08868    0.006
 5074.00    1.01289   1.08639    0.006
 5075.00    1.20289   1.08928    0.006
 5076.00    1.41894   1.09044    0.006
 5077.00    1.30307   1.09139    0.006
 5078.00    1.13445   1.09401    0.006
 5079.00    1.27714   1.09118    0.006
 5080.00    1.45666   1.07752    0.006
 5081.00    1.42053   1.06875    0.006
 5082.00    1.36707   1.07325    0.006
 5083.00    1.19779   1.08061    0.006
 5084.00    1.02330   1.08236    0.006
 5085.00    1.28657   1.08515    0.006
 5086.00    1.54406   1.09074    0.006
 5087.00    1.25490   1.09253    0.006
 5088.00    0.97709   1.09096    0.006
 5089.00    0.91007   1.09188    0.006
 5090.00    0.85683   1.09530    0.006
 5091.00    0.95706   1.09490    0.006
 5092.00    1.04988   1.09330    0.006
 5093.00    1.08501   1.09569    0.006
 5094.00    1.12297   1.10022    0.006
 5095.00    1.17758   1.10125    0.006
 5096.00    1.22582   1.09812    0.006
 5097.00    1.24432   1.09354    0.006
 5098.00    1.22534   1.08683    0.006
 5099.00    1.06353   1.07911    0.006
 5100.00    0.93718   1.07307    0.006
 5101.00    0.92361   1.07643    0.006
 5102.00    0.93343   1.08668    0.006
 5103.00    1.00633   1.09258    0.006
 5104.00    1.07833   1.09191    0.006
 5105.00    1.14825   1.08897    0.006
 5106.00    1.22491   1.08839    0.006
 5107.00    1.31506   1.08701    0.006
 5108.00    1.35459   1.08220    0.006
 5109.00    1.30595   1.08018    0.006
 5110.00    1.35097   1.08171    0.006
 5111.00    1.53886   1.08039    0.006
 5112.00    1.61774   1.08328    0.006
 5113.00    1.55054   1.08934    0.007
 5114.00    1.52851   1.08991    0.007
 5115.00    1.55978   1.08921    0.007
 5116.00    1.50166   1.09135    0.007
 5117.00    1.35055   1.09552    0.007
 5118.00    1.25814   1.10034    0.007
 5119.00    1.21962   1.10273    0.007
 5120.00    1.14157   1.10082    0.007
 5121.00    1.03155   1.09637    0.007
 5122.00    1.03433   1.08893    0.006
 5123.00    1.11739   1.08137    0.006
 5124.00    1.32646   1.07449    0.006
 5125.00    1.61423   1.07206    0.007
 5126.00    1.56903   1.07523    0.007
 5127.00    1.34205   1.07517    0.007
 5128.00    1.30112   1.07131    0.007
 5129.00    1.34843   1.07038    0.007
 5130.00    1.25668   1.07476    0.007
 5131.00    1.10802   1.07891    0.007
 5132.00    1.16320   1.08279    0.007
 5133.00    1.28966   1.08133    0.007
 5134.00    1.33047   1.07797    0.007
 5135.00    1.34604   1.08201    0.007
 5136.00    1.14833   1.09155    0.007
 5137.00    0.89854   1.09166    0.006
 5138.00    0.94672   1.08406    0.006
 5139.00    1.05377   1.07754    0.006
 5140.00    1.17206   1.07268    0.006
 5141.00    1.29207   1.07635    0.006
 5142.00    1.13745   1.08220    0.006
 5143.00    0.95155   1.07450    0.006
 5144.00    1.06028   1.06711    0.006
 5145.00    1.19148   1.06991    0.006
 5146.00    1.12227   1.07259    0.006
 5147.00    1.04481   1.07214    0.006
 5148.00    0.94807   1.07485    0.006
 5149.00    0.85981   1.07682    0.006
 5150.00    1.13556   1.08034    0.006
 5151.00    1.38423   1.07782    0.006
 5152.00    1.16354   1.07169    0.006
 5153.00    0.98309   1.07003    0.006
 5154.00    1.23072   1.07243    0.006
 5155.00    1.45148   1.07398    0.006
 5156.00    1.46999   1.07456    0.006
 5157.00    1.47310   1.07980    0.006
 5158.00    1.38804   1.08816    0.006
 5159.00    1.30366   1.09604    0.006
 5160.00    1.22239   1.09474    0.006
 5161.00    1.14989   1.09367    0.006
 5162.00    1.11011   1.09340    0.006
 5163.00    1.09400   1.08987    0.006
 5164.00    1.15173   1.08702    0.006
 5165.00    1.17210   1.08509    0.006
 5166.00    1.09350   1.07413    0.006
 5167.00    1.02323   1.05241    0.006
 5168.00    0.97188   1.02961    0.006
 5169.00    0.95989   1.02134    0.006
 5170.00    1.02539   1.03278    0.006
 5171.00    1.07079   1.04939    0.006
 5172.00    1.08170   1.04726    0.006
 5173.00    1.16066   1.02706    0.006
 5174.00    1.34189   1.02097    0.006
 5175.00    1.40384   1.04254    0.006
 5176.00    1.30826   1.06419    0.006
 5177.00    1.27719   1.07236    0.006
 5178.00    1.32117   1.07606    0.006
 5179.00    1.24974   1.08019    0.006
 5180.00    1.05992   1.07958    0.006
 5181.00    0.94873   1.07614    0.006
 5182.00    0.90868   1.07032    0.006
 5183.00    0.96357   1.05382    0.006
 5184.00    1.09419   1.02778    0.006
 5185.00    1.16179   1.01871    0.006
 5186.00    1.18516   1.03967    0.006
 5187.00    1.15736   1.06541    0.006
 5188.00    1.09805   1.07705    0.006
 5189.00    1.11986   1.07693    0.006
 5190.00    1.18525   1.07655    0.000
 5191.00    1.20679   1.07906    0.000
 5192.00    1.20785   1.07080    0.000
 5193.00    1.23099   1.05808    0.000
 5194.00    1.26299   1.05749    0.000
 5195.00    1.22105   1.06514    0.000
 5196.00    1.15373   1.06803    0.000
 5197.00    1.09855   1.07053    0.000
 5198.00    1.04687   1.07461    0.000
 5199.00    0.86927   1.07767    0.000
 5200.00    0.66160   1.08130    0.000
 5201.00    0.85665   1.08065    0.000
 5202.00    1.12922   1.07786    0.000
 5203.00    1.24469   1.07587    0.000
 5204.00    1.33666   1.07579    0.000
 5205.00    1.29402   1.06768    0.000
 5206.00    1.23664   1.05515    0.000
 5207.00    1.31248   1.05045    0.000
 5208.00    1.39795   1.05327    0.000
 5209.00    1.35800   1.05238    0.000
 5210.00    1.31337   1.05357    0.000
 5211.00    1.36872   1.06084    0.006
 5212.00    1.42156   1.06761    0.006
 5213.00    1.36640   1.07328    0.006
 5214.00    1.30698   1.08066    0.006
 5215.00    1.17845   1.08513    0.006
 5216.00    1.06660   1.07970    0.006
 5217.00    1.12450   1.07104    0.006
 5218.00    1.16917   1.07133    0.006
 5219.00    1.11765   1.07852    0.006
 5220.00    1.06048   1.08581    0.006
 5221.00    0.97186   1.08999    0.006
 5222.00    0.91565   1.09274    0.006
 5223.00    1.00363   1.09214    0.006
 5224.00    1.11829   1.08680    0.006
 5225.00    1.33043   1.07727    0.006
 5226.00    1.45602   1.06483    0.006
 5227.00    1.31670   1.04960    0.006
 5228.00    1.17282   1.04247    0.006
 5229.00    1.01708   1.05553    0.006
 5230.00    0.92216   1.07442    0.006
 5231.00    0.96325   1.08335    0.006
 5232.00    1.07297   1.08716    0.006
 5233.00    1.31571   1.08313    0.006
 5234.00    1.39578   1.07301    0.006
 5235.00    1.20090   1.06804    0.006
 5236.00    1.10814   1.07085    0.006
 5237.00    1.16659   1.07962    0.006
 5238.00    1.26802   1.08808    0.006
 5239.00    1.42540   1.09128    0.006
 5240.00    1.44943   1.09063    0.006
 5241.00    1.32052   1.08961    0.006
 5242.00    1.22709   1.09013    0.006
 5243.00    1.16954   1.08828    0.006
 5244.00    1.11865   1.08569    0.006
 5245.00    1.07370   1.08869    0.006
 5246.00    1.10135   1.09492    0.006
 5247.00    1.18607   1.08812    0.006
 5248.00    1.27868   1.07585    0.006
 5249.00    1.37676   1.07218    0.006
 5250.00    1.32387   1.07404    0.006
 5251.00    1.17947   1.07013    0.006
 5252.00    1.09928   1.06913    0.006
 5253.00    1.05306   1.07457    0.006
 5254.00    1.17320   1.07854    0.006
 5255.00    1.36974   1.07621    0.006
 5256.00    1.44528   1.07284    0.006
 5257.00    1.47300   1.07858    0.006
 5258.00    1.37657   1.08935    0.006
 5259.00    1.23833   1.09597    0.006
 5260.00    1.23645   1.09516    0.006
 5261.00    1.27317   1.08921    0.006
 5262.00    1.33801   1.07933    0.006
 5263.00    1.40942   1.06816    0.007
 5264.00    1.38135   1.05579    0.007
 5265.00    1.33463   1.04706    0.007
 5266.00    1.21265   1.04182    0.007
 5267.00    1.07976   1.04360    0.007
 5268.00    1.34503   1.05563    0.007
 5269.00    1.65219   1.06028    0.007
 5270.00    1.52217   1.04336    0.007
 5271.00    1.36237   1.03148    0.007
 5272.00    1.35598   1.04476    0.007
 5273.00    1.35474   1.06214    0.007
 5274.00    1.31305   1.06756    0.007
 5275.00    1.27757   1.06828    0.007
 5276.00    1.44266   1.06548    0.007
 5277.00    1.59521   1.06492    0.007
 5278.00    1.55686   1.07787    0.007
 5279.00    1.52121   1.09095    0.006
 5280.00    1.51189   1.09261    0.006
 5281.00    1.47274   1.08691    0.007
 5282.00    1.22358   1.07875    0.006
 5283.00    1.02624   1.07210    0.006
 5284.00    1.10986   1.06685    0.006
 5285.00    1.19531   1.06659    0.006
 5286.00    1.28865   1.07831    0.006
 5287.00    1.34375   1.09275    0.006
 5288.00    1.26199   1.09813    0.006
 5289.00    1.23415   1.09530    0.007
 5290.00    1.36819   1.09347    0.006
 5291.00    1.42959   1.09520    0.006
 5292.00    1.30525   1.09630    0.006
 5293.00    1.23677   1.09424    0.006
 5294.00    1.29117   1.09140    0.006
 5295.00    1.31103   1.09133    0.006
 5296.00    1.26500   1.08917    0.006
 5297.00    1.32731   1.08009    0.006
 5298.00    1.56998   1.06535    0.006
 5299.00    1.63623   1.05800    0.006
 5300.00    1.44497   1.06453    0.006
 5301.00    1.37482   1.07478    0.006
 5302.00    1.46008   1.07582    0.006
 5303.00    1.40799   1.07505    0.006
 5304.00    1.20059   1.08023    0.006
 5305.00    1.10947   1.09017    0.006
 5306.00    1.13434   1.09529    0.006
 5307.00    1.20296   1.09162    0.006
 5308.00    1.31005   1.08581    0.006
 5309.00    1.25367   1.08559    0.006
 5310.00    1.07061   1.09038    0.006
 5311.00    0.99325   1.09297    0.006
 5312.00    0.98790   1.09218    0.006
 5313.00    1.07080   1.09100    0.006
 5314.00    1.20639   1.08889    0.006
 5315.00    1.28116   1.08770    0.006
 5316.00    1.32424   1.08483    0.006
 5317.00    1.38795   1.07773    0.006
 5318.00    1.46099   1.07457    0.006
 5319.00    1.41297   1.07991    0.006
 5320.00    1.31793   1.08441    0.006
 5321.00    1.16523   1.08097    0.006
 5322.00    0.99347   1.07944    0.006
 5323.00    1.05640   1.07966    0.006
 5324.00    1.18441   1.07712    0.006
 5325.00    1.25982   1.07038    0.006
 5326.00    1.32324   1.07075    0.006
 5327.00    1.32796   1.07196    0.006
 5328.00    1.32197   1.05828    0.006
 5329.00    1.33908   1.03597    0.006
 5330.00    1.35943   1.03525    0.006
 5331.00    1.41231   1.05589    0.006
 5332.00    1.46847   1.07275    0.006
 5333.00    1.43151   1.07574    0.006
 5334.00    1.38858   1.07452    0.006
 5335.00    1.26297   1.07841    0.006
 5336.00    1.13521   1.08339    0.006
 5337.00    1.13773   1.08312    0.006
 5338.00    1.14204   1.08077    0.006
 5339.00    1.19761   1.07985    0.006
 5340.00    1.24603   1.07457    0.006
 5341.00    1.19206   1.06401    0.006
 5342.00    1.14464   1.05908    0.006
 5343.00    1.15843   1.06628    0.006
 5344.00    1.17479   1.07537    0.006
 5345.00    1.20869   1.07941    0.006
 5346.00    1.21039   1.07334    0.006
 5347.00    1.04212   1.06859    0.006
 5348.00    0.92674   1.07149    0.006
 5349.00    1.03598   1.07382    0.006
 5350.00    1.12118   1.06974    0.006
 5351.00    1.12209   1.07222    0.006
 5352.00    1.14603   1.08088    0.006
 5353.00    1.23782   1.08599    0.006
 5354.00    1.30313   1.08612    0.006
 5355.00    1.30189   1.08865    0.006
 5356.00    1.31502   1.09351    0.006
 5357.00    1.35929   1.09552    0.006
 5358.00    1.42995   1.09517    0.006
 5359.00    1.55019   1.09501    0.006
 5360.00    1.58261   1.09452    0.006
 5361.00    1.47099   1.09221    0.006
 5362.00    1.37988   1.08666    0.006
 5363.00    1.31826   1.07993    0.006
 5364.00    1.27604   1.07655    0.006
 5365.00    1.25836   1.07502    0.006
 5366.00    1.29302   1.07312    0.006
 5367.00    1.38604   1.07339    0.006
 5368.00    1.36788   1.07414   -2.000
 5369.00    1.24040   1.07393   -2.000
 5370.00    1.27428   1.06918   -2.000
 5371.00    1.44810   1.05812   -2.000
 5372.00    1.56219   1.04923   -2.000
 5373.00    1.63065   1.05412   -2.000
 5374.00    1.73901   1.07018   -2.000
 5375.00    1.87417   1.08249   -2.000
 5376.00    1.68009   1.08694   -2.000
 5377.00    1.29235   1.08610   -2.000
 5378.00    1.12165   1.08382   -2.000
 5379.00    1.06226   1.08455   -2.000
 5380.00    1.07392   1.08462   -2.000
 5381.00    1.11715   1.08077   -2.000
 5382.00    1.14606   1.07708   -2.000
 5383.00    1.16951   1.07545    0.006
 5384.00    1.16741   1.07395    0.006
 5385.00    1.15701   1.07554    0.006
 5386.00    1.20801   1.08015    0.006
 5387.00    1.27568   1.08236    0.006
 5388.00    1.28846   1.08130    0.006
 5389.00    1.28902   1.07919    0.006
 5390.00    1.18671   1.07553    0.006
 5391.00    1.06614   1.07114    0.006
 5392.00    1.12899   1.06917    0.006
 5393.00    1.21673   1.06838    0.006
 5394.00    1.19426   1.06736    0.006
 5395.00    1.16114   1.06692    0.006
 5396.00    1.14514   1.06601    0.006
 5397.00    1.13018   1.05911    0.006
 5398.00    1.47290   1.05024    0.006
 5399.00    1.82172   1.05495    0.006
 5400.00    1.63525   1.06688    0.006
 5401.00    1.45691   1.06987    0.006
 5402.00    1.48832   1.06802    0.006
 5403.00    1.50240   1.06954    0.006
 5404.00    1.28165   1.06658    0.006
 5405.00    1.06988   1.05442    0.006
 5406.00    0.93883   1.04180    0.006
 5407.00    0.84589   1.03933    0.006
 5408.00    1.00488   1.04721    0.006
 5409.00    1.14226   1.05075    0.006
 5410.00    1.16849   1.03821    0.006
 5411.00    1.21122   1.01432    0.006
 5412.00    1.32242   1.00109    0.006
 5413.00    1.42173   1.01185    0.006
 5414.00    1.48019   1.03489    0.006
 5415.00    1.52587   1.05170    0.006
 5416.00    1.53457   1.05951    0.006
 5417.00    1.46739   1.06791    0.006
 5418.00    1.21283   1.07548    0.006
 5419.00    1.07086   1.07727    0.006
 5420.00    1.16863   1.07448    0.006
 5421.00    1.19981   1.07157    0.006
 5422.00    1.10783   1.07179    0.006
 5423.00    1.03274   1.07450    0.006
 5424.00    0.98495   1.07186    0.006
 5425.00    0.97195   1.06409    0.006
 5426.00    1.00827   1.06381    0.006
 5427.00    1.11516   1.07269    0.006
 5428.00    1.31005   1.07982    0.006
 5429.00    1.38328   1.07339    0.006
 5430.00    1.32279   1.05558    0.006
 5431.00    1.22189   1.04994    0.006
 5432.00    1.08181   1.05882    0.006
 5433.00    0.98765   1.06167    0.006
 5434.00    0.93274   1.05609    0.006
 5435.00    1.06266   1.05133    0.006
 5436.00    1.33177   1.05227    0.006
 5437.00    1.37885   1.05692    0.006
 5438.00    1.27905   1.06470    0.006
 5439.00    1.15197   1.07403    0.006
 5440.00    1.00910   1.08100    0.006
 5441.00    0.91004   1.08356    0.006
 5442.00    0.83309   1.08357    0.006
 5443.00    0.91743   1.08335    0.006
 5444.00    1.07226   1.08300    0.006
 5445.00    1.19650   1.07885    0.006
 5446.00    1.30926   1.06731    0.006
 5447.00    1.22655   1.05153    0.006
 5448.00    1.08165   1.04392    0.006
 5449.00    1.15843   1.05266    0.006
 5450.00    1.29415   1.06489    0.006
 5451.00    1.35351   1.06967    0.006
 5452.00    1.39626   1.06859    0.006
 5453.00    1.43308   1.06514    0.006
 5454.00    1.46887   1.05874    0.006
 5455.00    1.37322   1.05017    0.006
 5456.00    1.26033   1.04009    0.006
 5457.00    1.39888   1.04219    0.006
 5458.00    1.56065   1.05456    0.006
 5459.00    1.35121   1.06679    0.006
 5460.00    1.12090   1.07020    0.006
 5461.00    1.19956   1.06713    0.006
 5462.00    1.28347   1.06233    0.006
 5463.00    1.19497   1.05632    0.006
 5464.00    1.11483   1.05161    0.006
 5465.00    1.23102   1.05452    0.006
 5466.00    1.33184   1.06023    0.006
 5467.00    1.23520   1.06054    0.006
 5468.00    1.14294   1.06065    0.006
 5469.00    1.08856   1.06453    0.006
 5470.00    1.05531   1.06571    0.006
 5471.00    1.15750   1.06280    0.006
 5472.00    1.23557   1.06137    0.006
 5473.00    1.19275   1.05937    0.006
 5474.00    1.17405   1.05345    0.006
 5475.00    1.25324   1.05088    0.006
 5476.00    1.30337   1.05084    0.006
 5477.00    1.25569   1.04240    0.006
 5478.00    1.21492   1.03595   -2.000
 5479.00    1.19375   1.04510   -2.000
 5480.00    1.10410   1.05688   -2.000
 5481.00    0.84819   1.05805   -2.000
 5482.00    0.76180   1.05063   -2.000
 5483.00    1.03055   1.04857   -2.000
 5484.00    1.65796   1.05397   -2.000
 5485.00    2.93852   1.06154   -2.000
 5486.00    3.98796   1.06681   -2.000
 5487.00    4.66950   1.06534   -2.000
 5488.00    5.09421   1.05842   -2.000
 5489.00    5.16013   1.05522   -2.000
 5490.00    4.57612   1.05768   -2.000
 5491.00    3.19308   1.05940   -2.000
 5492.00    1.97045   1.06123   -2.000
 5493.00    0.92166   1.06323   -2.000
 5494.00    0.37433   1.06137   -2.000
 5495.00    0.30637   1.05921   -2.000
 5496.00    0.62347   1.06067   -2.000
 5497.00    1.26512   1.05927   -2.000
 5498.00    1.39397   1.05396   -2.000
 5499.00    1.14222   1.05477   -2.000
 5500.00    1.08414   1.06202   -2.000
 5501.00    1.15231   1.06303   -2.000
 5502.00    1.19292   1.05563    0.006
 5503.00    1.21781   1.05088    0.006
 5504.00    1.29665   1.05271    0.006
 5505.00    1.40230   1.05671    0.006
 5506.00    1.42585   1.05522    0.006
 5507.00    1.41412   1.04788    0.006
 5508.00    1.37975   1.04502    0.006
 5509.00    1.33705   1.05168    0.006
 5510.00    1.44945   1.05526    0.006
 5511.00    1.61024   1.05482    0.006
 5512.00    1.49766   1.05203    0.006
 5513.00    1.31395   1.04676    0.006
 5514.00    1.34910   1.04334    0.006
 5515.00    1.43072   1.04525    0.006
 5516.00    1.33245   1.04988    0.006
 5517.00    1.20397   1.05430    0.006
 5518.00    1.17896   1.05826    0.006
 5519.00    1.16706   1.06335    0.006
 5520.00    1.18669   1.06637    0.006
 5521.00    1.20910   1.06597    0.006
 5522.00    1.32720   1.06444    0.006
 5523.00    1.45031   1.06315    0.006
 5524.00    1.34243   1.06284    0.006
 5525.00    1.22962   1.06165    0.006
 5526.00    1.07002   1.05802    0.006
 5527.00    0.92168   1.05220    0.006
 5528.00    1.01580   1.04481    0.006
 5529.00    1.11396   1.03888    0.006
 5530.00    1.26139   1.04256    0.006
 5531.00    1.40843   1.05273    0.006
 5532.00    1.55216   1.05928    0.006
 5533.00    1.63230   1.05959    0.006
 5534.00    1.31690   1.05720    0.006
 5535.00    1.07155   1.05325    0.006
 5536.00    1.16856   1.04951    0.006
 5537.00    1.22427   1.05091    0.006
 5538.00    1.11602   1.05518    0.006
 5539.00    1.00939   1.05705    0.006
 5540.00    0.90810   1.05906    0.006
 5541.00    0.87817   1.06283    0.006
 5542.00    1.04724   1.06497    0.006
 5543.00    1.20486   1.06286    0.006
 5544.00    1.33515   1.05728    0.006
 5545.00    1.46161   1.05503    0.006
 5546.00    1.58015   1.05551    0.006
 5547.00    1.61340   1.05579    0.006
 5548.00    1.49369   1.05787    0.006
 5549.00    1.45381   1.06183    0.006
 5550.00    1.53912   1.06492    0.006
 5551.00    1.57952   1.06547    0.006
 5552.00    1.55809   1.06476    0.006
 5553.00    1.47365   1.06260    0.006
 5554.00    1.31287   1.05863    0.006
 5555.00    1.25801   1.05446    0.006
 5556.00    1.31633   1.05354    0.006
 5557.00    1.39091   1.05555    0.006
 5558.00    1.48084   1.05623    0.006
 5559.00    1.43438   1.05597    0.006
 5560.00    1.27460   1.05699    0.006
 5561.00    1.19114   1.05717    0.006
 5562.00    1.16351   1.05620    0.006
 5563.00    1.28958   1.05346    0.006
 5564.00    1.51437   1.04981    0.006
 5565.00    1.46676   1.04802    0.006
 5566.00    1.26610   1.04696    0.005
 5567.00    1.25029   1.04574    0.005
 5568.00    1.32487   1.04714    0.005
 5569.00    1.41720   1.04819    0.005
 5570.00    1.51704   1.04614    0.005
 5571.00    1.48365   1.04650    0.005
 5572.00    1.40207   1.04997    0.005
 5573.00    1.31330   1.04677    0.005
 5574.00    1.22234   1.04163    0.005
 5575.00    1.26840   1.04582    0.005
 5576.00    1.34935   1.05122    0.005
 5577.00    1.32588   1.05149    0.005
 5578.00    1.28077   1.05161    0.005
 5579.00    1.15151   1.05205    0.005
 5580.00    1.00851   1.05205    0.005
 5581.00    1.05400   1.05412    0.005
 5582.00    1.12251   1.05348    0.005
 5583.00    1.29365   1.05028    0.006
 5584.00    1.47340   1.05045    0.006
 5585.00    1.34449   1.05158    0.006
 5586.00    1.20065   1.04811    0.006
 5587.00    1.24694   1.03951    0.006
 5588.00    1.29653   1.02929    0.006
 5589.00    1.37271   1.02393    0.006
 5590.00    1.44270   1.02522    0.006
 5591.00    1.38988   1.03038    0.006
 5592.00    1.34909   1.02834    0.006
 5593.00    1.44793   1.02296    0.006
 5594.00    1.52230   1.02230    0.006
 5595.00    1.39998   1.03017    0.006
 5596.00    1.28591   1.04001    0.006
 5597.00    1.22160   1.04878    0.006
 5598.00    1.19329   1.04912    0.006
 5599.00    1.33659   1.03999    0.006
 5600.00    1.46618   1.03485    0.006
 5601.00    1.54248   1.03547    0.006
 5602.00    1.59975   1.03371    0.006
 5603.00    1.59547   1.02961    0.006
 5604.00    1.51846   1.02988    0.006
 5605.00    1.24226   1.03819    0.006
 5606.00    1.07759   1.04667    0.006
 5607.00    1.17466   1.05136    0.006
 5608.00    1.24471   1.05339    0.006
 5609.00    1.25997   1.05472    0.006
 5610.00    1.27910   1.05443    0.006
 5611.00    1.30506   1.05390    0.005
 5612.00    1.31385   1.05437    0.005
 5613.00    1.29609   1.05610    0.005
 5614.00    1.21660   1.05506    0.005
 5615.00    1.05335   1.04511    0.005
 5616.00    1.00155   1.02843    0.005
 5617.00    1.08292   1.02325    0.005
 5618.00    1.15269   1.03239    0.005
 5619.00    1.21024   1.04044    0.005
 5620.00    1.19677   1.04194    0.005
 5621.00    1.11728   1.04164    0.005
 5622.00    1.07358   1.04462    0.005
 5623.00    1.05920   1.04750    0.005
 5624.00    1.11130   1.04421    0.005
 5625.00    1.21134   1.03421    0.005
 5626.00    1.26461   1.02936    0.005
 5627.00    1.28829   1.03444    0.005
 5628.00    1.11949   1.04077    0.005
 5629.00    0.84420   1.04362    0.005
 5630.00    0.82124   1.04652    0.005
 5631.00    0.91970   1.04856    0.005
 5632.00    1.00112   1.04945    0.005
 5633.00    1.07546   1.04955    0.005
 5634.00    1.08168   1.04801    0.005
 5635.00    1.06369   1.04591    0.005
 5636.00    1.08873   1.04381    0.005
 5637.00    1.12669   1.04048    0.005
 5638.00    1.10175   1.03687    0.005
 5639.00    1.06114   1.03562    0.005
 5640.00    1.11634   1.03369    0.005
 5641.00    1.19089   1.03075    0.005
 5642.00    1.27678   1.02817    0.005
 5643.00    1.36447   1.03261    0.005
 5644.00    1.42352   1.03761    0.005
 5645.00    1.47920   1.03891    0.005
 5646.00    1.34908   1.03843    0.005
 5647.00    1.20411   1.03785    0.005
 5648.00    1.18039   1.03793    0.005
 5649.00    1.16207   1.03843    0.005
 5650.00    1.18010   1.03908    0.005
 5651.00    1.19731   1.04069    0.005
 5652.00    1.15385   1.04281    0.005
 5653.00    1.11585   1.04590    0.005
 5654.00    1.17828   1.04668    0.005
 5655.00    1.23834   1.04274    0.005
 5656.00    1.27219   1.03849    0.005
 5657.00    1.30833   1.03872    0.005
 5658.00    1.36233   1.03382    0.005
 5659.00    1.40030   1.02007    0.005
 5660.00    1.34413   1.01538    0.005
 5661.00    1.28599   1.02506    0.005
 5662.00    1.21862   1.03034    0.005
 5663.00    1.15997   1.02609    0.005
 5664.00    1.13444   1.02443    0.005
 5665.00    1.15506   1.03088    0.005
 5666.00    1.32211   1.03512    0.005
 5667.00    1.42321   1.03170    0.005
 5668.00    1.34689   1.02731    0.005
 5669.00    1.27266   1.02729    0.005
 5670.00    1.20326   1.03196    0.005
 5671.00    1.19745   1.03443    0.005
 5672.00    1.31859   1.03661    0.005
 5673.00    1.41087   1.04023    0.005
 5674.00    1.45295   1.04460    0.005
 5675.00    1.43323   1.04467    0.005
 5676.00    1.31942   1.03997    0.005
 5677.00    1.18002   1.03786    0.005
 5678.00    1.00640   1.04071    0.005
 5679.00    0.90924   1.03927    0.005
 5680.00    0.90216   1.03204    0.005
 5681.00    0.94092   1.03012    0.005
 5682.00    1.02730   1.03386    0.005
 5683.00    1.06012   1.03413    0.005
 5684.00    1.04389   1.03033    0.005
 5685.00    1.03153   1.03200    0.005
 5686.00    1.02230   1.03248    0.005
 5687.00    0.99750   1.03005    0.005
 5688.00    0.96162   1.02638    0.005
 5689.00    0.99289   1.02616    0.005
 5690.00    1.06603   1.02995    0.005
 5691.00    1.17012   1.03515    0.005
 5692.00    1.29108   1.03908    0.005
 5693.00    1.38185   1.04164    0.005
 5694.00    1.45833   1.04292    0.005
 5695.00    1.48603   1.04078    0.005
 5696.00    1.49380   1.03342    0.005
 5697.00    1.43589   1.02806    0.005
 5698.00    1.35507   1.02746    0.005
 5699.00    1.34593   1.02958    0.005
 5700.00    1.35788   1.03236    0.005
 5701.00    1.37604   1.03099    0.005
 5702.00    1.39573   1.02706    0.005
 5703.00    1.38862   1.02509    0.005
 5704.00    1.37623   1.02772    0.005
 5705.00    1.28575   1.03191    0.005
 5706.00    1.18327   1.03194    0.005
 5707.00    1.13431   1.02748    0.005
 5708.00    1.09141   1.02318    0.005
 5709.00    1.15172   1.01849    0.005
 5710.00    1.21984   1.01332    0.005
 5711.00    1.30658   1.01152    0.005
 5712.00    1.39407   1.01242    0.005
 5713.00    1.41792   1.01539    0.005
 5714.00    1.43862   1.02504    0.005
 5715.00    1.34971   1.03309    0.005
 5716.00    1.25789   1.03552    0.005
 5717.00    1.11604   1.03633    0.005
 5718.00    0.99003   1.03628    0.005
 5719.00    1.03161   1.03569    0.005
 5720.00    1.07209   1.03727    0.005
 5721.00    1.10437   1.03959    0.005
 5722.00    1.13088   1.03948    0.005
 5723.00    1.12445   1.03836    0.005
 5724.00    1.12458   1.03841    0.005
 5725.00    1.15450   1.03961    0.005
 5726.00    1.16492   1.04108    0.005
 5727.00    1.10280   1.03707    0.005
 5728.00    1.07565   1.03139    0.005
 5729.00    1.15734   1.03173    0.005
 5730.00    1.19612   1.03639    0.005
 5731.00    1.12148   1.03736    0.005
 5732.00    1.08182   1.03310    0.005
 5733.00    1.12156   1.03126    0.005
 5734.00    1.18817   1.03533    0.005
 5735.00    1.30756   1.03906    0.005
 5736.00    1.38066   1.04045    0.005
 5737.00    1.37447   1.03963    0.005
 5738.00    1.34405   1.03809    0.005
 5739.00    1.27727   1.03428    0.005
 5740.00    1.24567   1.02847    0.000
 5741.00    1.26043   1.02649    0.000
 5742.00    1.25267   1.02908    0.000
 5743.00    1.21873   1.03455    0.000
 5744.00    1.18262   1.03406    0.000
 5745.00    1.14428   1.03542    0.000
 5746.00    1.10668   1.03902    0.000
 5747.00    1.06977   1.03997    0.000
 5748.00    1.10306   1.03512    0.000
 5749.00    1.19223   1.02952    0.000
 5750.00    1.21536   1.03103    0.000
 5751.00    1.19226   1.03681    0.000
 5752.00    1.23211   1.03831    0.000
 5753.00    1.31065   1.03303    0.000
 5754.00    1.35494   1.02474    0.000
 5755.00    1.38088   1.02043    0.000
 5756.00    1.35146   1.02409    0.000
 5757.00    1.29626   1.03203    0.000
 5758.00    1.21917   1.03768    0.000
 5759.00    1.13330   1.03992    0.000
 5760.00    1.15838   1.03758    0.000
 5761.00    1.22147   1.03275    0.000
 5762.00    1.25620   1.02704    0.000
 5763.00    1.28276   1.02142    0.000
 5764.00    1.22773   1.01981    0.000
 5765.00    1.15328   1.02599    0.000
 5766.00    1.15897   1.03351    0.000
 5767.00    1.18003   1.03584    0.000
 5768.00    1.23673   1.03582    0.000
 5769.00    1.29873   1.03531    0.000
 5770.00    1.20338   1.03472    0.000
 5771.00    1.09090   1.03470    0.000
 5772.00    1.19513   1.03386    0.000
 5773.00    1.31490   1.03186    0.000
 5774.00    1.36413   1.03067    0.000
 5775.00    1.41076   1.02994    0.000
 5776.00    1.37394   1.02916    0.000
 5777.00    1.33642   1.03066    0.000
 5778.00    1.28666   1.03247    0.000
 5779.00    1.24107   1.03270    0.000
 5780.00    1.26265   1.02990    0.000
 5781.00    1.29703   1.02262    0.000
 5782.00    1.46109   1.01379    0.000
 5783.00    1.58915   1.01086    0.000
 5784.00    1.45629   1.01371    0.000
 5785.00    1.33972   1.01445    0.000
 5786.00    1.31353   1.01224    0.000
 5787.00    1.30438   1.01454    0.000
 5788.00    1.37074   1.02133    0.000
 5789.00    1.44015   1.02589    0.000
 5790.00    1.52067   1.02784    0.000
 5791.00    1.60918   1.02577   -2.000
 5792.00    1.72211   1.02233   -2.000
 5793.00    1.78324   1.02347   -2.000
 5794.00    1.70989   1.02776   -2.000
 5795.00    1.63828   1.03105   -2.000
 5796.00    1.57058   1.03355   -2.000
 5797.00    1.50613   1.03309   -2.000
 5798.00    1.44798   1.02759   -2.000
 5799.00    1.41864   1.02376   -2.000
 5800.00    1.43792   1.02668   -2.000
 5801.00    1.50693   1.02758   -2.000
 5802.00    1.64946   1.02568   -2.000
 5803.00    1.62583   1.02707   -2.000
 5804.00    1.38627   1.03138   -2.000
 5805.00    1.18683   1.03011   -2.000
 5806.00    1.03332   1.02714   -2.000
 5807.00    1.00431   1.02691   -2.000
 5808.00    1.10101   1.02894   -2.000
 5809.00    1.14848   1.03067   -2.000
 5810.00    1.15211   1.03089   -2.000
 5811.00    1.13584   1.02948    0.000
 5812.00    1.10396   1.02554    0.000
 5813.00    1.15279   1.02256    0.000
 5814.00    1.25732   1.02312    0.000
 5815.00    1.36763   1.02643    0.000
 5816.00    1.48143   1.02458    0.000
 5817.00    1.50532   1.02116    0.000
 5818.00    1.48174   1.02191    0.000
 5819.00    1.38757   1.02630    0.000
 5820.00    1.26106   1.02965    0.000
 5821.00    1.22171   1.03113    0.000
 5822.00    1.21675   1.03173    0.000
 5823.00    1.21421   1.03111    0.000
 5824.00    1.21248   1.02998    0.000
 5825.00    1.26842   1.03002    0.000
 5826.00    1.34064   1.03201    0.000
 5827.00    1.39936   1.03352    0.000
 5828.00    1.45495   1.03340    0.000
 5829.00    1.44374   1.03250    0.000
 5830.00    1.42005   1.03211    0.000
 5831.00    1.48565   1.03191    0.000
 5832.00    1.56412   1.03106    0.000
 5833.00    1.50745   1.03082    0.000
 5834.00    1.43663   1.02980    0.000
 5835.00    1.33651   1.02768    0.000
 5836.00    1.23440   1.02653    0.000
 5837.00    1.28519   1.02870    0.000
 5838.00    1.34105   1.02965    0.000
 5839.00    1.35984   1.02743    0.000
 5840.00    1.38097   1.02613    0.000
 5841.00    1.47667   1.02805    0.000
 5842.00    1.56932   1.03081    0.000
 5843.00    1.61591   1.03212    0.000
 5844.00    1.64201   1.03216    0.000
 5845.00    1.46941   1.03106    0.000
 5846.00    1.30991   1.02909    0.000
 5847.00    1.24228   1.02588    0.000
 5848.00    1.17975   1.02149    0.000
 5849.00    1.14473   1.01923    0.000
 5850.00    1.11547   1.01987    0.000
 5851.00    1.11123   1.02086    0.000
 5852.00    1.09481   1.01975    0.000
 5853.00    1.03493   1.01501    0.000
 5854.00    1.00657   1.00848    0.000
 5855.00    1.07262   1.00682    0.000
 5856.00    1.13429   1.01088    0.000
 5857.00    1.18478   1.01136    0.000
 5858.00    1.23019   1.00503    0.000
 5859.00    1.26441   1.00089    0.000
 5860.00    1.28054   1.00481    0.000
 5861.00    1.26224   1.01091    0.000
 5862.00    1.20790   1.01418    0.000
 5863.00    1.09365   1.01323    0.000
 5864.00    1.05865   1.01213    0.000
 5865.00    1.13907   1.01435    0.000
 5866.00    1.23592   1.01606    0.000
 5867.00    1.35382   1.01333    0.000
 5868.00    1.39679   1.01047    0.000
 5869.00    1.35520   1.01255    0.000
 5870.00    1.30069   1.01672    0.000
 5871.00    1.23334   1.01905    0.000
 5872.00    1.19484   1.01910    0.000
 5873.00    1.18168   1.01552    0.000
 5874.00    1.24823   1.01098    0.000
 5875.00    1.37646   0.97550    0.000
 5876.00    1.39614   0.92017    0.000
 5877.00    1.34200   0.89866    0.000
 5878.00    1.32120   0.92783    0.000
 5879.00    1.32028   0.98441    0.000
 5880.00    1.34203   1.00438    0.000
 5881.00    1.37557   1.00512    0.000
 5882.00    1.35469   1.00560    0.000
 5883.00    1.30929   1.00837    0.000
 5884.00    1.20738   1.00837    0.000
 5885.00    1.08358   1.00640    0.000
 5886.00    1.02952   1.00664    0.000
 5887.00    0.99848   1.00816    0.000
 5888.00    0.96212   1.00599    0.000
 5889.00    0.92429   0.98985    0.000
 5890.00    0.86965   0.95446    0.000
 5891.00    0.81118   0.92402    0.000
 5892.00    0.88036   0.92976    0.000
 5893.00    0.97277   0.95865    0.000
 5894.00    1.05514   0.97817    0.000
 5895.00    1.13611   0.98297    0.000
 5896.00    1.14469   0.96621    0.000
 5897.00    1.14601   0.94671    0.000
 5898.00    1.02994   0.95372    0.000
 5899.00    0.90641   0.97495    0.000
 5900.00    0.87652   0.98708    0.000
 5901.00    0.84992   0.99233    0.005
 5902.00    1.01173   0.99811    0.005
 5903.00    1.16697   1.00158    0.005
 5904.00    1.13721   1.00337    0.005
 5905.00    1.10618   1.00458    0.005
 5906.00    1.05718   1.00383    0.005
 5907.00    1.01459   1.00238    0.005
 5908.00    1.03167   1.00337    0.005
 5909.00    1.05556   1.00573    0.005
 5910.00    1.12565   1.00618    0.005
 5911.00    1.19195   1.00568    0.005
 5912.00    1.23833   1.00692    0.005
 5913.00    1.27571   1.00734    0.005
 5914.00    1.27497   1.00288    0.005
 5915.00    1.26298   0.99597    0.005
 5916.00    1.21162   0.99361    0.005
 5917.00    1.16583   0.99546    0.005
 5918.00    1.13639   0.99882    0.005
 5919.00    1.11984   1.00119    0.005
 5920.00    1.13561   1.00140    0.005
 5921.00    1.13980   1.00237    0.005
 5922.00    1.11901   1.00261    0.005
 5923.00    1.06458   1.00148    0.005
 5924.00    0.94706   1.00186    0.005
 5925.00    0.87701   1.00379    0.005
 5926.00    0.88468   1.00560    0.005
 5927.00    0.91036   1.00631    0.005
 5928.00    0.96189   1.00492    0.005
 5929.00    1.00038   1.00157    0.005
 5930.00    1.02241   0.99724    0.005
 5931.00    1.04800   0.99436    0.005
 5932.00    1.07755   0.99592    0.005
 5933.00    1.07649   1.00146    0.005
 5934.00    1.04537   1.00345    0.005
 5935.00    1.01510   1.00086    0.005
 5936.00    0.98556   0.99862    0.005
 5937.00    0.97237   1.00130    0.005
 5938.00    0.97166   1.00479    0.005
 5939.00    0.97462   1.00645    0.005
 5940.00    0.98004   1.00585    0.005
 5941.00    0.98600   1.00137    0.005
 5942.00    0.99226   0.99410    0.005
 5943.00    1.00944   0.99240    0.005
 5944.00    1.03222   0.99653    0.005
 5945.00    1.05401   1.00087    0.005
 5946.00    1.07538   1.00371    0.005
 5947.00    1.10377   1.00553    0.005
 5948.00    1.13484   1.00464    0.005
 5949.00    1.15884   0.99904    0.005
 5950.00    1.18056   0.99431    0.005
 5951.00    1.11029   0.99572    0.005
 5952.00    1.01511   0.99885    0.005
 5953.00    0.96582   0.99633    0.005
 5954.00    0.92673   0.99231    0.005
 5955.00    0.95151   0.99498    0.005
 5956.00    0.98760   0.99893    0.005
 5957.00    1.06475   0.99589    0.005
 5958.00    1.14746   0.99107    0.005
 5959.00    1.18447   0.99151    0.005
 5960.00    1.21709   0.99619    0.005
 5961.00    1.14157   1.00160    0.005
 5962.00    1.05960   1.00434    0.005
 5963.00    1.01024   1.00540    0.005
 5964.00    0.96214   1.00544    0.005
 5965.00    0.98144   1.00462    0.005
 5966.00    1.00263   1.00204    0.005
 5967.00    1.07217   0.99965    0.005
 5968.00    1.13282   1.00088    0.005
 5969.00    1.07391   1.00350    0.005
 5970.00    1.01698   1.00526    0.004
 5971.00    0.97770   1.00643    0.005
 5972.00    0.95227   1.00695    0.005
 5973.00    1.01795   1.00650    0.005
 5974.00    1.07376   1.00582    0.005
 5975.00    1.07892   1.00407    0.005
 5976.00    1.07203   1.00019    0.005
 5977.00    1.01528   0.99537    0.005
 5978.00    0.96892   0.99145    0.005
 5979.00    0.95813   0.98819    0.005
 5980.00    0.94984   0.98914    0.005
 5981.00    0.94876   0.99367    0.005
 5982.00    0.94277   0.99914    0.004
 5983.00    0.92467   1.00004    0.005
 5984.00    0.91158   0.99510    0.005
 5985.00    0.90914   0.98788    0.005
 5986.00    0.91741   0.98665    0.005
 5987.00    0.94547   0.99181    0.005
 5988.00    0.97954   0.99564    0.005
 5989.00    1.02328   0.99575    0.004
 5990.00    1.06398   0.99692    0.004
 5991.00    1.10038   0.99830    0.004
 5992.00    1.14440   0.99751    0.004
 5993.00    1.19793   0.99699    0.004
 5994.00    1.21101   1.00037    0.005
 5995.00    1.17973   1.00419    0.005
 5996.00    1.12075   1.00456    0.005
 5997.00    1.03498   1.00185    0.005
 5998.00    1.03186   0.99799    0.005
 5999.00    1.09928   0.99514    0.005
 6000.00    1.15110   0.99479    0.005
 6001.00    1.19120   0.99644    0.005
 6002.00    1.20606   0.99747    0.005
 6003.00    1.20425   0.99515    0.005
 6004.00    1.15804   0.99193    0.005
 6005.00    1.08617   0.99320    0.005
 6006.00    1.06958   0.99573    0.005
 6007.00    1.08084   0.99444    0.005
 6008.00    1.11398   0.98943    0.005
 6009.00    1.15665   0.98414    0.005
 6010.00    1.11951   0.98592    0.005
 6011.00    1.05251   0.99381    0.005
 6012.00    1.03786   0.99838    0.005
 6013.00    1.03984   0.99575    0.005
 6014.00    1.07066   0.99078    0.005
 6015.00    1.10913   0.99048    0.005
 6016.00    1.13927   0.99326    0.005
 6017.00    1.16761   0.99245    0.005
 6018.00    1.08500   0.99068    0.005
 6019.00    0.98330   0.99211    0.005
 6020.00    0.92099   0.99205    0.005
 6021.00    0.86382   0.98833    0.005
 6022.00    0.85754   0.98621    0.004
 6023.00    0.85595   0.98777    0.004
 6024.00    0.87302   0.98947    0.004
 6025.00    0.89112   0.98979    0.004
 6026.00    0.95805   0.99247    0.004
 6027.00    1.02488   0.99537    0.004
 6028.00    0.97515   0.99493    0.005
 6029.00    0.92897   0.99547    0.005
 6030.00    0.96522   0.99792    0.004
 6031.00    1.00191   0.99854    0.004
 6032.00    1.04415   0.99749    0.005
 6033.00    1.08076   0.99760    0.005
 6034.00    1.06892   0.99950    0.005
 6035.00    1.05037   1.00073    0.005
 6036.00    0.98900   1.00039    0.005
 6037.00    0.93848   0.99923    0.005
 6038.00    0.94220   0.99883    0.005
 6039.00    0.93594   0.99892    0.005
 6040.00    0.88929   0.99814    0.005
 6041.00    0.86994   0.99683    0.005
 6042.00    0.94231   0.99641    0.005
 6043.00    1.01643   0.99604    0.005
 6044.00    1.09552   0.99756    0.005
 6045.00    1.16513   1.00019    0.005
 6046.00    1.21174   1.00154    0.004
 6047.00    1.23122   1.00157    0.004
 6048.00    1.19397   1.00146    0.004
 6049.00    1.17472   1.00092    0.004
 6050.00    1.18815   1.00017    0.004
 6051.00    1.18253   1.00098    0.004
 6052.00    1.14663   1.00215    0.005
 6053.00    1.10774   1.00103    0.005
 6054.00    1.06466   0.99817    0.004
 6055.00    1.04367   0.99602    0.004
 6056.00    1.04978   0.99409    0.005
 6057.00    1.01544   0.99187    0.004
 6058.00    0.93734   0.99154    0.004
 6059.00    0.89669   0.99322    0.004
 6060.00    0.89178   0.99622    0.005
 6061.00    0.88083   0.99860    0.005
 6062.00    0.86481   0.99914    0.005
 6063.00    0.88517   0.99734    0.005
 6064.00    0.93248   0.99423    0.005
 6065.00    0.97545   0.98922    0.005
 6066.00    1.01561   0.98221    0.005
 6067.00    1.01918   0.98199    0.005
 6068.00    1.00193   0.99049    0.005
 6069.00    0.98321   0.99812    0.005
 6070.00    0.96378   1.00086    0.005
 6071.00    0.96727   1.00125    0.005
 6072.00    0.98059   1.00133    0.005
 6073.00    0.98327   1.00150    0.005
 6074.00    0.98205   1.00087    0.005
 6075.00    0.99170   1.00031    0.005
 6076.00    1.00474   1.00030    0.005
 6077.00    1.01159   0.99955    0.004
 6078.00    1.01683   0.99686    0.004
 6079.00    1.03140   0.99165    0.004
 6080.00    1.04796   0.98812    0.004
 6081.00    1.05203   0.98893    0.004
 6082.00    1.05403   0.98897    0.004
 6083.00    1.01894   0.98656    0.004
 6084.00    0.97917   0.98647    0.004
 6085.00    0.95249   0.98834    0.004
 6086.00    0.92696   0.98793    0.004
 6087.00    0.94902   0.98765    0.004
 6088.00    0.97355   0.98997    0.004
 6089.00    0.95661   0.99236    0.004
 6090.00    0.93948   0.99065    0.004
 6091.00    0.96436   0.98607    0.004
 6092.00    0.98893   0.98415    0.004
 6093.00    1.00695   0.98542    0.004
 6094.00    1.01904   0.98662    0.004
 6095.00    0.95933   0.98954    0.004
 6096.00    0.91036   0.99391    0.004
 6097.00    0.95046   0.99493    0.005
 6098.00    0.98525   0.99300    0.005
 6099.00    0.98709   0.99314    0.005
 6100.00    0.99433   0.99556    0.005
 6101.00    1.02786   0.99678    0.005
 6102.00    1.06807   0.99150    0.005
 6103.00    1.13471   0.97676    0.005
 6104.00    1.16989   0.96598    0.005
 6105.00    1.10152   0.97269    0.005
 6106.00    1.03502   0.98549    0.005
 6107.00    0.97369   0.99139    0.005
 6108.00    0.94210   0.99023    0.005
 6109.00    0.98134   0.98753    0.005
 6110.00    1.00747   0.98911    0.005
 6111.00    1.00665   0.99176    0.005
 6112.00    1.01054   0.98999    0.004
 6113.00    1.02284   0.98811    0.004
 6114.00    1.04979   0.99041    0.004
 6115.00    1.09964   0.99371    0.004
 6116.00    1.11079   0.99366    0.004
 6117.00    1.06872   0.98973    0.004
 6118.00    1.02169   0.98785    0.004
 6119.00    0.96867   0.98974    0.004
 6120.00    0.93761   0.98885    0.004
 6121.00    0.92997   0.98365    0.004
 6122.00    0.90507   0.97566    0.004
 6123.00    0.86394   0.96746    0.004
 6124.00    0.83571   0.96977    0.004
 6125.00    0.81819   0.98112    0.004
 6126.00    0.82617   0.98691    0.004
 6127.00    0.85277   0.98558    0.005
 6128.00    0.82765   0.98305    0.005
 6129.00    0.76938   0.98154    0.004
 6130.00    0.76828   0.98255    0.004
 6131.00    0.79924   0.98673    0.005
 6132.00    0.87363   0.99033    0.005
 6133.00    0.96921   0.99075    0.005
 6134.00    1.02702   0.99010    0.005
 6135.00    1.06890   0.98765    0.005
 6136.00    1.11569   0.97982    0.005
 6137.00    1.16424   0.96468    0.005
 6138.00    1.15432   0.95009    0.005
 6139.00    1.12655   0.95283    0.005
 6140.00    1.05668   0.97124    0.005
 6141.00    0.97612   0.98367    0.005
 6142.00    0.95020   0.97955    0.005
 6143.00    0.93556   0.97214    0.004
 6144.00    0.98345   0.97600    0.004
 6145.00    1.04151   0.98554    0.004
 6146.00    1.05764   0.99091    0.004
 6147.00    1.06867   0.99115    0.004
 6148.00    0.99482   0.98868    0.004
 6149.00    0.91388   0.98339    0.004
 6150.00    0.96721   0.97675    0.004
 6151.00    1.02697   0.97133    0.004
 6152.00    1.08082   0.97075    0.004
 6153.00    1.13349   0.97534    0.004
 6154.00    1.12252   0.98067    0.004
 6155.00    1.11184   0.98057    0.004
 6156.00    1.10691   0.97635    0.005
 6157.00    1.09636   0.97521    0.005
 6158.00    1.02088   0.97504    0.005
 6159.00    0.95415   0.97391    0.005
 6160.00    0.95744   0.97240    0.005
 6161.00    0.97128   0.96681    0.005
 6162.00    1.04868   0.95242    0.005
 6163.00    1.10308   0.93721    0.005
 6164.00    1.04818   0.93446    0.005
 6165.00    0.98352   0.94341    0.005
 6166.00    0.88106   0.95369    0.005
 6167.00    0.80628   0.95880    0.005
 6168.00    0.82085   0.96153    0.005
 6169.00    0.83307   0.95988    0.004
 6170.00    0.83886   0.94919    0.004
 6171.00    0.84334   0.94222    0.004
 6172.00    0.84471   0.94951    0.004
 6173.00    0.85968   0.96067    0.004
 6174.00    0.90216   0.96345    0.004
 6175.00    0.92969   0.96280    0.004
 6176.00    0.93085   0.96361    0.004
 6177.00    0.94252   0.96392    0.004
 6178.00    0.97039   0.96382    0.004
 6179.00    1.00193   0.96673    0.004
 6180.00    1.03843   0.96922    0.004
 6181.00    1.06224   0.96828    0.004
 6182.00    1.07092   0.96862    0.004
 6183.00    1.08015   0.97093    0.004
 6184.00    1.08995   0.97216    0.004
 6185.00    1.06692   0.97206    0.005
 6186.00    1.01343   0.97060    0.005
 6187.00    0.93842   0.96653    0.005
 6188.00    0.84581   0.96205    0.005
 6189.00    0.80764   0.95996    0.005
 6190.00    0.80864   0.95982    0.005
 6191.00    0.90965   0.95641    0.005
 6192.00    1.07383   0.94653    0.005
 6193.00    1.38783   0.94290    0.005
 6194.00    1.78456   0.95207    0.005
 6195.00    2.35910   0.96183    0.005
 6196.00    3.01901   0.96552   -2.000
 6197.00    3.18957   0.96708   -2.000
 6198.00    3.15727   0.96894   -2.000
 6199.00    2.56325   0.96778   -2.000
 6200.00    1.77012   0.96127   -2.000
 6201.00    0.97919   0.95528   -2.000
 6202.00    0.18891   0.95707   -2.000
 6203.00    0.11593   0.96348   -2.000
 6204.00    0.22112   0.96795   -2.000
 6205.00    0.50586   0.96875   -2.000
 6206.00    0.82675   0.96822   -2.000
 6207.00    0.93804   0.96892   -2.000
 6208.00    1.01627   0.96986    0.005
 6209.00    1.04514   0.97009    0.005
 6210.00    1.06822   0.96950    0.004
 6211.00    1.05058   0.96761    0.004
 6212.00    1.02971   0.96528    0.004
 6213.00    0.97542   0.96226    0.004
 6214.00    0.91965   0.95536    0.004
 6215.00    0.93062   0.94785    0.004
 6216.00    0.94266   0.94462    0.004
 6217.00    0.97131   0.94576    0.004
 6218.00    0.99710   0.95109    0.004
 6219.00    0.97093   0.95508    0.004
 6220.00    0.94895   0.95223    0.004
 6221.00    0.97319   0.94823    0.004
 6222.00    0.99789   0.94903    0.004
 6223.00    1.02620   0.95276    0.004
 6224.00    1.05703   0.95490    0.004
 6225.00    1.10262   0.95393    0.004
 6226.00    1.14760   0.95366    0.004
 6227.00    1.18978   0.95515    0.004
 6228.00    1.22917   0.95610    0.005
 6229.00    1.25800   0.95564    0.004
 6230.00    1.26130   0.95080    0.004
 6231.00    1.18380   0.94025    0.004
 6232.00    1.11210   0.93267    0.004
 6233.00    1.05596   0.93485    0.004
 6234.00    1.01672   0.94157    0.004
 6235.00    1.01635   0.95003    0.004
 6236.00    0.99347   0.95759    0.004
 6237.00    0.92573   0.95973    0.004
 6238.00    0.86218   0.95677    0.004
 6239.00    0.80589   0.95148    0.004
 6240.00    0.74902   0.94612    0.004
 6241.00    0.69124   0.94258    0.004
 6242.00    0.67990   0.94386    0.004
 6243.00    0.73055   0.94505    0.004
 6244.00    0.79358   0.94082    0.004
 6245.00    0.87114   0.93874    0.004
 6246.00    0.93901   0.94046    0.004
 6247.00    0.99682   0.94052    0.005
 6248.00    1.04197   0.94272    0.005
 6249.00    1.07552   0.94923    0.005
 6250.00    1.05711   0.95470    0.004
 6251.00    0.99681   0.95662    0.004
 6252.00    0.94594   0.95327    0.004
 6253.00    0.90176   0.94441    0.004
 6254.00    0.92154   0.93778    0.004
 6255.00    0.98111   0.93761    0.004
 6256.00    1.10844   0.93997    0.004
 6257.00    1.27262   0.93926    0.004
 6258.00    1.46645   0.93523    0.005
 6259.00    1.67430   0.93089    0.005
 6260.00    1.61623   0.93224    0.005
 6261.00    1.44979   0.93975    0.005
 6262.00    1.13399   0.94529    0.005
 6263.00    0.76620   0.94977    0.006
 6264.00    0.52539   0.95532    0.006
 6265.00    0.32182   0.95616    0.005
 6266.00    0.46617   0.95096    0.005
 6267.00    0.69504   0.94897    0.005
 6268.00    0.86597   0.95248    0.005
 6269.00    1.02553   0.95410    0.005
 6270.00    1.00324   0.95205    0.005
 6271.00    0.95313   0.95051    0.005
 6272.00    0.95923   0.95156    0.004
 6273.00    0.97166   0.95436    0.004
 6274.00    1.01116   0.95637    0.004
 6275.00    1.05270   0.95598    0.005
 6276.00    1.00601   0.95531    0.004
 6277.00    0.95577   0.95569    0.004
 6278.00    0.93113   0.95566    0.004
 6279.00    0.90653   0.95468    0.005
 6280.00    0.87650   0.95168    0.000
 6281.00    0.84828   0.94650    0.000
 6282.00    0.85098   0.94448    0.000
 6283.00    0.85743   0.94741    0.000
 6284.00    0.90331   0.95167    0.000
 6285.00    0.93552   0.95469    0.000
 6286.00    0.86564   0.95468    0.000
 6287.00    0.80190   0.95485    0.000
 6288.00    0.77301   0.95782    0.000
 6289.00    0.76221   0.96100    0.000
 6290.00    0.83332   0.96255    0.000
 6291.00    0.90354   0.96046    0.000
 6292.00    0.97047   0.95661    0.000
 6293.00    1.00987   0.95413    0.000
 6294.00    0.96384   0.95348    0.000
 6295.00    0.91868   0.95493    0.000
 6296.00    0.87582   0.95527    0.000
 6297.00    0.85127   0.95086    0.000
 6298.00    0.86817   0.94528    0.000
 6299.00    0.89399   0.94457    0.000
 6300.00    0.93731   0.94813    0.000
 6301.00    0.94074   0.94930    0.000
 6302.00    0.87596   0.94514    0.000
 6303.00    0.84943   0.94126    0.000
 6304.00    0.88016   0.94353    0.000
 6305.00    0.89790   0.94883    0.000
 6306.00    0.89854   0.95101    0.000
 6307.00    0.85680   0.95163    0.000
 6308.00    0.76593   0.95550    0.000
 6309.00    0.73960   0.95973    0.000
 6310.00    0.77924   0.95944    0.000
 6311.00    0.81460   0.95585    0.000
 6312.00    0.84607   0.95199    0.000
 6313.00    0.84426   0.95050    0.000
 6314.00    0.81600   0.95146    0.000
 6315.00    0.82205   0.94961    0.000
 6316.00    0.85210   0.94520    0.000
 6317.00    0.85542   0.94539    0.000
 6318.00    0.84236   0.94702    0.000
 6319.00    0.83811   0.94322    0.000
 6320.00    0.83858   0.94184    0.000
 6321.00    0.85003   0.94718    0.004
 6322.00    0.86660   0.95174    0.004
 6323.00    0.88155   0.95193    0.004
 6324.00    0.89585   0.95243    0.004
 6325.00    0.92634   0.95579    0.004
 6326.00    0.96236   0.95845    0.004
 6327.00    0.93884   0.95910    0.004
 6328.00    0.89821   0.95793    0.004
 6329.00    0.88542   0.95773    0.004
 6330.00    0.87925   0.95854    0.004
 6331.00    0.93286   0.95708    0.004
 6332.00    0.99792   0.95621    0.004
 6333.00    1.01522   0.95897    0.004
 6334.00    1.02544   0.96184    0.004
 6335.00    1.00545   0.95895    0.004
 6336.00    0.98218   0.94901    0.004
 6337.00    1.06516   0.94072    0.004
 6338.00    1.15569   0.94191    0.004
 6339.00    1.21768   0.94807    0.004
 6340.00    1.27862   0.95220    0.004
 6341.00    1.20120   0.95561    0.004
 6342.00    1.12388   0.95923    0.004
 6343.00    1.06816   0.95939    0.004
 6344.00    1.01920   0.95470    0.004
 6345.00    1.07808   0.94839    0.004
 6346.00    1.12503   0.94534    0.004
 6347.00    1.05185   0.94161    0.004
 6348.00    0.97474   0.93981    0.004
 6349.00    0.86925   0.94292    0.004
 6350.00    0.78026   0.95163    0.004
 6351.00    0.78260   0.95799    0.004
 6352.00    0.78065   0.95921    0.004
 6353.00    0.75970   0.95851    0.004
 6354.00    0.74933   0.95620    0.004
 6355.00    0.77737   0.95123    0.004
 6356.00    0.81233   0.94665    0.004
 6357.00    0.86837   0.94693    0.005
 6358.00    0.91731   0.94786    0.005
 6359.00    0.94789   0.94335    0.005
 6360.00    0.96191   0.93845    0.005
 6361.00    0.93907   0.93874    0.005
 6362.00    0.93284   0.93975    0.005
 6363.00    0.95871   0.93807    0.005
 6364.00    0.97330   0.93713    0.005
 6365.00    0.96891   0.93940    0.005
 6366.00    0.95718   0.94318    0.004
 6367.00    0.93461   0.94641    0.004
 6368.00    0.94216   0.94991    0.004
 6369.00    0.98879   0.95352    0.004
 6370.00    1.01902   0.95450    0.005
 6371.00    1.03051   0.94944    0.004
 6372.00    0.99783   0.94512    0.004
 6373.00    0.92065   0.94700    0.004
 6374.00    0.86596   0.95350    0.004
 6375.00    0.83128   0.95881    0.004
 6376.00    0.80359   0.95931    0.004
 6377.00    0.78140   0.95894    0.004
 6378.00    0.76709   0.95819    0.004
 6379.00    0.75821   0.95471    0.004
 6380.00    0.77829   0.95033    0.004
 6381.00    0.81585   0.94835    0.004
 6382.00    0.84048   0.94893    0.004
 6383.00    0.85829   0.95155    0.004
 6384.00    0.84973   0.95365    0.004
 6385.00    0.82910   0.95266    0.004
 6386.00    0.80261   0.95128    0.004
 6387.00    0.77382   0.95243    0.004
 6388.00    0.80638   0.95454    0.004
 6389.00    0.85951   0.95505    0.004
 6390.00    0.95377   0.95465    0.004
 6391.00    1.05962   0.95472    0.004
 6392.00    0.98196   0.95409    0.004
 6393.00    0.86172   0.94923    0.004
 6394.00    0.75029   0.93998    0.004
 6395.00    0.64051   0.93625    0.004
 6396.00    0.69204   0.94313    0.004
 6397.00    0.76676   0.95220    0.004
 6398.00    0.80950   0.95702    0.004
 6399.00    0.84890   0.95629    0.004
 6400.00    0.81804   0.94696    0.004
 6401.00    0.78245   0.93435    0.004
 6402.00    0.80157   0.93386    0.004
 6403.00    0.82247   0.94503    0.004
 6404.00    0.84162   0.95391    0.004
 6405.00    0.85913   0.95752    0.004
 6406.00    0.82557   0.95743    0.004
 6407.00    0.79210   0.95431    0.004
 6408.00    0.75978   0.94865    0.004
 6409.00    0.74498   0.94416    0.004
 6410.00    0.89936   0.94697    0.004
 6411.00    1.03670   0.95163    0.004
 6412.00    1.05498   0.94871    0.004
 6413.00    1.05294   0.94424    0.004
 6414.00    0.94148   0.94549    0.004
 6415.00    0.84145   0.94881    0.004
 6416.00    0.79085   0.95066    0.004
 6417.00    0.74979   0.95188    0.004
 6418.00    0.74264   0.95251    0.004
 6419.00    0.74786   0.95184    0.004
 6420.00    0.79003   0.94854    0.004
 6421.00    0.83122   0.94143    0.004
 6422.00    0.86987   0.93555    0.004
 6423.00    0.88820   0.93902    0.004
 6424.00    0.86200   0.94932    0.004
 6425.00    0.85833   0.95545    0.004
 6426.00    0.89747   0.95590    0.004
 6427.00    0.93928   0.95601    0.004
 6428.00    0.98553   0.95757    0.004
 6429.00    1.01171   0.95822    0.004
 6430.00    1.00871   0.95491    0.005
 6431.00    0.98448   0.94593    0.005
 6432.00    0.93310   0.93774    0.005
 6433.00    0.88580   0.93874    0.005
 6434.00    0.84311   0.94567    0.004
 6435.00    0.82443   0.95160    0.004
 6436.00    0.82961   0.95493    0.005
 6437.00    0.79600   0.95660    0.005
 6438.00    0.72840   0.95541    0.004
 6439.00    0.68757   0.94738    0.004
 6440.00    0.66740   0.93806    0.004
 6441.00    0.67742   0.94032    0.004
 6442.00    0.70793   0.95136    0.004
 6443.00    0.71749   0.95903    0.004
 6444.00    0.71459   0.96130    0.004
 6445.00    0.73707   0.96136    0.004
 6446.00    0.77273   0.96109    0.004
 6447.00    0.77201   0.96126    0.004
 6448.00    0.75493   0.96038    0.004
 6449.00    0.73414   0.95437    0.004
 6450.00    0.71192   0.93994    0.004
 6451.00    0.73693   0.92675    0.004
 6452.00    0.77748   0.92918    0.004
 6453.00    0.84655   0.94172    0.004
 6454.00    0.92349   0.95121    0.004
 6455.00    0.94749   0.95294    0.004
 6456.00    0.95949   0.94707    0.004
 6457.00    0.94335   0.94070    0.004
 6458.00    0.92211   0.94249    0.004
 6459.00    0.89252   0.95057    0.004
 6460.00    0.86178   0.95798    0.004
 6461.00    0.83329   0.95979    0.004
 6462.00    0.80502   0.95268    0.005
 6463.00    0.76434   0.93669    0.004
 6464.00    0.72288   0.92640    0.004
 6465.00    0.73290   0.93370    0.004
 6466.00    0.74450   0.94635    0.005
 6467.00    0.78297   0.95315    0.004
 6468.00    0.82298   0.95599    0.004
 6469.00    0.90586   0.95642    0.004
 6470.00    0.98544   0.95428    0.004
 6471.00    1.01862   0.95099    0.004
 6472.00    1.05298   0.94715    0.004
 6473.00    1.09836   0.94532    0.004
 6474.00    1.13856   0.94746    0.004
 6475.00    1.14375   0.94777    0.004
 6476.00    1.14296   0.94393    0.004
 6477.00    1.11085   0.94284    0.004
 6478.00    1.07079   0.94652    0.004
 6479.00    0.99722   0.94927    0.004
 6480.00    0.93302   0.94909    0.004
 6481.00    0.90153   0.94670    0.004
 6482.00    0.85568   0.93894    0.004
 6483.00    0.76773   0.92944    0.004
 6484.00    0.71923   0.92645    0.004
 6485.00    0.76944   0.93221    0.004
 6486.00    0.83042   0.93937    0.004
 6487.00    0.91461   0.94311    0.004
 6488.00    0.93810   0.94483    0.004
 6489.00    0.84799   0.94556    0.004
 6490.00    0.77990   0.94449    0.004
 6491.00    0.74775   0.94130    0.004
 6492.00    0.74233   0.93764    0.004
 6493.00    0.77519   0.93429    0.004
 6494.00    0.79360   0.92611    0.004
 6495.00    0.79379   0.91094    0.004
 6496.00    0.80433   0.89898    0.004
 6497.00    0.82639   0.89652    0.004
 6498.00    0.84470   0.90091    0.004
 6499.00    0.85933   0.90896    0.004
 6500.00    0.87814   0.91535    0.004
 6501.00    0.90055   0.92143    0.004
 6502.00    0.88257   0.92900    0.004
 6503.00    0.83383   0.93495    0.004
 6504.00    0.81006   0.93804    0.004
 6505.00    0.80299   0.93941    0.004
 6506.00    0.83336   0.94012    0.004
 6507.00    0.88566   0.94098    0.004
 6508.00    0.94538   0.94056    0.004
 6509.00    1.00890   0.93824    0.004
 6510.00    1.02146   0.93707    0.004
 6511.00    1.01149   0.93903    0.004
 6512.00    0.96024   0.94148    0.004
 6513.00    0.89331   0.94197    0.004
 6514.00    0.84485   0.94140    0.004
 6515.00    0.80236   0.93979    0.004
 6516.00    0.81544   0.93594    0.004
 6517.00    0.84353   0.93146    0.005
 6518.00    0.90142   0.92866    0.004
 6519.00    0.96590   0.92699    0.004
 6520.00    0.93869   0.92759    0.004
 6521.00    0.89530   0.93215    0.004
 6522.00    0.88800   0.93703    0.004
 6523.00    0.88555   0.93870    0.004
 6524.00    0.95007   0.93760    0.004
 6525.00    1.02099   0.93677    0.004
 6526.00    1.02364   0.93614    0.004
 6527.00    1.02224   0.93308    0.004
 6528.00    0.95300   0.92950    0.000
 6529.00    0.88250   0.92989    0.000
 6530.00    0.87697   0.93380    0.000
 6531.00    0.87226   0.93686    0.000
 6532.00    0.88801   0.93611    0.000
 6533.00    0.90425   0.93261    0.000
 6534.00    0.92686   0.92997    0.000
 6535.00    0.95030   0.93096    0.000
 6536.00    0.98099   0.93472    0.000
 6537.00    1.00186   0.93736    0.000
 6538.00    0.95836   0.93668    0.000
 6539.00    0.92177   0.93528    0.000
 6540.00    0.92046   0.93609    0.000
 6541.00    0.92150   0.93783    0.000
 6542.00    0.93222   0.93718    0.000
 6543.00    0.94355   0.93347    0.000
 6544.00    0.95691   0.92878    0.000
 6545.00    0.95063   0.92426    0.000
 6546.00    0.88777   0.91748    0.000
 6547.00    0.83458   0.90927    0.000
 6548.00    0.80518   0.90652    0.000
 6549.00    0.80053   0.91082    0.000
 6550.00    0.84838   0.91381    0.000
 6551.00    0.88674   0.91114    0.000
 6552.00    0.90762   0.90547    0.000
 6553.00    0.92362   0.89993    0.000
 6554.00    0.93175   0.89438    0.000
 6555.00    0.99607   0.88561    0.000
 6556.00    1.13976   0.87400    0.000
 6557.00    1.34859   0.86303    0.000
 6558.00    1.63836   0.85314    0.000
 6559.00    1.83099   0.83911    0.000
 6560.00    1.91720   0.81734    0.000
 6561.00    1.84519   0.78549    0.000
 6562.00    1.62032   0.73105    0.000
 6563.00    1.38538   0.65324    0.000
 6564.00    1.14184   0.60161    0.000
 6565.00    0.99433   0.62882    0.000
 6566.00    0.91886   0.70862    0.000
 6567.00    0.89044   0.77886    0.000
 6568.00    0.89303   0.82084    0.000
 6569.00    0.85657   0.84416    0.000
 6570.00    0.79759   0.85677    0.000
 6571.00    0.76086   0.86680    0.000
 6572.00    0.73532   0.87707    0.000
 6573.00    0.71843   0.88268    0.000
 6574.00    0.70530   0.88329    0.000
 6575.00    0.69416   0.88405    0.000
 6576.00    0.68375   0.88891    0.000
 6577.00    0.79053   0.89512    0.000
 6578.00    0.93442   0.89805    0.000
 6579.00    0.99097   0.89941    0.000
 6580.00    1.02443   0.90161    0.000
 6581.00    1.02564   0.90642    0.000
 6582.00    1.01987   0.90859    0.000
 6583.00    0.98306   0.90574    0.000
 6584.00    0.94093   0.90718    0.000
 6585.00    0.85941   0.91143    0.000
 6586.00    0.77276   0.91769    0.000
 6587.00    0.71013   0.92052    0.000
 6588.00    0.64969   0.92216    0.000
 6589.00    0.72066   0.92608    0.000
 6590.00    0.79889   0.92959    0.000
 6591.00    0.88022   0.93085    0.000
 6592.00    0.95974   0.92798    0.000
 6593.00    0.86138   0.91800    0.000
 6594.00    0.76510   0.90563    0.000
 6595.00    0.71668   0.90307    0.000
 6596.00    0.67398   0.91241    0.000
 6597.00    0.70391   0.92220    0.000
 6598.00    0.73870   0.92485    0.000
 6599.00    0.81520   0.92212    0.000
 6600.00    0.88549   0.92025    0.000
 6601.00    0.91628   0.92365    0.000
 6602.00    0.93500   0.92932    0.000
 6603.00    0.89359   0.93211    0.000
 6604.00    0.85744   0.93132    0.000
 6605.00    0.84250   0.92811    0.000
 6606.00    0.82390   0.92478    0.000
 6607.00    0.79304   0.92322    0.000
 6608.00    0.77869   0.92253    0.000
 6609.00    0.81102   0.91964    0.005
 6610.00    0.84539   0.91509    0.005
 6611.00    0.88471   0.91573    0.005
 6612.00    0.91771   0.92270    0.005
 6613.00    0.93752   0.92818    0.005
 6614.00    0.95356   0.92835    0.005
 6615.00    0.96276   0.92661    0.005
 6616.00    0.93228   0.92808    0.005
 6617.00    0.83885   0.93080    0.005
 6618.00    0.81335   0.93115    0.005
 6619.00    0.88239   0.93021    0.005
 6620.00    0.96062   0.93008    0.005
 6621.00    1.05012   0.93099    0.004
 6622.00    1.06013   0.93164    0.004
 6623.00    0.98430   0.93106    0.004
 6624.00    0.91469   0.92833    0.004
 6625.00    0.85101   0.92322    0.004
 6626.00    0.81126   0.91904    0.004
 6627.00    0.79161   0.91952    0.004
 6628.00    0.77743   0.92269    0.004
 6629.00    0.76731   0.92448    0.004
 6630.00    0.78338   0.92454    0.005
 6631.00    0.81645   0.92407    0.005
 6632.00    0.75052   0.92334    0.005
 6633.00    0.62831   0.92151    0.005
 6634.00    0.65998   0.91714    0.005
 6635.00    0.76779   0.91333    0.005
 6636.00    0.83005   0.91474    0.005
 6637.00    0.87283   0.91975    0.005
 6638.00    0.83451   0.92372    0.005
 6639.00    0.76645   0.92517    0.005
 6640.00    0.73164   0.92407    0.005
 6641.00    0.70716   0.92229    0.005
 6642.00    0.69887   0.92312    0.005
 6643.00    0.69476   0.92337    0.005
 6644.00    0.75436   0.91852    0.005
 6645.00    0.82739   0.91421    0.005
 6646.00    0.88900   0.91668    0.005
 6647.00    0.94869   0.92149    0.004
 6648.00    0.86278   0.92303    0.004
 6649.00    0.75859   0.92277    0.004
 6650.00    0.70987   0.92322    0.004
 6651.00    0.66599   0.92306    0.005
 6652.00    0.72207   0.92094    0.005
 6653.00    0.78328   0.91871    0.005
 6654.00    0.85442   0.91829    0.005
 6655.00    0.92473   0.91908    0.005
 6656.00    0.92408   0.91983    0.005
 6657.00    0.92159   0.91977    0.005
 6658.00    0.88031   0.91948    0.005
 6659.00    0.83482   0.91990    0.005
 6660.00    0.73869   0.91998    0.005
 6661.00    0.65249   0.91916    0.005
 6662.00    0.64831   0.91779    0.005
 6663.00    0.64683   0.91457    0.005
 6664.00    0.66205   0.90885    0.005
 6665.00    0.66932   0.90669    0.005
 6666.00    0.63798   0.91035    0.005
 6667.00    0.62876   0.91341    0.005
 6668.00    0.70687   0.91358    0.005
 6669.00    0.78231   0.91387    0.004
 6670.00    0.84896   0.91649    0.004
 6671.00    0.88598   0.92006    0.004
 6672.00    0.84069   0.92202    0.004
 6673.00    0.80729   0.92198    0.005
 6674.00    0.80218   0.92146    0.005
 6675.00    0.78641   0.92093    0.005
 6676.00    0.74880   0.92017    0.005
 6677.00    0.71338   0.91077    0.005
 6678.00    0.68184   0.88363    0.005
 6679.00    0.66334   0.85872    0.005
 6680.00    0.66519   0.85695    0.005
 6681.00    0.66923   0.87772    0.005
 6682.00    0.67627   0.89922    0.005
 6683.00    0.70176   0.90581    0.005
 6684.00    0.74952   0.90714    0.005
 6685.00    0.76294   0.90950    0.005
 6686.00    0.73980   0.91167    0.005
 6687.00    0.75869   0.91281    0.005
 6688.00    0.81707   0.91317    0.005
 6689.00    0.78461   0.91331    0.005
 6690.00    0.67696   0.91390    0.005
 6691.00    0.64369   0.91495    0.005
 6692.00    0.66463   0.91579    0.005
 6693.00    0.68171   0.91587    0.005
 6694.00    0.69631   0.91585    0.005
 6695.00    0.74284   0.91563    0.005
 6696.00    0.80726   0.91350    0.000
 6697.00    0.75924   0.90975    0.000
 6698.00    0.65648   0.90803    0.000
 6699.00    0.63985   0.90953    0.000
 6700.00    0.65946   0.91187    0.000
 6701.00    0.66446   0.91425    0.000
 6702.00    0.66420   0.91590    0.000
 6703.00    0.63107   0.91545    0.000
 6704.00    0.58792   0.91300    0.000
 6705.00    0.59531   0.91033    0.000
 6706.00    0.61550   0.90994    0.000
 6707.00    0.79012   0.91217    0.000
 6708.00    0.99652   0.91437    0.000
 6709.00    0.98941   0.91499    0.000
 6710.00    0.94772   0.91457    0.000
 6711.00    0.93165   0.91330    0.000
 6712.00    0.91867   0.91277    0.000
 6713.00    1.01938   0.91324    0.000
 6714.00    1.12952   0.91204    0.000
 6715.00    1.06107   0.90893    0.000
 6716.00    0.98415   0.90522    0.000
 6717.00    1.02697   0.90057    0.000
 6718.00    1.06940   0.89454    0.000
 6719.00    0.99537   0.89170    0.000
 6720.00    0.92050   0.89634    0.000
 6721.00    0.82926   0.90224    0.000
 6722.00    0.75348   0.90372    0.000
 6723.00    0.85513   0.90297    0.000
 6724.00    0.94377   0.90448    0.000
 6725.00    0.92884   0.90746    0.000
 6726.00    0.91380   0.90761    0.000
 6727.00    0.89807   0.90580    0.000
 6728.00    0.89815   0.90552    0.000
 6729.00    0.97312   0.90751    0.000
 6730.00    1.02236   0.90920    0.000
 6731.00    0.97217   0.90986    0.000
 6732.00    0.91251   0.90997    0.000
 6733.00    0.82241   0.90942    0.000
 6734.00    0.79542   0.90885    0.000
 6735.00    0.94050   0.90899    0.000
 6736.00    1.02980   0.90954    0.000
 6737.00    0.98877   0.91037    0.000
 6738.00    0.93155   0.91016    0.000
 6739.00    0.84161   0.90775    0.000
 6740.00    0.81545   0.90487    0.000
 6741.00    0.90151   0.90453    0.000
 6742.00    0.94791   0.90622    0.000
 6743.00    0.93324   0.90590    0.000
 6744.00    0.87402   0.90231    0.000
 6745.00    0.75458   0.90132    0.000
 6746.00    0.70137   0.90376    0.000
 6747.00    0.72701   0.90546    0.000
 6748.00    0.73818   0.90539    0.000
 6749.00    0.73415   0.90381    0.000
 6750.00    0.79913   0.90124    0.000
 6751.00    0.92801   0.89923    0.000
 6752.00    0.98951   0.90021    0.000
 6753.00    0.99600   0.90189    0.006
 6754.00    0.94796   0.90145    0.006
 6755.00    0.86074   0.90230    0.006
 6756.00    0.60273   0.90497    0.006
 6757.00    0.23704   0.90704    0.006
 6758.00    0.24562   0.90844    0.006
 6759.00    0.46050   0.90989    0.006
 6760.00    0.57208   0.91117    0.006
 6761.00    0.63415   0.91213    0.006
 6762.00    0.62595   0.91190    0.006
 6763.00    0.58869   0.91078    0.006
 6764.00    0.73100   0.91059    0.006
 6765.00    0.93682   0.91138    0.006
 6766.00    1.04756   0.91120    0.006
 6767.00    1.12991   0.90837    0.006
 6768.00    1.07363   0.90363    0.006
 6769.00    0.98301   0.90131    0.006
 6770.00    0.73768   0.90362    0.006
 6771.00    0.46130   0.90578    0.006
 6772.00    0.70301   0.90464    0.006
 6773.00    1.02613   0.90417    0.006
 6774.00    1.01282   0.90684    0.006
 6775.00    0.96028   0.91052    0.006
 6776.00    0.94756   0.91334    0.006
 6777.00    0.93798   0.91484    0.006
 6778.00    0.93535   0.91488    0.006
 6779.00    0.93302   0.91388    0.006
 6780.00    0.67449   0.91238    0.006
 6781.00    0.42225   0.91078    0.006
 6782.00    0.58874   0.90856    0.006
 6783.00    0.74084   0.90454    0.006
 6784.00    0.63242   0.89892    0.006
 6785.00    0.55433   0.89432    0.006
 6786.00    0.80830   0.89337    0.006
 6787.00    1.03415   0.89548    0.006
 6788.00    1.04385   0.89888    0.006
 6789.00    1.03950   0.90243    0.006
 6790.00    0.95322   0.90460    0.006
 6791.00    0.86286   0.90435    0.006
 6792.00    0.75363   0.90365    0.006
 6793.00    0.70117   0.90392    0.006
 6794.00    0.86337   0.90334    0.006
 6795.00    1.01731   0.90265    0.006
 6796.00    1.14518   0.90309    0.006
 6797.00    1.17237   0.90411    0.006
 6798.00    0.92995   0.90525    0.006
 6799.00    0.74209   0.90590    0.006
 6800.00    0.67959   0.90571    0.006
 6801.00    0.63278   0.90604    0.006
 6802.00    0.61716   0.90736    0.006
 6803.00    0.65347   0.90847    0.006
 6804.00    0.77972   0.90863    0.006
 6805.00    0.82902   0.90739    0.006
 6806.00    0.76157   0.90676    0.006
 6807.00    0.78793   0.90645    0.006
 6808.00    0.93929   0.90549    0.006
 6809.00    0.95497   0.90591    0.006
 6810.00    0.81139   0.90662    0.006
 6811.00    0.77036   0.90576    0.006
 6812.00    0.83546   0.90559    0.006
 6813.00    0.82364   0.90695    0.006
 6814.00    0.74161   0.90757    0.006
 6815.00    0.63682   0.90559    0.006
 6816.00    0.51373   0.90252    0.006
 6817.00    0.50072   0.90254    0.006
 6818.00    0.56565   0.90594    0.006
 6819.00    0.63174   0.90830    0.006
 6820.00    0.69857   0.90734    0.006
 6821.00    0.80362   0.90501    0.006
 6822.00    0.92942   0.90486    0.006
 6823.00    0.96057   0.90756    0.006
 6824.00    0.94709   0.90997    0.006
 6825.00    1.05376   0.91078    0.006
 6826.00    1.20929   0.91111    0.006
 6827.00    1.21103   0.91113    0.006
 6828.00    1.15936   0.90887    0.006
 6829.00    1.05833   0.90435    0.006
 6830.00    0.94286   0.90215    0.006
 6831.00    0.81237   0.90422    0.006
 6832.00    0.67824   0.90753    0.006
 6833.00    0.77842   0.90836    0.006
 6834.00    0.92444   0.90712    0.006
 6835.00    1.04125   0.90776    0.006
 6836.00    1.15361   0.90988    0.006
 6837.00    1.03328   0.91085    0.006
 6838.00    0.88682   0.90994    0.006
 6839.00    0.69349   0.90765    0.006
 6840.00    0.49665   0.90433    0.006
 6841.00    0.50086   0.90068    0.006
 6842.00    0.51305   0.89690    0.006
 6843.00    0.63205   0.89466    0.006
 6844.00    0.75409   0.89626    0.006
 6845.00    0.96753   0.90132    0.006
 6846.00    1.15716   0.90662    0.006
 6847.00    0.94449   0.90893    0.006
 6848.00    0.74965   0.90891    0.006
 6849.00    0.74140   0.90889    0.006
 6850.00    0.74781   0.90873    0.006
 6851.00    0.86321   0.90762    0.006
 6852.00    0.96597   0.90642    0.006
 6853.00    0.99709   0.90629    0.006
 6854.00    1.01188   0.90639    0.006
 6855.00    0.95295   0.90375    0.006
 6856.00    0.90858   0.89843    0.006
 6857.00    0.91810   0.89598    0.006
 6858.00    0.95008   0.89769    0.006
 6859.00    1.05165   0.89979    0.006
 6860.00    1.06479   0.90152    0.006
 6861.00    0.84529   0.90197    0.006
 6862.00    0.66825   0.89903    0.006
 6863.00    0.58718   0.89659    0.006
 6864.00    0.54276   0.89985    0.006
 6865.00    0.57004   0.90617    0.006
 6866.00    0.64888   0.90924    0.006
 6867.00    0.81568   0.90761    0.007
 6868.00    0.93749   0.90370    0.007
 6869.00    0.99206   0.89946    0.007
 6870.00    0.93342   0.89845    0.007
 6871.00    0.72604   0.90152    0.007
 6872.00    0.60989   0.90312    0.006
 6873.00    0.59930   0.90102    0.006
 6874.00    0.65423   0.90035    0.006
 6875.00    0.77602   0.90244    0.006
 6876.00    0.78495   0.90397    0.006
 6877.00    0.69229   0.90488    0.006
 6878.00    0.60863   0.90674    0.006
 6879.00    0.53209   0.90901    0.006
 6880.00    0.51218   0.91018    0.006
 6881.00    0.53178   0.90975    0.006
 6882.00    0.54213   0.90714    0.006
 6883.00    0.54681   0.90269    0.006
 6884.00    0.74028   0.89943    0.006
 6885.00    1.03464   0.89990    0.006
 6886.00    0.91963   0.90244    0.006
 6887.00    0.61472   0.90312    0.006
 6888.00    0.60639   0.90317    0.006
 6889.00    0.71659   0.90466    0.006
 6890.00    0.78559   0.90510    0.006
 6891.00    0.84056   0.90421    0.007
 6892.00    0.80888   0.90454    0.007
 6893.00    0.75237   0.90553    0.007
 6894.00    0.72237   0.90587    0.006
 6895.00    0.69864   0.90623    0.006
 6896.00    0.74171   0.90667    0.006
 6897.00    0.79751   0.90634    0.006
 6898.00    0.84380   0.90671    0.006
 6899.00    0.88868   0.90896    0.006
 6900.00    0.84676   0.91038    0.006
 6901.00    0.79548   0.90865    0.006
 6902.00    0.77638   0.90732    0.006
 6903.00    0.75956   0.90987    0.006
 6904.00    0.64937   0.91339    0.006
 6905.00    0.53584   0.91365    0.006
 6906.00    0.60741   0.91151    0.006
 6907.00    0.67617   0.91130    0.006
 6908.00    0.62638   0.91353    0.006
 6909.00    0.56740   0.91525    0.006
 6910.00    0.36293   0.91542    0.006
 6911.00    0.21618   0.91465    0.006
 6912.00    0.64758   0.91341    0.006
 6913.00    1.01018   0.91220    0.006
 6914.00    0.87831   0.91040    0.006
 6915.00    0.76199   0.90680    0.006
 6916.00    0.73145   0.90485    0.006
 6917.00    0.76178   0.90624    0.006
 6918.00    1.06057   0.90780    0.007
 6919.00    1.24461   0.90883    0.007
 6920.00    1.01273   0.90924    0.006
 6921.00    0.86246   0.90990    0.006
 6922.00    0.96019   0.91182    0.006
 6923.00    1.02004   0.91332    0.006
 6924.00    0.98198   0.91197    0.006
 6925.00    0.91813   0.90717    0.006
 6926.00    0.79696   0.90270    0.006
 6927.00    0.69004   0.90231    0.006
 6928.00    0.61057   0.90588    0.006
 6929.00    0.59253   0.90985    0.006
 6930.00    0.67777   0.91167    0.006
 6931.00    0.70477   0.91180    0.006
 6932.00    0.64602   0.91141    0.006
 6933.00    0.63693   0.91017    0.007
 6934.00    0.69216   0.90727    0.006
 6935.00    0.67223   0.90636    0.006
 6936.00    0.56657   0.90920    0.007
 6937.00    0.45784   0.91180    0.007
 6938.00    0.34601   0.91210    0.007
 6939.00    0.43381   0.91163    0.007
 6940.00    0.69877   0.91211    0.007
 6941.00    0.75807   0.91379    0.007
 6942.00    0.65656   0.91554    0.007
 6943.00    0.65764   0.91545    0.006
 6944.00    0.72928   0.91315    0.006
 6945.00    0.72566   0.90873    0.006
 6946.00    0.67669   0.90356    0.006
 6947.00    0.68658   0.90308    0.006
 6948.00    0.72744   0.90845    0.006
 6949.00    0.67995   0.91373    0.006
 6950.00    0.59214   0.91587    0.006
 6951.00    0.57098   0.91540    0.006
 6952.00    0.57600   0.91241    0.006
 6953.00    0.58296   0.90896    0.006
 6954.00    0.59057   0.90726    0.007
 6955.00    0.53870   0.90684    0.007
 6956.00    0.47013   0.90818    0.006
 6957.00    0.56621   0.91114    0.007
 6958.00    0.70039   0.91364    0.007
 6959.00    0.62567   0.91464    0.007
 6960.00    0.51217   0.91477    0.007
 6961.00    0.65877   0.91519    0.007
 6962.00    0.84259   0.91633    0.007
 6963.00    0.71796   0.91721    0.007
 6964.00    0.56139   0.91795    0.007
 6965.00    0.55301   0.91868    0.006
 6966.00    0.55450   0.91767    0.006
 6967.00    0.60845   0.91580    0.006
 6968.00    0.66407   0.91632    0.007
 6969.00    0.64432   0.91944    0.006
 6970.00    0.62434   0.92135    0.006
 6971.00    0.59713   0.91999    0.006
 6972.00    0.57572   0.91732    0.006
 6973.00    0.64067   0.91641    0.006
 6974.00    0.68782   0.91803    0.006
 6975.00    0.56418   0.91925    0.006
 6976.00    0.46752   0.91722    0.006
 6977.00    0.55856   0.91317    0.006
 6978.00    0.62158   0.90763    0.007
 6979.00    0.53417   0.89901    0.007
 6980.00    0.50176   0.89284    0.007
 6981.00    0.70627   0.89726    0.007
 6982.00    0.82705   0.90793    0.007
 6983.00    0.65057   0.91594    0.007
 6984.00    0.46890   0.91993    0.006
 6985.00    0.27176   0.92146    0.006
 6986.00    0.18525   0.92201    0.006
 6987.00    0.37974   0.92269    0.006
 6988.00    0.50785   0.92197    0.006
 6989.00    0.49084   0.91851    0.006
 6990.00    0.50069   0.91379    0.006
 6991.00    0.56150   0.91162    0.006
 6992.00    0.55302   0.91360    0.006
 6993.00    0.42982   0.91738    0.006
 6994.00    0.44726   0.91946    0.006
 6995.00    0.66884   0.91853    0.006
 6996.00    0.81225   0.91704    0.006
 6997.00    0.85587   0.91739    0.006
 6998.00    0.82409   0.91877    0.006
 6999.00    0.70749   0.91843    0.007
 7000.00    0.61955   0.91443    0.007
 7001.00    0.56003   0.90995    0.007
 7002.00    0.62149   0.91036    0.007
 7003.00    0.78878   0.91473    0.007
 7004.00    0.69686   0.91684    0.007
 7005.00    0.40514   0.91396    0.007
 7006.00    0.33006   0.91010    0.007
 7007.00    0.40179   0.90937    0.006
 7008.00    0.58588   0.91129    0.006
 7009.00    0.83669   0.91401    0.007
 7010.00    0.87493   0.91699    0.007
 7011.00    0.80308   0.91861    0.006
 7012.00    0.72439   0.91736    0.006
 7013.00    0.64264   0.91635    0.006
 7014.00    0.57496   0.91808    0.006
 7015.00    0.51271   0.91853    0.006
 7016.00    0.55797   0.91253    0.006
 7017.00    0.63851   0.90204    0.006
 7018.00    0.72053   0.89795    0.007
 7019.00    0.80296   0.90587    0.007
 7020.00    0.92468   0.91670    0.007
 7021.00    1.05527   0.92244    0.007
 7022.00    0.82902   0.92388    0.007
 7023.00    0.53830   0.92173    0.007
 7024.00    0.71001   0.91547    0.007
 7025.00    0.94579   0.90922    0.007
 7026.00    0.60963   0.90866    0.007
 7027.00    0.21669   0.91311    0.007
 7028.00    0.56863   0.91661    0.007
 7029.00    0.96724   0.91720    0.007
 7030.00    0.88764   0.91799    0.007
 7031.00    0.79512   0.92018    0.007
 7032.00    0.87212   0.92206    0.007
 7033.00    0.94479   0.92180    0.007
 7034.00    0.89835   0.91996    0.007
 7035.00    0.84792   0.91859    0.007
 7036.00    0.74153   0.91898    0.007
 7037.00    0.65316   0.92076    0.007
 7038.00    0.73084   0.91954    0.007
 7039.00    0.79836   0.91217    0.007
 7040.00    0.79744   0.90758    0.007
 7041.00    0.77624   0.91442    0.006
 7042.00    0.64896   0.92558    0.007
 7043.00    0.56087   0.93204    0.007
 7044.00    0.63771   0.93377    0.007
 7045.00    0.70056   0.93196    0.007
 7046.00    0.71473   0.92810    0.007
 7047.00    0.69088   0.92664    0.007
 7048.00    0.55573   0.92923    0.007
 7049.00    0.43891   0.93309    0.007
 7050.00    0.36788   0.93518   -2.000
 7051.00    0.32823   0.93446   -2.000
 7052.00    0.35607   0.93094   -2.000
 7053.00    0.48929   0.92386   -2.000
 7054.00    0.81931   0.91345   -2.000
 7055.00    0.95487   0.90238   -2.000
 7056.00    0.77330   0.89399   -2.000
 7057.00    0.74382   0.89224   -2.000
 7058.00    0.93188   0.89658   -2.000
 7059.00    0.96628   0.90033   -2.000
 7060.00    0.80734   0.89832   -2.000
 7061.00    0.75929   0.89253   -2.000
 7062.00    0.83421   0.88917   -2.000
 7063.00    0.80375   0.89031   -2.000
 7064.00    0.67020   0.89292   -2.000
 7065.00    0.54174   0.89567   -2.000
 7066.00    0.41766   0.89734   -2.000
 7067.00    0.32651   0.89564   -2.000
 7068.00    0.26036   0.89177   -2.000
 7069.00    0.31157   0.88773   -2.000
 7070.00    0.44113   0.88657   -2.000
 7071.00    0.52884   0.89082   -2.000
 7072.00    0.59207   0.89695   -2.000
 7073.00    0.68152   0.90062   -2.000
 7074.00    0.78433   0.90202   -2.000
 7075.00    0.83727   0.90252   -2.000
 7076.00    0.86818   0.90219   -2.000
 7077.00    0.91821   0.90147   -2.000
 7078.00    0.97548   0.90119   -2.000
 7079.00    1.04835   0.90174   -2.000
 7080.00    1.12624   0.90260   -2.000
 7081.00    1.01357   0.90371   -2.000
 7082.00    0.84956   0.90492   -2.000
 7083.00    0.83790   0.90405   -2.000
 7084.00    0.85988   0.89900   -2.000
 7085.00    0.77596   0.89044   -2.000
 7086.00    0.67343   0.88365   -2.000
 7087.00    0.64304   0.88297   -2.000
 7088.00    0.62232   0.88298   -2.000
 7089.00    0.30506   0.87836   -2.000
 7090.00   -0.04037   0.87298   -2.000
 7091.00   -0.00137   0.87051   -2.000
 7092.00    0.06018   0.87116   -2.000
 7093.00    0.29218   0.87376   -2.000
 7094.00    0.52671   0.87491   -2.000
 7095.00    0.53517   0.87424   -2.000
 7096.00    0.55108   0.87359   -2.000
 7097.00    0.75254   0.87342   -2.000
 7098.00    0.90684   0.87384   -2.000
 7099.00    0.43481   0.87544   -2.000
 7100.00    0.04106   0.88003   -2.000
 7101.00    0.34113   0.88419   -2.000
 7102.00    0.60728   0.88461   -2.000
 7103.00    0.65186   0.88262   -2.000
 7104.00    0.67546   0.88076   -2.000
 7105.00    0.59216   0.88165   -2.000
 7106.00    0.08611   0.88486   -2.000
 7107.00   -2.16000   0.88674   -2.000
 7108.00   -3.39092   0.88606   -2.000
 7109.00   -1.16134   0.88575   -2.000
 7110.00    0.52548   0.88668   -2.000
 7111.00    0.65285   0.88539   -2.000
 7112.00    0.71858   0.88109   -2.000
 7113.00    0.63303   0.87863   -2.000
 7114.00    0.53132   0.88096   -2.000
 7115.00    0.39539   0.88471   -2.000
 7116.00    0.35334   0.88658   -2.000
 7117.00    0.48391   0.88808   -2.000
 7118.00    0.60372   0.89019   -2.000
 7119.00    0.70625   0.89132   -2.000
 7120.00    0.80480   0.89114   -2.000
 7121.00    0.89774   0.89060   -2.000
 7122.00    0.94537   0.88926   -2.000
 7123.00    0.93681   0.88662   -2.000
 7124.00    1.08522   0.88608   -2.000
 7125.00    1.40527   0.88807   -2.000
 7126.00    1.37517   0.88594   -2.000
 7127.00    1.00741   0.87857   -2.000
 7128.00    0.68098   0.87357   -2.000
 7129.00    0.38972   0.87446   -2.000
 7130.00    0.47548   0.87595   -2.000
 7131.00    0.84359   0.87293   -2.000
 7132.00    0.79114   0.86809   -2.000
 7133.00    0.46197   0.86773   -2.000
 7134.00    0.42527   0.87196   -2.000
 7135.00    0.55701   0.87701   -2.000
 7136.00    0.52259   0.88038   -2.000
 7137.00    0.40479   0.88161   -2.000
 7138.00    0.42005   0.88252   -2.000
 7139.00    0.49309   0.88235   -2.000
 7140.00    0.32930   0.88013   -2.000
 7141.00    0.07729   0.87943   -2.000
 7142.00    0.20558   0.88191   -2.000
 7143.00    0.45401   0.88427   -2.000
 7144.00    0.29914   0.88494   -2.000
 7145.00    0.03791   0.88503   -2.000
 7146.00    0.15159   0.88471   -2.000
 7147.00    0.34608   0.88422   -2.000
 7148.00    0.38454   0.88139   -2.000
 7149.00    0.39632   0.87491   -2.000
 7150.00    0.48930   0.87221   -2.000
 7151.00    0.59278   0.87700   -2.000
 7152.00    0.45951   0.88275   -2.000
 7153.00    0.30473   0.88691   -2.000
 7154.00    0.37090   0.89123   -2.000
 7155.00    0.44915   0.89350   -2.000
 7156.00    0.75130   0.89243   -2.000
 7157.00    1.05634   0.89247   -2.000
 7158.00    1.19654   0.89597   -2.000
 7159.00    1.30556   0.89783   -2.000
 7160.00    0.70691   0.89470   -2.000
 7161.00    0.12629   0.89070   -2.000
 7162.00   -0.22708   0.89040   -2.000
 7163.00   -0.49526   0.89287   -2.000
 7164.00   -0.03663   0.88882   -2.000
 7165.00    0.38965   0.87750   -2.000
 7166.00    0.61092   0.86846   -2.000
 7167.00    0.73713   0.86846   -2.000
 7168.00    0.39144   0.87582   -2.000
 7169.00    0.14668   0.88250   -2.000
 7170.00    0.30824   0.88436   -2.000
 7171.00    0.42447   0.88403   -2.000
 7172.00    0.38925   0.88509   -2.000
 7173.00    0.37580   0.88766   -2.000
 7174.00    0.42376   0.88951   -2.000
 7175.00    0.43888   0.88925   -2.000
 7176.00    0.37478   0.88705   -2.000
 7177.00    0.32495   0.88386   -2.000
 7178.00    0.30483   0.88268   -2.000
 7179.00    0.31460   0.88499   -2.000
 7180.00    0.37849   0.88601   -2.000
 7181.00    0.40251   0.88162   -2.000
 7182.00    0.36344   0.87525   -2.000
 7183.00    0.35091   0.87408   -2.000
 7184.00    0.37528   0.88023   -2.000
 7185.00    0.45716   0.88759   -2.000
 7186.00    0.60937   0.89021   -2.000
 7187.00    0.65011   0.88709   -2.000
 7188.00    0.57070   0.87911   -2.000
 7189.00    0.40922   0.87174   -2.000
 7190.00    0.16969   0.87045   -2.000
 7191.00    0.20346   0.87457   -2.000
 7192.00    0.46635   0.88066   -2.000
 7193.00    0.60709   0.88370   -2.000
 7194.00    0.65768   0.88273   -2.000
 7195.00    0.58554   0.88251   -2.000
 7196.00    0.43383   0.88504   -2.000
 7197.00    0.65667   0.88585   -2.000
 7198.00    1.09199   0.88201   -2.000
 7199.00    0.88452   0.87898   -2.000
 7200.00    0.35960   0.88123   -2.000
 7201.00    0.27005   0.88490   -2.000
 7202.00    0.36642   0.88436   -2.000
 7203.00    0.21647   0.88048   -2.000
 7204.00   -0.02361   0.87981   -2.000
 7205.00    0.16346   0.88454   -2.000
 7206.00    0.48284   0.88881   -2.000
 7207.00    0.38312   0.88578   -2.000
 7208.00    0.17524   0.87579   -2.000
 7209.00    0.16812   0.86873   -2.000
 7210.00    0.20322   0.87029   -2.000
 7211.00    0.20217   0.87701   -2.000
 7212.00    0.19511   0.88514   -2.000
 7213.00    0.38762   0.89001   -2.000
 7214.00    0.60508   0.88914   -2.000
 7215.00   -1.36944   0.88603   -2.000
 7216.00   -3.53382   0.88404   -2.000
 7217.00   -1.79803   0.88410   -2.000
 7218.00    0.13591   0.88672   -2.000
