###################################################################
## OUTPUT of StarlightChains_v04.for    [Cid@UFSC - 01/Apr/2007] ##
###################################################################

## Some input info
KUG0210-078._50_41.txt                   [arq_obs]
Base.CB07.vall.4m                        [arq_base]
Masks.EmLines.NEW.gm                     [arq_masks]
StCv04.C11.config                        [arq_config]
   66                                    [N_base]
    0                                    [N_YAV_components = # of components with extra extinction!]
    0                                    [i_FitPowerLaw (1/0 = Yes/No)]
-9.99                                    [alpha_PowerLaw]
CCM                                      [red_law_option]
 1.458241                                [q_norm = A(l_norm)/A(V)]

## (Re)Sampling Parameters
 3741.00                                 [l_ini (A)]
 7218.00                                 [l_fin (A)]
    1.00                                 [dl    (A)]     (OBS: dl_cushion =    50.00 A)

## Normalization info
 4020.00                                 [l_norm (A) - for base]
 4010.00                                 [llow_norm (A) - window for f_obs]
 4060.00                                 [lupp_norm (A) - window for f_obs]
4.730353E-18                             [fobs_norm (in input units)]

## S/N
 3691.00                                 [llow_SN (A) - window for S/N]
 7268.00                                 [lupp_SN (A) - window for S/N]
   2.615                                 [S/N in S/N window]
   2.053                                 [S/N in norm. window]
   0.007                                 [S/N_err in S/N window]
   0.005                                 [S/N_err in norm. window]
  1.0000                                 [fscale_chi2]

## etc...
    -2007959                             [idum_orig]
  2372                                   [NOl_eff]
  2217                                   [Nl_eff]
   155    NSIGMA                         [Ntot_cliped & clip_method]
 10122140                                [Nglobal_steps]
   7                                     [N_chains]
   7                                     [NEX0s_base = N_base in EX0s-fits]
 0   0   1      155   2.0   2.606E+03    [Clip-Bug, RC-Crash & Burn-In warning-flags, n_censored_weights, wei_nsig_threshold & wei_limit]
    60     60.227     59.623      0.604  [idt_all, wdt_TotTime, wdt_UsrTime & wdt_SysTime (sec)]

## Synthesis Results - Best model ##

 2.02720E-05                             [chi2/Nl_eff]
    72.09823                             [adev (%)]

   130.00000                             [sum-of-x (%)]
 2.75988E-16                             [Flux_tot (units of input spectrum!)]
 2.52274E-14                             [Mini_tot (???)]
 2.52274E-14                             [Mcor_tot (???)]

-453.51                                  [v0_min  (km/s)]
 488.97                                  [vd_min  (km/s)]
 2.8323                                  [AV_min  (mag)]
 0.0000                                  [YAV_min (mag)]

# j     x_j(%)      Mini_j(%)     Mcor_j(%)     age_j(yr)     Z_j      (L/M)_j    YAV?  Mstars   component_j        a/Fe...       SSP_chi2r SSP_adev(%)   SSP_AV   SSP_x(%)
  1    130.0000     1.0000E+02    1.0000E+02    1.000000E+06  0.00400  1.094E-02    0   1.0000   age020_m42            0.0000     1.8010E-05    80.4329   2.3259   160.6403
  2      0.0000     0.0000E+00    0.0000E+00    3.160000E+06  0.00400  4.007E-02    0   0.9999   age045_m42            0.0000     1.8180E-05    80.7678   1.6630   166.8198
  3      0.0000     0.0000E+00    0.0000E+00    5.010000E+06  0.00400  2.539E-02    0   0.9488   age055_m42            0.0000     1.8080E-05    80.8781   1.9645   164.4242
  4      0.0000     0.0000E+00    0.0000E+00    6.610000E+06  0.00400  2.620E-02    0   0.9220   age061_m42            0.0000     1.8191E-05    81.2402   1.6023   166.4440
  5      0.0000     0.0000E+00    0.0000E+00    1.000000E+07  0.00400  1.322E-02    0   0.8862   age070_m42            0.0000     1.8417E-05    83.2620   1.3666   167.7762
  6      0.0000     0.0000E+00    0.0000E+00    1.445000E+07  0.00400  7.883E-03    0   0.8571   age078_m42            0.0000     1.8281E-05    82.7333   1.6667   165.3006
  7      0.0000     0.0000E+00    0.0000E+00    2.512000E+07  0.00400  5.251E-03    0   0.8174   age090_m42            0.0000     1.8443E-05    83.7050   1.2497   167.9955
  8      0.0000     0.0000E+00    0.0000E+00    4.000000E+07  0.00400  3.649E-03    0   0.7851   age104_m42            0.0000     1.8420E-05    83.6093   1.0231   169.0751
  9      0.0000     0.0000E+00    0.0000E+00    5.500000E+07  0.00400  3.098E-03    0   0.7629   age110_m42            0.0000     1.8397E-05    82.7052   1.1698   169.1080
 10      0.0000     0.0000E+00    0.0000E+00    1.015200E+08  0.00400  2.228E-03    0   0.7207   age116_m42            0.0000     1.8404E-05    82.2478   1.1885   169.2122
 11      0.0000     0.0000E+00    0.0000E+00    2.861200E+08  0.00400  1.093E-03    0   0.6648   age125_m42            0.0000     1.8582E-05    83.6064   0.6445   172.2830
 12      0.0000     0.0000E+00    0.0000E+00    5.088000E+08  0.00400  6.597E-04    0   0.6365   age130_m42            0.0000     1.8538E-05    82.5453   0.6193   174.2471
 13      0.0000     0.0000E+00    0.0000E+00    1.434000E+09  0.00400  2.132E-04    0   0.5798   age139_m42            0.0000     1.8362E-05    81.7541  -0.3780   178.8065
 14      0.0000     0.0000E+00    0.0000E+00    4.250000E+09  0.00400  5.895E-05    0   0.5377   age158_m42            0.0000     1.8281E-05    80.2255  -0.9211   177.6562
 15      0.0000     0.0000E+00    0.0000E+00    7.500000E+09  0.00400  3.510E-05    0   0.5212   age171_m42            0.0000     1.8514E-05    80.0046  -1.0000   173.7720
 16      0.0000     0.0000E+00    0.0000E+00    1.300000E+10  0.00400  2.005E-05    0   0.5034   age193_m42            0.0000     1.9074E-05    81.0365  -1.0000   167.9505
 17      0.0000     0.0000E+00    0.0000E+00    1.800000E+10  0.00400  1.525E-05    0   0.4967   age213_m42            0.0000     1.9074E-05    81.2807  -1.0000   166.5622
 18      0.0000     0.0000E+00    0.0000E+00    1.000000E+06  0.00800  1.238E-02    0   1.0000   age020_m52            0.0000     1.8025E-05    80.4930   2.3208   161.0340
 19      0.0000     0.0000E+00    0.0000E+00    3.160000E+06  0.00800  3.074E-02    0   0.9966   age045_m52            0.0000     1.8001E-05    80.4742   2.2446   162.3033
 20      0.0000     0.0000E+00    0.0000E+00    5.010000E+06  0.00800  2.668E-02    0   0.9443   age055_m52            0.0000     1.8044E-05    80.9832   2.0354   163.7533
 21      0.0000     0.0000E+00    0.0000E+00    6.610000E+06  0.00800  2.136E-02    0   0.9177   age061_m52            0.0000     1.8252E-05    83.2616   0.8322   171.8320
 22      0.0000     0.0000E+00    0.0000E+00    1.000000E+07  0.00800  1.215E-02    0   0.8827   age070_m52            0.0000     1.8448E-05    83.8040   1.5411   167.9671
 23      0.0000     0.0000E+00    0.0000E+00    1.445000E+07  0.00800  8.717E-03    0   0.8552   age078_m52            0.0000     1.8332E-05    82.9900   1.6393   167.1988
 24      0.0000     0.0000E+00    0.0000E+00    2.512000E+07  0.00800  5.592E-03    0   0.8162   age090_m52            0.0000     1.8483E-05    83.9144   1.3127   169.9206
 25      0.0000     0.0000E+00    0.0000E+00    4.000000E+07  0.00800  3.896E-03    0   0.7841   age104_m52            0.0000     1.8439E-05    83.6077   1.2291   170.8004
 26      0.0000     0.0000E+00    0.0000E+00    1.015200E+08  0.00800  2.148E-03    0   0.7226   age116_m52            0.0000     1.8354E-05    82.8085   1.1560   170.7598
 27      0.0000     0.0000E+00    0.0000E+00    2.861200E+08  0.00800  9.925E-04    0   0.6683   age125_m52            0.0000     1.8561E-05    82.8921   0.6879   175.6910
 28      0.0000     0.0000E+00    0.0000E+00    9.047900E+08  0.00800  3.141E-04    0   0.6138   age135_m52            0.0000     1.8613E-05    81.2830  -0.1740   185.8783
 29      0.0000     0.0000E+00    0.0000E+00    1.434000E+09  0.00800  1.719E-04    0   0.5853   age139_m52            0.0000     1.8396E-05    81.1783  -0.7879   184.0169
 30      0.0000     0.0000E+00    0.0000E+00    2.500000E+09  0.00800  7.872E-05    0   0.5600   age150_m52            0.0000     1.8463E-05    79.6887  -1.0000   179.0424
 31      0.0000     0.0000E+00    0.0000E+00    4.250000E+09  0.00800  4.336E-05    0   0.5426   age158_m52            0.0000     1.8567E-05    79.4320  -1.0000   177.2898
 32      0.0000     0.0000E+00    0.0000E+00    6.250000E+09  0.00800  3.159E-05    0   0.5319   age166_m52            0.0000     1.9250E-05    80.2978  -1.0000   170.9021
 33      0.0000     0.0000E+00    0.0000E+00    1.300000E+10  0.00800  1.361E-05    0   0.5073   age193_m52            0.0000     2.1920E-05    84.6849  -1.0000   152.8309
 34      0.0000     0.0000E+00    0.0000E+00    1.800000E+10  0.00800  9.886E-06    0   0.4990   age213_m52            0.0000     2.3020E-05    84.9651  -1.0000   147.8164
 35      0.0000     0.0000E+00    0.0000E+00    1.000000E+06  0.02000  1.544E-02    0   1.0000   age020_m62            0.0000     1.8036E-05    80.4879   2.3149   161.5547
 36      0.0000     0.0000E+00    0.0000E+00    3.160000E+06  0.02000  3.762E-02    0   0.9858   age045_m62            0.0000     1.8022E-05    80.5432   2.2519   163.0266
 37      0.0000     0.0000E+00    0.0000E+00    5.010000E+06  0.02000  3.296E-02    0   0.9342   age055_m62            0.0000     1.8139E-05    81.0196   1.9276   165.9421
 38      0.0000     0.0000E+00    0.0000E+00    8.710000E+06  0.02000  1.154E-02    0   0.8861   age067_m62            0.0000     1.9031E-05    87.8691   1.0451   170.6305
 39      0.0000     0.0000E+00    0.0000E+00    1.445000E+07  0.02000  7.663E-03    0   0.8472   age078_m62            0.0000     1.8563E-05    85.1186   1.2003   171.0932
 40      0.0000     0.0000E+00    0.0000E+00    2.512000E+07  0.02000  4.532E-03    0   0.8099   age090_m62            0.0000     1.8603E-05    85.5032   1.2113   169.5715
 41      0.0000     0.0000E+00    0.0000E+00    5.500000E+07  0.02000  2.733E-03    0   0.7595   age110_m62            0.0000     1.8395E-05    83.6467   1.2040   169.9974
 42      0.0000     0.0000E+00    0.0000E+00    1.609000E+08  0.02000  1.369E-03    0   0.6985   age120_m62            0.0000     1.8541E-05    83.0825   1.0583   172.9524
 43      0.0000     0.0000E+00    0.0000E+00    2.861200E+08  0.02000  9.013E-04    0   0.6714   age125_m62            0.0000     1.8657E-05    82.7843   0.8167   176.9744
 44      0.0000     0.0000E+00    0.0000E+00    5.088000E+08  0.02000  5.028E-04    0   0.6449   age130_m62            0.0000     1.8597E-05    81.0279   0.3873   183.9194
 45      0.0000     0.0000E+00    0.0000E+00    9.047900E+08  0.02000  2.428E-04    0   0.6179   age135_m62            0.0000     1.8455E-05    79.7405  -0.2743   187.1406
 46      0.0000     0.0000E+00    0.0000E+00    1.434000E+09  0.02000  1.263E-04    0   0.5908   age139_m62            0.0000     1.8437E-05    79.2842  -0.7601   186.8133
 47      0.0000     0.0000E+00    0.0000E+00    2.500000E+09  0.02000  5.985E-05    0   0.5673   age150_m62            0.0000     1.8759E-05    78.7360  -1.0000   181.3864
 48      0.0000     0.0000E+00    0.0000E+00    4.250000E+09  0.02000  3.271E-05    0   0.5468   age158_m62            0.0000     1.9814E-05    80.5523  -1.0000   169.7580
 49      0.0000     0.0000E+00    0.0000E+00    1.000000E+10  0.02000  1.360E-05    0   0.5167   age181_m62            0.0000     2.2210E-05    82.9468  -1.0000   155.8885
 50      0.0000     0.0000E+00    0.0000E+00    1.800000E+10  0.02000  7.124E-06    0   0.5013   age213_m62            0.0000     2.4260E-05    83.9900  -1.0000   146.1835
 51      0.0000     0.0000E+00    0.0000E+00    1.000000E+06  0.05000  2.592E-02    0   0.9998   age020_m72            0.0000     1.8025E-05    80.5033   2.2994   162.0921
 52      0.0000     0.0000E+00    0.0000E+00    3.160000E+06  0.05000  4.845E-02    0   0.9577   age045_m72            0.0000     1.8010E-05    80.5722   2.1514   163.9726
 53      0.0000     0.0000E+00    0.0000E+00    5.010000E+06  0.05000  3.072E-02    0   0.9147   age055_m72            0.0000     1.8308E-05    83.3902   1.7302   167.7311
 54      0.0000     0.0000E+00    0.0000E+00    6.610000E+06  0.05000  1.455E-02    0   0.8877   age061_m72            0.0000     1.9533E-05    89.9865   1.0930   171.3340
 55      0.0000     0.0000E+00    0.0000E+00    1.000000E+07  0.05000  9.074E-03    0   0.8524   age070_m72            0.0000     1.8393E-05    83.7038   1.9061   167.0667
 56      0.0000     0.0000E+00    0.0000E+00    2.512000E+07  0.05000  4.250E-03    0   0.7902   age090_m72            0.0000     1.8430E-05    83.9862   1.6498   167.6595
 57      0.0000     0.0000E+00    0.0000E+00    4.000000E+07  0.05000  3.087E-03    0   0.7618   age104_m72            0.0000     1.8569E-05    84.5510   1.4451   168.8701
 58      0.0000     0.0000E+00    0.0000E+00    1.015200E+08  0.05000  1.700E-03    0   0.7096   age116_m72            0.0000     1.8585E-05    83.7405   1.2105   171.8494
 59      0.0000     0.0000E+00    0.0000E+00    2.861200E+08  0.05000  7.384E-04    0   0.6633   age125_m72            0.0000     1.8535E-05    81.9633   0.6596   180.4939
 60      0.0000     0.0000E+00    0.0000E+00    5.088000E+08  0.05000  3.819E-04    0   0.6372   age130_m72            0.0000     1.8336E-05    79.9756   0.0931   187.5075
 61      0.0000     0.0000E+00    0.0000E+00    9.047900E+08  0.05000  1.676E-04    0   0.6110   age135_m72            0.0000     1.8438E-05    78.0692  -0.7101   190.1008
 62      0.0000     0.0000E+00    0.0000E+00    1.434000E+09  0.05000  8.837E-05    0   0.5874   age139_m72            0.0000     1.8877E-05    78.1998  -1.0000   184.1656
 63      0.0000     0.0000E+00    0.0000E+00    2.500000E+09  0.05000  4.233E-05    0   0.5598   age150_m72            0.0000     1.9950E-05    80.1817  -1.0000   171.4168
 64      0.0000     0.0000E+00    0.0000E+00    6.250000E+09  0.05000  1.435E-05    0   0.5249   age166_m72            0.0000     2.2912E-05    83.7998  -1.0000   151.5128
 65      0.0000     0.0000E+00    0.0000E+00    1.300000E+10  0.05000  6.513E-06    0   0.5036   age193_m72            0.0000     2.6010E-05    85.3325  -1.0000   141.0458
 66      0.0000     0.0000E+00    0.0000E+00    1.800000E+10  0.05000  4.527E-06    0   0.4945   age213_m72            0.0000     2.8160E-05    85.5540  -1.0000   133.6743


## Synthesis Results - Average & Chains ##

# j      x_j: min, <> & last-chain-values for 1 ...  7 chains
  1    130.0000    100.9137    105.4852    110.3439    106.8516    106.1679    106.0008    106.8531    107.1775
  2      0.0000      0.1547      0.0097      0.0477      0.0000      0.0883      0.1313      0.0277      0.0375
  3      0.0000      0.1850      0.0000      0.1121      0.0000      0.0323      0.0084      0.0358      0.0000
  4      0.0000      0.1438      0.0198      0.0380      0.0000      0.0614      0.0312      0.1103      0.0000
  5      0.0000      0.1205      0.0073      0.0757      0.0168      0.0000      0.0000      0.0000      0.0601
  6      0.0000      0.0999      0.0000      0.0439      0.0134      0.0742      0.0612      0.0000      0.0119
  7      0.0000      0.1936      0.0057      0.0000      0.0078      0.0996      0.0235      0.0270      0.0000
  8      0.0000      0.1248      0.0217      0.0658      0.0049      0.0373      0.0932      0.0337      0.0000
  9      0.0000      0.0914      0.0022      0.0131      0.0148      0.0369      0.0726      0.0000      0.0031
 10      0.0000      0.1957      0.0138      0.0566      0.0025      0.0001      0.0273      0.0000      0.0289
 11      0.0000      0.1124      0.0103      0.1507      0.0000      0.0000      0.0080      0.0000      0.0000
 12      0.0000      0.1132      0.0091      0.0344      0.0000      0.0327      0.0598      0.0874      0.0061
 13      0.0000      0.1657      0.0059      0.0385      0.0060      0.0211      0.0605      0.0894      0.0134
 14      0.0000      0.1386      0.0000      0.0117      0.0021      0.0186      0.0000      0.0000      0.0198
 15      0.0000      0.1073      0.0074      0.0622      0.0056      0.0000      0.0279      0.0271      0.0000
 16      0.0000      0.6789      1.0913      0.3160      1.1211      0.6258      0.7440      0.0412      0.8162
 17      0.0000      0.1428      0.0036      0.0596      0.0032      0.0494      0.0000      0.0000      0.0019
 18      0.0000     13.1226     15.9512      9.7659     14.8813     13.4613     13.6022     14.1035     13.5236
 19      0.0000      0.1966      0.0051      0.0872      0.0029      0.0186      0.0306      0.1013      0.1838
 20      0.0000      0.1581      0.0180      0.0000      0.0029      0.0000      0.0972      0.0000      0.0069
 21      0.0000      0.1210      0.0000      0.0212      0.0026      0.0467      0.0200      0.0488      0.0143
 22      0.0000      0.1626      0.0000      0.0096      0.0000      0.0509      0.0588      0.0617      0.0289
 23      0.0000      0.1103      0.0094      0.0000      0.0078      0.0820      0.0000      0.0257      0.0000
 24      0.0000      0.1219      0.0018      0.0266      0.0042      0.0696      0.0000      0.1195      0.0146
 25      0.0000      0.1637      0.0152      0.0000      0.0029      0.0740      0.0325      0.0251      0.0612
 26      0.0000      0.1530      0.0130      0.0266      0.0303      0.0526      0.0836      0.0000      0.1215
 27      0.0000      0.1308      0.0223      0.0564      0.0020      0.0379      0.1047      0.0395      0.0376
 28      0.0000      0.1248      0.0125      0.0000      0.0000      0.1877      0.0496      0.0268      0.0000
 29      0.0000      0.1180      0.0000      0.0000      0.0170      0.0000      0.0000      0.0000      0.0379
 30      0.0000      0.1395      0.0210      0.0967      0.0009      0.0154      0.0541      0.0000      0.0503
 31      0.0000      0.1477      0.0031      0.0000      0.0000      0.0570      0.0685      0.0000      0.0000
 32      0.0000      0.1080      0.0000      0.0108      0.0000      0.0271      0.0386      0.0050      0.0022
 33      0.0000      0.1198      0.0000      0.0269      0.0056      0.0497      0.0086      0.0127      0.0000
 34      0.0000      0.1457      0.0145      0.0677      0.0062      0.1015      0.0388      0.0000      0.0690
 35      0.0000      0.1376      0.0218      0.0334      0.0093      0.0514      0.0000      0.0000      0.0641
 36      0.0000      0.2272      0.0841      0.1428      0.1019      0.3176      0.0447      0.1475      0.0670
 37      0.0000      0.1683      0.0034      0.0129      0.0081      0.0109      0.1206      0.0000      0.0302
 38      0.0000      0.1517      0.0000      0.0151      0.0050      0.0330      0.0461      0.0359      0.0656
 39      0.0000      0.2028      0.0046      0.0075      0.0018      0.0514      0.0192      0.0186      0.0703
 40      0.0000      0.1369      0.0016      0.1533      0.0421      0.0488      0.0647      0.0006      0.0968
 41      0.0000      0.1536      0.0053      0.0064      0.0000      0.0000      0.0071      0.0303      0.0000
 42      0.0000      0.1187      0.0220      0.0322      0.0048      0.0819      0.0000      0.0246      0.0603
 43      0.0000      0.1283      0.0000      0.1324      0.0028      0.0153      0.0691      0.0699      0.0389
 44      0.0000      0.1722      0.0183      0.0560      0.0014      0.0775      0.0906      0.0798      0.0861
 45      0.0000      0.2137      0.0000      0.0000      0.0000      0.0431      0.0000      0.0000      0.0309
 46      0.0000      0.1182      0.0034      0.1450      0.0006      0.0550      0.0083      0.0000      0.0000
 47      0.0000      0.1464      0.0000      0.1408      0.0022      0.0747      0.1141      0.1132      0.0161
 48      0.0000      0.1618      0.0131      0.0941      0.0000      0.0189      0.0107      0.0000      0.0900
 49      0.0000      2.1232      2.1617      2.0931      2.2037      2.2501      2.2001      2.0019      1.9166
 50      0.0000      0.1175      0.0049      0.0913      0.0000      0.0296      0.0412      0.0793      0.0795
 51      0.0000      0.1556      0.0663      0.0000      0.0613      0.0424      0.0718      0.1169      0.0402
 52      0.0000      0.0923      0.0123      0.0000      0.0171      0.0000      0.0466      0.1790      0.0260
 53      0.0000      0.1251      0.0000      0.0000      0.0014      0.1755      0.0519      0.0000      0.0266
 54      0.0000      0.1404      0.0089      0.0780      0.0102      0.0941      0.0000      0.0000      0.0278
 55      0.0000      0.1179      0.0113      0.0103      0.0087      0.0327      0.0000      0.0300      0.0145
 56      0.0000      0.1014      0.0018      0.0938      0.0013      0.0293      0.0167      0.0099      0.0492
 57      0.0000      0.1820      0.0087      0.1008      0.0069      0.0085      0.0241      0.0406      0.0025
 58      0.0000      0.1446      0.0060      0.0097      0.0161      0.0329      0.0625      0.0529      0.0423
 59      0.0000      0.1583      0.0136      0.0771      0.0000      0.0045      0.1313      0.0000      0.0168
 60      0.0000      0.1067      0.0146      0.0069      0.0000      0.0142      0.1347      0.0000      0.0263
 61      0.0000      0.1144      0.0000      0.0754      0.0055      0.0000      0.1377      0.0000      0.0887
 62      0.0000      0.1528      0.0000      0.0550      0.0007      0.0072      0.0000      0.0000      0.0334
 63      0.0000      4.2642      4.3604      4.3268      4.1951      4.3346      4.3416      4.7170      4.2340
 64      0.0000      0.3336      0.3518      0.2773      0.2371      0.3213      0.3920      0.3401      0.3157
 65      0.0000      0.1460      0.0172      0.0000      0.0205      0.0375      0.0393      0.0000      0.0000
 66      0.0000      0.0992      0.0028      0.0000      0.0169      0.0246      0.0757      0.0095      0.0131

# j      m_j: min, <> & last-chain-values for 1 ...  7 chains
  1  1.0000E+02  3.8394E+00  4.9566E+00  5.4430E+00  5.1048E+00  4.8273E+00  4.6924E+00  5.6732E+00  5.2745E+00
  2  0.0000E+00  1.6071E-03  1.2379E-04  6.4286E-04  0.0000E+00  1.0964E-03  1.5869E-03  4.0172E-04  5.0395E-04
  3  0.0000E+00  2.8773E-03  0.0000E+00  2.2611E-03  0.0000E+00  5.9986E-04  1.5152E-04  7.7737E-04  0.0000E+00
  4  0.0000E+00  2.1062E-03  3.5826E-04  7.2163E-04  0.0000E+00  1.0754E-03  5.3099E-04  2.2543E-03  0.0000E+00
  5  0.0000E+00  3.3611E-03  2.5024E-04  2.7382E-03  5.8712E-04  0.0000E+00  0.0000E+00  0.0000E+00  2.1688E-03
  6  0.0000E+00  4.5219E-03  0.0000E+00  2.5738E-03  7.5962E-04  4.0149E-03  3.2237E-03  0.0000E+00  6.9748E-04
  7  0.0000E+00  1.2542E-02  4.5848E-04  0.0000E+00  6.3859E-04  7.7107E-03  1.7736E-03  2.4395E-03  0.0000E+00
  8  0.0000E+00  1.1175E-02  2.3970E-03  7.6436E-03  5.4912E-04  3.9891E-03  9.7161E-03  4.2139E-03  0.0000E+00
  9  0.0000E+00  9.3680E-03  2.8298E-04  1.7448E-03  1.9086E-03  4.5217E-03  8.6634E-03  0.0000E+00  4.1011E-04
 10  0.0000E+00  2.6344E-02  2.2896E-03  9.8740E-03  4.3038E-04  2.0559E-05  4.2770E-03  0.0000E+00  5.0356E-03
 11  0.0000E+00  2.8448E-02  3.2068E-03  4.9463E-02  0.0000E+00  0.0000E+00  2.3609E-03  0.0000E+00  0.0000E+00
 12  0.0000E+00  4.5472E-02  4.4892E-03  1.7907E-02  0.0000E+00  1.5694E-02  2.7958E-02  4.8981E-02  3.1918E-03
 13  0.0000E+00  1.8759E-01  8.2052E-03  5.6571E-02  8.4642E-03  2.8544E-02  7.9668E-02  1.4126E-01  1.9560E-02
 14  0.0000E+00  5.2630E-01  0.0000E+00  5.7723E-02  1.0145E-02  8.4379E-02  0.0000E+00  0.0000E+00  9.7182E-02
 15  0.0000E+00  6.6305E-01  5.6550E-02  4.9818E-01  4.3394E-02  0.0000E+00  2.0029E-01  2.3355E-01  0.0000E+00
 16  0.0000E+00  7.0953E+00  1.4085E+01  4.2821E+00  1.4712E+01  7.8162E+00  9.0460E+00  6.0154E-01  1.1033E+01
 17  0.0000E+00  1.9355E+00  6.0403E-02  1.0468E+00  5.5082E-02  8.0030E-01  0.0000E+00  0.0000E+00  3.3750E-02
 18  0.0000E+00  4.4120E-01  6.6234E-01  4.2570E-01  6.2825E-01  5.4087E-01  5.3210E-01  6.6170E-01  5.8812E-01
 19  0.0000E+00  2.6531E-03  8.4177E-05  1.5256E-03  4.8704E-05  3.0065E-04  4.8027E-04  1.9074E-03  3.2083E-03
 20  0.0000E+00  2.3288E-03  3.2825E-04  0.0000E+00  5.4082E-05  0.0000E+00  1.6668E-03  0.0000E+00  1.3117E-04
 21  0.0000E+00  2.1636E-03  0.0000E+00  4.9240E-04  5.9453E-05  9.9778E-04  4.1676E-04  1.2181E-03  3.3009E-04
 22  0.0000E+00  4.9169E-03  0.0000E+00  3.7618E-04  0.0000E+00  1.8386E-03  2.0700E-03  2.6016E-03  1.1292E-03
 23  0.0000E+00  4.5028E-03  4.7449E-04  0.0000E+00  4.0190E-04  4.0001E-03  0.0000E+00  1.4668E-03  0.0000E+00
 24  0.0000E+00  7.4039E-03  1.3237E-04  2.0914E-03  3.1726E-04  5.0540E-03  0.0000E+00  1.0135E-02  1.1441E-03
 25  0.0000E+00  1.3712E-02  1.5690E-03  0.0000E+00  3.0154E-04  7.4032E-03  3.1684E-03  2.9400E-03  6.6307E-03
 26  0.0000E+00  2.1427E-02  2.2474E-03  4.8354E-03  5.3224E-03  8.8098E-03  1.3616E-02  0.0000E+00  2.2000E-02
 27  0.0000E+00  3.6655E-02  7.7316E-03  2.0508E-02  7.0993E-04  1.2678E-02  3.4141E-02  1.5430E-02  1.3635E-02
 28  0.0000E+00  1.0150E-01  1.2530E-02  0.0000E+00  0.0000E+00  1.8250E-01  4.6903E-02  3.0461E-02  0.0000E+00
 29  0.0000E+00  1.6724E-01  0.0000E+00  0.0000E+00  3.0301E-02  0.0000E+00  0.0000E+00  0.0000E+00  6.9450E-02
 30  0.0000E+00  4.1315E-01  7.6937E-02  3.7105E-01  3.3541E-03  5.4573E-02  1.8644E-01  0.0000E+00  1.9246E-01
 31  0.0000E+00  7.6925E-01  1.9726E-02  0.0000E+00  0.0000E+00  3.5465E-01  4.1519E-01  0.0000E+00  0.0000E+00
 32  0.0000E+00  7.5715E-01  0.0000E+00  9.7820E-02  0.0000E+00  2.2717E-01  3.1490E-01  4.8632E-02  2.0032E-02
 33  0.0000E+00  1.8585E+00  0.0000E+00  5.4202E-01  1.0875E-01  9.2182E-01  1.5443E-01  2.7463E-01  0.0000E+00
 34  0.0000E+00  3.0608E+00  3.7584E-01  1.8447E+00  1.6359E-01  2.5487E+00  9.4960E-01  0.0000E+00  1.8745E+00
 35  0.0000E+00  3.7103E-03  7.2643E-04  1.1662E-03  3.1463E-04  1.6543E-03  0.0000E+00  0.0000E+00  2.2368E-03
 36  0.0000E+00  2.4784E-03  1.1333E-03  2.0198E-03  1.3955E-03  4.1395E-03  5.6696E-04  2.2453E-03  9.4529E-04
 37  0.0000E+00  1.9851E-03  4.9008E-05  1.9667E-04  1.1981E-04  1.5434E-04  1.6561E-03  0.0000E+00  4.6107E-04
 38  0.0000E+00  4.8493E-03  0.0000E+00  6.2490E-04  1.9920E-04  1.2605E-03  1.7144E-03  1.6011E-03  2.7100E-03
 39  0.0000E+00  9.3332E-03  2.6290E-04  4.4789E-04  1.0512E-04  2.8291E-03  1.0307E-03  1.1950E-03  4.1819E-03
 40  0.0000E+00  1.0185E-02  1.4374E-04  1.4782E-02  3.9293E-03  4.3374E-03  5.5995E-03  5.8689E-05  9.3112E-03
 41  0.0000E+00  1.7762E-02  7.5349E-04  9.6462E-04  0.0000E+00  0.0000E+00  9.5371E-04  4.8967E-03  0.0000E+00
 42  0.0000E+00  2.5204E-02  5.7713E-03  8.8770E-03  1.2871E-03  2.0789E-02  0.0000E+00  7.2826E-03  1.6576E-02
 43  0.0000E+00  3.9795E-02  0.0000E+00  5.3235E-02  1.0915E-03  5.6773E-03  2.4933E-02  3.0249E-02  1.5603E-02
 44  0.0000E+00  9.1931E-02  1.2083E-02  3.8746E-02  9.5007E-04  4.9462E-02  5.6264E-02  5.9461E-02  5.9480E-02
 45  0.0000E+00  2.2632E-01  0.0000E+00  0.0000E+00  0.0000E+00  5.4560E-02  0.0000E+00  0.0000E+00  4.2289E-02
 46  0.0000E+00  2.3017E-01  8.1870E-03  3.6596E-01  1.5326E-03  1.2791E-01  1.8720E-02  0.0000E+00  0.0000E+00
 47  0.0000E+00  5.7745E-01  0.0000E+00  7.2023E-01  1.0983E-02  3.5208E-01  5.2381E-01  6.2335E-01  8.2335E-02
 48  0.0000E+00  1.1260E+00  1.1217E-01  8.4884E-01  0.0000E+00  1.5717E-01  8.6231E-02  0.0000E+00  8.0995E-01
 49  0.0000E+00  3.3576E+01  4.2219E+01  4.2915E+01  4.3759E+01  4.2523E+01  4.0481E+01  4.4177E+01  3.9203E+01
 50  0.0000E+00  3.4420E+00  1.7729E-01  3.4688E+00  0.0000E+00  1.0350E+00  1.4051E+00  3.2418E+00  3.0134E+00
 51  0.0000E+00  2.4989E-03  1.3141E-03  0.0000E+00  1.2351E-03  8.1349E-04  1.3418E-03  2.6190E-03  8.3422E-04
 52  0.0000E+00  7.5928E-04  1.2510E-04  0.0000E+00  1.7618E-04  0.0000E+00  4.4575E-04  2.0552E-03  2.7636E-04
 53  0.0000E+00  1.5510E-03  0.0000E+00  0.0000E+00  2.1842E-05  2.5994E-03  7.4856E-04  0.0000E+00  4.2692E-04
 54  0.0000E+00  3.5653E-03  2.8046E-04  2.5694E-03  3.2399E-04  2.8572E-03  0.0000E+00  0.0000E+00  9.1408E-04
 55  0.0000E+00  4.6105E-03  5.4724E-04  5.2120E-04  4.2735E-04  1.5296E-03  0.0000E+00  1.6388E-03  7.3413E-04
 56  0.0000E+00  7.8453E-03  1.7071E-04  9.4094E-03  1.2204E-04  2.7119E-03  1.5003E-03  1.0658E-03  4.9222E-03
 57  0.0000E+00  1.8698E-02  1.1100E-03  1.3420E-02  8.9092E-04  1.0431E-03  2.8769E-03  5.8175E-03  3.3239E-04
 58  0.0000E+00  2.5128E-02  1.2778E-03  2.1776E-03  3.5170E-03  6.8235E-03  1.2632E-02  1.2815E-02  9.4982E-03
 59  0.0000E+00  5.9182E-02  6.2862E-03  3.7375E-02  0.0000E+00  2.0176E-03  5.7105E-02  0.0000E+00  8.1036E-03
 60  0.0000E+00  7.4130E-02  1.2552E-02  6.1868E-03  0.0000E+00  1.1811E-02  1.0883E-01  0.0000E+00  2.3619E-02
 61  0.0000E+00  1.7361E-01  0.0000E+00  1.4832E-01  1.0475E-02  0.0000E+00  2.4315E-01  0.0000E+00  1.7404E-01
 62  0.0000E+00  4.2279E-01  0.0000E+00  1.9716E-01  2.3888E-03  2.3699E-02  0.0000E+00  0.0000E+00  1.1950E-01
 63  0.0000E+00  2.3472E+01  2.9643E+01  3.0879E+01  2.8996E+01  2.8514E+01  2.7806E+01  3.6233E+01  3.0146E+01
 64  0.0000E+00  5.0799E+00  6.6140E+00  5.4730E+00  4.5336E+00  5.8460E+00  6.9447E+00  7.2267E+00  6.2177E+00
 65  0.0000E+00  4.6977E+00  6.8413E-01  0.0000E+00  8.2652E-01  1.4424E+00  1.4731E+00  0.0000E+00  0.0000E+00
 66  0.0000E+00  4.5111E+00  1.5795E-01  0.0000E+00  9.6297E-01  1.3351E+00  4.0067E+00  6.0504E-01  7.6800E-01

# AV, chi2 & Mass for <> & i_chain = 1 ...  7 solutions
AV       2.8323      2.2989      2.3024      2.3035      2.3171      2.2818      2.2700      2.3327      2.3149
chi2 2.0272E-05  2.1526E-05  2.1174E-05  2.1189E-05  2.1151E-05  2.1213E-05  2.1229E-05  2.1133E-05  2.1159E-05
Mass 2.5227E-14  2.4916E-13  2.0271E-13  1.9338E-13  2.0334E-13  2.0375E-13  2.0600E-13  1.8685E-13  1.9682E-13
-453.51                                  [v0_min (km/s) before EX0s...]
 488.97                                  [vd_min (km/s) before EX0s...]


## Synthetic spectrum (Best Model) ##l_obs f_obs f_syn wei
 3478    [Nl_obs]
 3741.00    1.50451   1.19339    0.000
 3742.00    2.53165   1.19158    0.000
 3743.00    4.57971   1.19083    0.000
 3744.00    4.31262   1.19086    0.000
 3745.00    2.69664   1.19228   -1.000
 3746.00    1.61425   1.19367   -1.000
 3747.00    0.80282   1.19627   -1.000
 3748.00    0.98287   1.19985   -1.000
 3749.00    1.59889   1.20363   -1.000
 3750.00    1.46510   1.20812   -1.000
 3751.00    1.04824   1.21134   -1.000
 3752.00    1.60600   1.21408   -1.000
 3753.00    2.47612   1.21610   -1.000
 3754.00    2.91507   1.21673   -1.000
 3755.00    3.23847   1.21648   -1.000
 3756.00    3.33196   1.21425   -1.000
 3757.00    3.37497   1.21062   -1.000
 3758.00    1.93373   1.20630   -1.000
 3759.00    0.23339   1.20144   -1.000
 3760.00    1.33854   1.19652   -1.000
 3761.00    2.81638   1.19160   -1.000
 3762.00    0.96039   1.18700   -1.000
 3763.00   -1.20889   1.18383    0.000
 3764.00   -0.28873   1.18251    0.000
 3765.00    0.80964   1.18308   -1.000
 3766.00    0.23460   1.18549   -1.000
 3767.00   -0.37814   1.18948    0.000
 3768.00   -0.74740   1.19513    0.000
 3769.00   -1.06066   1.20241    0.000
 3770.00   -0.01341   1.21089    0.000
 3771.00    0.92200   1.21987   -1.000
 3772.00    0.39200   1.22890   -1.000
 3773.00   -0.00735   1.23731    0.000
 3774.00    0.74030   1.24495   -1.000
 3775.00    1.45895   1.25148   -1.000
 3776.00    1.98958   1.25642   -1.000
 3777.00    2.34349   1.25955   -1.000
 3778.00    1.80296   1.26055   -1.000
 3779.00    1.30250   1.25946   -1.000
 3780.00    0.96604   1.25626   -1.000
 3781.00    0.66170   1.25122   -1.000
 3782.00    0.46631   1.24422   -1.000
 3783.00    0.21293   1.23563   -1.000
 3784.00   -0.20633   1.22564    0.000
 3785.00   -0.41394   1.21477    0.000
 3786.00   -0.10444   1.20396    0.000
 3787.00    0.16801   1.19333   -1.000
 3788.00    0.36240   1.18369   -1.000
 3789.00    1.34659   1.17503   -1.000
 3790.00    3.77745   1.16820   -1.000
 3791.00    4.26970   1.16402   -1.000
 3792.00    1.65871   1.16246   -1.000
 3793.00    0.19276   1.16389   -1.000
 3794.00    0.33514   1.16746   -1.000
 3795.00    0.64049   1.17343   -1.000
 3796.00    1.14725   1.18151   -1.000
 3797.00    1.72499   1.19144   -1.000
 3798.00    2.38007   1.20267   -1.000
 3799.00    1.99299   1.21419   -1.000
 3800.00    0.60442   1.22579   -1.000
 3801.00    0.43292   1.23662   -1.000
 3802.00    1.29273   1.24692   -1.000
 3803.00    1.67095   1.25596   -1.000
 3804.00    1.68979   1.26367   -1.000
 3805.00    0.81734   1.27014   -1.000
 3806.00   -0.63939   1.27443    0.000
 3807.00   -0.57036   1.27760    0.000
 3808.00    0.37421   1.27924   -1.000
 3809.00    1.06793   1.27977   -1.000
 3810.00    1.63626   1.27995   -1.000
 3811.00    1.21902   1.27793   -1.000
 3812.00    0.37557   1.27538   -1.000
 3813.00    0.29281   1.27214   -1.000
 3814.00    0.49217   1.26790   -1.000
 3815.00    0.85104   1.26410   -1.000
 3816.00    1.26006   1.25791   -1.000
 3817.00    0.54974   1.25075   -1.000
 3818.00   -0.45420   1.24302    0.000
 3819.00   -0.00124   1.23365    0.000
 3820.00    0.76388   1.22448   -1.000
 3821.00   -0.60937   1.21348    0.000
 3822.00   -2.34553   1.20142    0.000
 3823.00   -0.85910   1.18956    0.000
 3824.00    1.04085   1.17742   -1.000
 3825.00    1.68850   1.16694   -1.000
 3826.00    2.22374   1.15766   -1.000
 3827.00    0.97136   1.14942   -1.000
 3828.00   -0.37710   1.14385    0.000
 3829.00   -0.55435   1.14089    0.000
 3830.00   -0.69029   1.14139    0.000
 3831.00    0.67841   1.14532   -1.000
 3832.00    1.98797   1.15113   -1.000
 3833.00    1.98374   1.15968   -1.000
 3834.00    1.90093   1.17062   -1.000
 3835.00    0.84106   1.18316   -1.000
 3836.00   -0.03975   1.19734    0.000
 3837.00    0.59289   1.21128   -1.000
 3838.00    1.16304   1.22521   -1.000
 3839.00    1.34003   1.23901   -1.000
 3840.00    1.32485   1.25162   -1.000
 3841.00    0.36150   1.26361   -1.000
 3842.00   -0.38719   1.27391    0.000
 3843.00   -0.27650   1.28291    0.000
 3844.00   -0.12513   1.29076    0.000
 3845.00    0.16152   1.29705   -1.000
 3846.00    0.30058   1.30245   -1.000
 3847.00    0.02519   1.30667    0.000
 3848.00    0.13662   1.31004    0.000
 3849.00    1.17717   1.31261    0.000
 3850.00    1.90724   1.31450    0.000
 3851.00    1.99344   1.31565    0.000
 3852.00    1.95704   1.31665    0.000
 3853.00    1.69955   1.31733    0.000
 3854.00    1.50720   1.31735    0.000
 3855.00    1.41756   1.31734    0.000
 3856.00    1.55019   1.31634    0.000
 3857.00    1.99050   1.31592    0.000
 3858.00    1.48698   1.31542    0.000
 3859.00   -0.16659   1.31390    0.000
 3860.00   -0.23684   1.31250    0.000
 3861.00    1.39369   1.31006    0.000
 3862.00    2.02319   1.30825    0.000
 3863.00    1.70421   1.30618    0.000
 3864.00    1.38178   1.30271    0.000
 3865.00    1.05646   1.29888    0.000
 3866.00    1.18285   1.29416    0.000
 3867.00    1.64148   1.28902    0.000
 3868.00    1.62011   1.28288    0.000
 3869.00    1.28867   1.27517    0.000
 3870.00    1.29541   1.26612    0.000
 3871.00    1.49325   1.25611    0.000
 3872.00    1.46799   1.24432    0.000
 3873.00    1.33299   1.23135    0.000
 3874.00    1.46233   1.21794    0.000
 3875.00    1.70409   1.20329    0.000
 3876.00    1.70402   1.18876    0.000
 3877.00    1.61586   1.17315    0.000
 3878.00    1.40742   1.15832    0.000
 3879.00    1.16190   1.14669    0.000
 3880.00    0.97031   1.13625    0.000
 3881.00    0.79257   1.12817   -1.000
 3882.00    0.56288   1.12213   -1.000
 3883.00    0.32233   1.11902   -1.000
 3884.00    0.12816   1.12132   -1.000
 3885.00   -0.05837   1.12616    0.000
 3886.00    0.00659   1.13335   -1.000
 3887.00    0.10268   1.14338   -1.000
 3888.00    1.29793   1.15510   -1.000
 3889.00    2.58725   1.16951   -1.000
 3890.00    2.58904   1.18448   -1.000
 3891.00    2.52665   1.19921   -1.000
 3892.00    1.85688   1.21436   -1.000
 3893.00    1.18000   1.22864   -1.000
 3894.00    0.68562   1.24226   -1.000
 3895.00    0.20817   1.25458   -1.000
 3896.00    0.07693   1.26531   -1.000
 3897.00   -0.00475   1.27501    0.000
 3898.00    0.49969   1.28329   -1.000
 3899.00    0.90646   1.29020   -1.000
 3900.00    0.51750   1.29595   -1.000
 3901.00    0.23070   1.30048   -1.000
 3902.00    0.56791   1.30416   -1.000
 3903.00    0.79105   1.30700   -1.000
 3904.00    0.46530   1.30889   -1.000
 3905.00    0.27661   1.31023   -1.000
 3906.00    0.62470   1.31088   -1.000
 3907.00    0.90406   1.31101   -1.000
 3908.00    0.95939   1.31074   -1.000
 3909.00    1.03307   1.30999   -1.000
 3910.00    1.15732   1.30894   -1.000
 3911.00    1.49958   1.30774   -1.000
 3912.00    2.35666   1.30626   -1.000
 3913.00    2.65027   1.30482   -1.000
 3914.00    1.79391   1.30363   -1.000
 3915.00    1.14294   1.30196   -1.000
 3916.00    0.85678   1.30101   -1.000
 3917.00    0.85842   1.30046   -1.000
 3918.00    1.30726   1.29986   -1.000
 3919.00    1.69118   1.30018    0.068
 3920.00    1.98654   1.29995    0.020
 3921.00    2.08516   1.30055    0.015
 3922.00    1.94744   1.30213    0.015
 3923.00    1.56228   1.30299    0.015
 3924.00    0.91508   1.30458    0.015
 3925.00    0.17475   1.30599    0.015
 3926.00   -0.65259   1.30743    0.000
 3927.00   -1.10558   1.30935    0.000
 3928.00   -1.25027   1.31055    0.000
 3929.00   -1.44795   1.31190    0.000
 3930.00   -1.68403   1.31323    0.000
 3931.00   -1.68519   1.31413    0.000
 3932.00   -1.53684   1.31503    0.000
 3933.00    0.25332   1.31545    0.016
 3934.00    2.95720   1.31570    0.016
 3935.00    2.99364   1.31592    0.016
 3936.00    1.73883   1.31564    0.015
 3937.00    1.36210   1.31524    0.016
 3938.00    1.35250   1.31439    0.016
 3939.00    0.95724   1.31331    0.015
 3940.00    0.42404   1.31208    0.015
 3941.00    0.36269   1.31013    0.015
 3942.00    0.44396   1.30800    0.015
 3943.00    0.08173   1.30513    0.015
 3944.00   -0.39189   1.30188    0.000
 3945.00   -0.11631   1.29791    0.000
 3946.00    0.31204   1.29276    0.015
 3947.00    0.20636   1.28734    0.015
 3948.00    0.01516   1.28019    0.015
 3949.00    0.21865   1.27236    0.015
 3950.00    0.46926   1.26296    0.015
 3951.00    0.75079   1.25181    0.015
 3952.00    1.03483   1.24075    0.015
 3953.00   -0.30299   1.22708    0.000
 3954.00   -1.71534   1.21286    0.000
 3955.00   -0.68685   1.19780    0.000
 3956.00    0.37793   1.18151    0.015
 3957.00    1.71399   1.16692    0.015
 3958.00    2.90242   1.15092    0.015
 3959.00    1.29423   1.13583    0.014
 3960.00   -0.21316   1.12457    0.000
 3961.00   -0.58462   1.11416    0.000
 3962.00   -0.85970   1.10666    0.000
 3963.00   -0.37714   1.10104    0.000
 3964.00    0.02870   1.09785    0.000
 3965.00   -0.02071   1.10145    0.000
 3966.00   -0.18576   1.10798    0.000
 3967.00   -0.89379   1.11579    0.000
 3968.00   -1.09635   1.12648    0.000
 3969.00    0.63814   1.13884    0.000
 3970.00    1.98336   1.15337    0.000
 3971.00    2.08433   1.16914    0.000
 3972.00    2.05235   1.18409    0.000
 3973.00    1.66030   1.19950    0.000
 3974.00    1.21556   1.21472    0.000
 3975.00    0.64846   1.22820    0.000
 3976.00    0.17278   1.24089    0.000
 3977.00   -0.11927   1.25206    0.000
 3978.00    0.25959   1.26191    0.000
 3979.00    1.81198   1.27106    0.000
 3980.00    2.84989   1.27828    0.000
 3981.00    3.10016   1.28449    0.015
 3982.00    2.95457   1.28984    0.015
 3983.00    2.27660   1.29403    0.015
 3984.00    2.30438   1.29770    0.015
 3985.00    3.16793   1.30052    0.015
 3986.00    2.90659   1.30278    0.015
 3987.00    1.47062   1.30464    0.015
 3988.00    0.04826   1.30601    0.014
 3989.00   -1.36159   1.30694    0.000
 3990.00   -1.28379   1.30763    0.000
 3991.00    0.00181   1.30813    0.014
 3992.00    0.76226   1.30815    0.014
 3993.00    1.14751   1.30818    0.014
 3994.00    1.07930   1.30786    0.014
 3995.00    0.72679   1.30724    0.014
 3996.00    0.48318   1.30694    0.013
 3997.00    0.29926   1.30607    0.013
 3998.00    0.51734   1.30541    0.013
 3999.00    0.92690   1.30461    0.013
 4000.00    1.12791   1.30361    0.013
 4001.00    1.24319   1.30293    0.013
 4002.00    1.02908   1.30174    0.013
 4003.00    0.69930   1.30045    0.013
 4004.00    0.07215   1.29934    0.013
 4005.00   -0.64311   1.29800    0.000
 4006.00   -0.62758   1.29640    0.000
 4007.00   -0.43253   1.29416    0.000
 4008.00    0.26906   1.29168    0.013
 4009.00    1.07135   1.28886    0.013
 4010.00    0.41734   1.28571    0.013
 4011.00   -0.46296   1.28153    0.000
 4012.00   -0.12619   1.27670    0.000
 4013.00    0.35052   1.27317    0.014
 4014.00    0.90870   1.26935    0.014
 4015.00    1.47318   1.26497    0.014
 4016.00    1.70486   1.26128    0.014
 4017.00    1.92252   1.25779    0.014
 4018.00    0.48379   1.25621    0.014
 4019.00   -0.93441   1.25478    0.000
 4020.00   -0.79022   1.25318    0.000
 4021.00   -0.60633   1.25517    0.000
 4022.00    0.27766   1.25831    0.014
 4023.00    1.03663   1.26111    0.014
 4024.00    0.45038   1.26477    0.014
 4025.00    0.17463   1.26875    0.014
 4026.00    2.25606   1.27407    0.014
 4027.00    3.73136   1.27976    0.014
 4028.00    1.71060   1.28446    0.014
 4029.00    0.11924   1.28923    0.014
 4030.00    0.49583   1.29437    0.014
 4031.00    0.82912   1.29834    0.014
 4032.00    1.00000   1.30169    0.013
 4033.00    1.26881   1.30493    0.013
 4034.00    1.84462   1.30729    0.013
 4035.00    2.31675   1.30973    0.013
 4036.00    2.51303   1.31149    0.013
 4037.00    2.53573   1.31247    0.013
 4038.00    2.16206   1.31386    0.013
 4039.00    1.45994   1.31447    0.013
 4040.00    0.10853   1.31491    0.013
 4041.00   -0.09712   1.31565    0.000
 4042.00    1.67105   1.31565    0.013
 4043.00    2.46632   1.31600    0.013
 4044.00    1.79396   1.31630    0.013
 4045.00    1.27688   1.31601    0.013
 4046.00    0.96566   1.31622    0.013
 4047.00    0.78359   1.31613    0.013
 4048.00    0.75231   1.31577    0.013
 4049.00    0.61181   1.31590    0.013
 4050.00    0.35886   1.31530    0.012
 4051.00    0.27927   1.31491    0.012
 4052.00    0.35710   1.31479    0.012
 4053.00    0.66289   1.31377    0.012
 4054.00    1.15112   1.31328    0.013
 4055.00    1.85977   1.31262    0.013
 4056.00    2.72364   1.31148    0.013
 4057.00    2.63553   1.31113    0.013
 4058.00    1.95938   1.30991    0.013
 4059.00    1.82518   1.30883    0.013
 4060.00    1.98342   1.30836    0.013
 4061.00    0.60441   1.30691    0.013
 4062.00   -1.49507   1.30620    0.000
 4063.00   -1.29392   1.30543    0.000
 4064.00   -0.16328   1.30420    0.000
 4065.00    1.58090   1.30394    0.013
 4066.00    3.53663   1.30290    0.013
 4067.00    2.91282   1.30177    0.013
 4068.00    1.53996   1.30144    0.013
 4069.00    1.78457   1.30013    0.013
 4070.00    2.41769   1.29893    0.013
 4071.00    1.89842   1.29794    0.013
 4072.00    1.15585   1.29602    0.013
 4073.00    0.26197   1.29429    0.013
 4074.00   -0.65471   1.29198    0.000
 4075.00    0.44293   1.28852    0.013
 4076.00    1.76336   1.28527    0.013
 4077.00    1.78128   1.28096    0.013
 4078.00    1.70381   1.27547    0.013
 4079.00    0.30046   1.26948    0.013
 4080.00   -1.15366   1.26192    0.000
 4081.00    0.30162   1.25368    0.013
 4082.00    1.71003   1.24422    0.013
 4083.00    0.74383   1.23284    0.013
 4084.00   -0.13976   1.22069    0.000
 4085.00    0.33789   1.20757    0.012
 4086.00    0.79851   1.19381    0.012
 4087.00    1.08388   1.17909    0.012
 4088.00    1.40921   1.16405    0.012
 4089.00    2.02768   1.14993    0.012
 4090.00    2.49104   1.13619    0.012
 4091.00    2.08423   1.12359    0.012
 4092.00    1.76923   1.11199    0.000
 4093.00    1.86510   1.10301    0.000
 4094.00    1.88905   1.09850    0.000
 4095.00    1.64884   1.09536    0.000
 4096.00    1.58118   1.09505    0.000
 4097.00    2.04421   1.09939    0.000
 4098.00    2.32723   1.10569    0.000
 4099.00    2.13980   1.11444    0.000
 4100.00    2.08543   1.12508    0.000
 4101.00    2.32988   1.13716    0.000
 4102.00    2.57179   1.15186    0.000
 4103.00    2.80875   1.16623    0.000
 4104.00    2.89448   1.18007    0.000
 4105.00    2.72362   1.19512    0.000
 4106.00    2.40092   1.20866    0.000
 4107.00    1.85251   1.22074    0.000
 4108.00    1.13059   1.23249    0.000
 4109.00    0.18195   1.24243    0.000
 4110.00    0.18296   1.25167    0.000
 4111.00    1.27703   1.25940    0.000
 4112.00    1.92094   1.26555    0.000
 4113.00    2.10788   1.27243    0.011
 4114.00    2.06207   1.27744    0.012
 4115.00    1.80786   1.28104    0.011
 4116.00    1.90981   1.28566    0.016
 4117.00    2.29277   1.28882    0.055
 4118.00    2.17544   1.29156   -1.000
 4119.00    1.71094   1.29425   -1.000
 4120.00    1.55000   1.29601   -1.000
 4121.00    1.57377   1.29840   -1.000
 4122.00    1.30204   1.30006   -1.000
 4123.00    0.87332   1.30083   -1.000
 4124.00    0.81265   1.30229    0.035
 4125.00    0.92168   1.30314    0.014
 4126.00    1.40661   1.30320    0.012
 4127.00    2.04081   1.30346    0.012
 4128.00    2.02965   1.30357    0.012
 4129.00    1.80009   1.30323    0.012
 4130.00    1.62291   1.30289    0.012
 4131.00    1.46064   1.30225    0.012
 4132.00    0.91358   1.30162    0.012
 4133.00    0.27617   1.30150    0.012
 4134.00    0.96152   1.30026    0.012
 4135.00    1.89655   1.29943    0.012
 4136.00    1.70269   1.30032    0.012
 4137.00    1.34399   1.30015    0.012
 4138.00    1.19834   1.30010    0.012
 4139.00    1.07533   1.30107    0.012
 4140.00    0.89035   1.30163    0.012
 4141.00    0.70108   1.30278    0.012
 4142.00    0.91383   1.30384    0.012
 4143.00    1.14043   1.30472    0.012
 4144.00    0.85406   1.30662    0.011
 4145.00    0.55911   1.30800    0.011
 4146.00    0.01483   1.30904    0.011
 4147.00   -0.45894   1.31065    0.000
 4148.00    0.15775   1.31186    0.011
 4149.00    0.77880   1.31282    0.011
 4150.00    1.44274   1.31384    0.011
 4151.00    2.06565   1.31453    0.011
 4152.00    2.39725   1.31519    0.011
 4153.00    2.54744   1.31573    0.011
 4154.00    1.70732   1.31605    0.011
 4155.00    1.02401   1.31643    0.011
 4156.00    1.02610   1.31661    0.011
 4157.00    0.94518   1.31667    0.011
 4158.00    0.56571   1.31695    0.011
 4159.00    0.42297   1.31688    0.010
 4160.00    0.99459   1.31673    0.010
 4161.00    1.35647   1.31704    0.010
 4162.00    1.17968   1.31709    0.010
 4163.00    1.08386   1.31704    0.010
 4164.00    1.16686   1.31723    0.010
 4165.00    1.46443   1.31728    0.010
 4166.00    2.17303   1.31744    0.011
 4167.00    2.60377   1.31757    0.011
 4168.00    2.57012   1.31756    0.011
 4169.00    2.61268   1.31779    0.010
 4170.00    2.76690   1.31789    0.011
 4171.00    2.66657   1.31780    0.011
 4172.00    2.23839   1.31783    0.011
 4173.00    1.74205   1.31771    0.011
 4174.00    1.16835   1.31743    0.011
 4175.00    1.07637   1.31706    0.011
 4176.00    1.46652   1.31649    0.011
 4177.00    1.75670   1.31575    0.011
 4178.00    1.95863   1.31478    0.011
 4179.00    2.30651   1.31356    0.011
 4180.00    2.76789   1.31209    0.011
 4181.00    2.87032   1.31038    0.011
 4182.00    2.72728   1.30845    0.011
 4183.00    2.42908   1.30626    0.011
 4184.00    2.03788   1.30377    0.011
 4185.00    2.22021   1.30119    0.011
 4186.00    2.70251   1.29862    0.011
 4187.00    2.26921   1.29571    0.011
 4188.00    1.42061   1.29303    0.011
 4189.00    1.43107   1.29099    0.011
 4190.00    1.77677   1.28865    0.011
 4191.00    2.22029   1.28687    0.011
 4192.00    2.69630   1.28631    0.011
 4193.00    2.91485   1.28588    0.011
 4194.00    3.06164   1.28599    0.011
 4195.00    2.77294   1.28685    0.011
 4196.00    2.38434   1.28812    0.011
 4197.00    1.12232   1.29008    0.011
 4198.00   -0.30021   1.29221    0.000
 4199.00   -0.03020   1.29462    0.000
 4200.00    0.47914   1.29769    0.011
 4201.00    1.10669   1.30067    0.011
 4202.00    1.74630   1.30345    0.011
 4203.00    1.68693   1.30634    0.011
 4204.00    1.58202   1.30912    0.010
 4205.00    1.50684   1.31156    0.010
 4206.00    1.43373   1.31365    0.011
 4207.00    2.10626   1.31560    0.011
 4208.00    2.71710   1.31727    0.011
 4209.00    1.51533   1.31859    0.010
 4210.00    0.43354   1.31982    0.010
 4211.00    1.09851   1.32077    0.010
 4212.00    1.76882   1.32153    0.011
 4213.00    2.48964   1.32227    0.010
 4214.00    3.09991   1.32275    0.010
 4215.00    2.95018   1.32313    0.010
 4216.00    2.66219   1.32357    0.010
 4217.00    1.63932   1.32381    0.010
 4218.00    0.70629   1.32401    0.010
 4219.00    0.15697   1.32428    0.010
 4220.00   -0.04174   1.32443    0.000
 4221.00    0.99487   1.32454    0.010
 4222.00    1.82524   1.32473    0.010
 4223.00    2.04486   1.32484    0.010
 4224.00    2.05102   1.32493    0.010
 4225.00    1.51851   1.32508    0.010
 4226.00    1.18348   1.32517    0.009
 4227.00    1.27757   1.32528    0.009
 4228.00    1.44573   1.32542    0.009
 4229.00    1.75356   1.32549    0.009
 4230.00    2.12177   1.32560    0.009
 4231.00    2.58939   1.32575    0.009
 4232.00    2.22779   1.32581    0.009
 4233.00    0.66918   1.32592    0.009
 4234.00   -0.10563   1.32606    0.000
 4235.00    0.11471   1.32611    0.009
 4236.00    0.68450   1.32622    0.009
 4237.00    1.64525   1.32636    0.009
 4238.00    1.96235   1.32639    0.009
 4239.00    1.64428   1.32652    0.009
 4240.00    1.42562   1.32665    0.009
 4241.00    1.29345   1.32661    0.009
 4242.00    1.26163   1.32674    0.009
 4243.00    1.30674   1.32688    0.009
 4244.00    1.70576   1.32684    0.009
 4245.00    2.34329   1.32694    0.010
 4246.00    2.16975   1.32702    0.010
 4247.00    1.51732   1.32699    0.010
 4248.00    1.00227   1.32709    0.010
 4249.00    0.55794   1.32703    0.010
 4250.00    0.61453   1.32705    0.010
 4251.00    0.89461   1.32711    0.010
 4252.00    1.12019   1.32687    0.010
 4253.00    1.32486   1.32701    0.010
 4254.00    1.59825   1.32700    0.010
 4255.00    1.89404   1.32656    0.010
 4256.00    1.81087   1.32679    0.010
 4257.00    1.62426   1.32685    0.010
 4258.00    1.66033   1.32650    0.010
 4259.00    1.74631   1.32672    0.010
 4260.00    2.32251   1.32668    0.010
 4261.00    2.98638   1.32659    0.010
 4262.00    2.95249   1.32686    0.010
 4263.00    2.82314   1.32675    0.010
 4264.00    2.08832   1.32692    0.010
 4265.00    1.29435   1.32723    0.010
 4266.00    1.64912   1.32710    0.010
 4267.00    2.07415   1.32741    0.010
 4268.00    1.72490   1.32778    0.010
 4269.00    1.35744   1.32772    0.010
 4270.00    1.51424   1.32798    0.010
 4271.00    1.66035   1.32830    0.010
 4272.00    1.52376   1.32837    0.010
 4273.00    1.38928   1.32855    0.010
 4274.00    1.28362   1.32876    0.010
 4275.00    1.16057   1.32887    0.010
 4276.00    0.87962   1.32901    0.010
 4277.00    0.77206   1.32917    0.010
 4278.00    1.81952   1.32927    0.010
 4279.00    2.58033   1.32936    0.010
 4280.00    1.85724   1.32948    0.010
 4281.00    1.31281   1.32956    0.010
 4282.00    1.51425   1.32961   -2.000
 4283.00    1.88831   1.32969   -2.000
 4284.00    2.85823   1.32972   -2.000
 4285.00    3.43538   1.32971   -2.000
 4286.00    2.87089   1.32976   -2.000
 4287.00    2.33619   1.32974   -2.000
 4288.00    1.87537   1.32964   -2.000
 4289.00    1.49047   1.32963   -2.000
 4290.00    1.26791   1.32955   -2.000
 4291.00    1.18132   1.32939   -2.000
 4292.00    1.34716   1.32928   -2.000
 4293.00    1.50792   1.32912   -2.000
 4294.00    1.66043   1.32889   -2.000
 4295.00    1.70609   1.32870   -2.000
 4296.00    1.59973   1.32842   -2.000
 4297.00    1.39987   1.32813   -2.000
 4298.00    1.08300   1.32780    0.010
 4299.00    0.95746   1.32739    0.010
 4300.00    1.04300   1.32700    0.010
 4301.00    1.29893   1.32650    0.010
 4302.00    1.72066   1.32589    0.009
 4303.00    1.77413   1.32530    0.009
 4304.00    1.51163   1.32453    0.009
 4305.00    1.64748   1.32365    0.009
 4306.00    2.08436   1.32272    0.009
 4307.00    2.06127   1.32151    0.009
 4308.00    1.73274   1.32016    0.009
 4309.00    1.31114   1.31862    0.009
 4310.00    0.83542   1.31665    0.009
 4311.00    0.83168   1.31445    0.009
 4312.00    1.06713   1.31184    0.009
 4313.00    0.99734   1.30859    0.009
 4314.00    0.79360   1.30491    0.009
 4315.00    1.17464   1.30050    0.009
 4316.00    1.77596   1.29514    0.009
 4317.00    1.69223   1.28910    0.009
 4318.00    1.38948   1.28201    0.009
 4319.00    1.47814   1.27359    0.009
 4320.00    1.67142   1.26442    0.009
 4321.00    2.49177   1.25403    0.009
 4322.00    3.44933   1.24198    0.009
 4323.00    2.65251   1.22969    0.009
 4324.00    1.55049   1.21663    0.009
 4325.00    1.50682   1.20193    0.009
 4326.00    1.60313   1.18823    0.009
 4327.00    2.10121   1.17515    0.009
 4328.00    2.63684   1.16130    0.009
 4329.00    2.57819   1.14963    0.009
 4330.00    2.48555   1.13969    0.000
 4331.00    2.47445   1.13060    0.000
 4332.00    2.46457   1.12498    0.000
 4333.00    2.37687   1.12160    0.000
 4334.00    2.30767   1.12041    0.000
 4335.00    2.68276   1.12323    0.000
 4336.00    3.00128   1.12768    0.000
 4337.00    2.58338   1.13463    0.000
 4338.00    2.15302   1.14513    0.000
 4339.00    1.61386   1.15579    0.000
 4340.00    1.19803   1.16819    0.000
 4341.00    1.57876   1.18313    0.000
 4342.00    1.88228   1.19694    0.000
 4343.00    1.79629   1.21084    0.000
 4344.00    1.79673   1.22568    0.000
 4345.00    2.14997   1.23900    0.000
 4346.00    2.37860   1.25124    0.000
 4347.00    2.18572   1.26301    0.000
 4348.00    2.00437   1.27334    0.000
 4349.00    1.85595   1.28251    0.000
 4350.00    1.90051   1.29079    0.000
 4351.00    2.41555   1.29787    0.009
 4352.00    2.75908   1.30402    0.011
 4353.00    2.74183   1.30938    0.027
 4354.00    2.48750   1.31386   -1.000
 4355.00    1.79971   1.31774   -1.000
 4356.00    1.25590   1.32108   -1.000
 4357.00    0.94213   1.32380   -1.000
 4358.00    0.90669   1.32619   -1.000
 4359.00    1.26151   1.32826   -1.000
 4360.00    1.71586   1.32989    0.040
 4361.00    2.29302   1.33134    0.013
 4362.00    2.41329   1.33259    0.009
 4363.00    2.03666   1.33347    0.009
 4364.00    2.05538   1.33424    0.009
 4365.00    2.45336   1.33489    0.009
 4366.00    2.26299   1.33509    0.009
 4367.00    1.57495   1.33517    0.009
 4368.00    1.47971   1.33536    0.009
 4369.00    1.82602   1.33487    0.009
 4370.00    1.81278   1.33425    0.009
 4371.00    1.56427   1.33405    0.009
 4372.00    1.66219   1.33299    0.009
 4373.00    1.95855   1.33190    0.009
 4374.00    2.08242   1.33146    0.009
 4375.00    2.12025   1.33007    0.009
 4376.00    2.12167   1.32905    0.009
 4377.00    2.10737   1.32876    0.009
 4378.00    2.40525   1.32750    0.009
 4379.00    2.81863   1.32722    0.009
 4380.00    2.78424   1.32750    0.009
 4381.00    2.60944   1.32683    0.009
 4382.00    2.25082   1.32773    0.009
 4383.00    1.84411   1.32879    0.009
 4384.00    2.29845   1.32888    0.009
 4385.00    2.93672   1.33089    0.009
 4386.00    2.52639   1.33257    0.009
 4387.00    1.93875   1.33321    0.009
 4388.00    1.52540   1.33571    0.009
 4389.00    1.13432   1.33775    0.009
 4390.00    1.80921   1.33867    0.009
 4391.00    2.57922   1.34085    0.009
 4392.00    1.91565   1.34272    0.009
 4393.00    1.17572   1.34370    0.009
 4394.00    2.07273   1.34520    0.009
 4395.00    2.98328   1.34644    0.009
 4396.00    2.39002   1.34720    0.009
 4397.00    1.78187   1.34815    0.009
 4398.00    0.84677   1.34886    0.009
 4399.00    0.04722   1.34932    0.009
 4400.00    0.92243   1.34989    0.009
 4401.00    1.71435   1.35026    0.009
 4402.00    1.80559   1.35049    0.009
 4403.00    1.90314   1.35087    0.008
 4404.00    2.04023   1.35105    0.008
 4405.00    2.17394   1.35118    0.008
 4406.00    2.29104   1.35152    0.009
 4407.00    2.32012   1.35163    0.009
 4408.00    1.99782   1.35176    0.008
 4409.00    1.74107   1.35214    0.008
 4410.00    1.70170   1.35223    0.008
 4411.00    1.71911   1.35241    0.008
 4412.00    1.89559   1.35283    0.008
 4413.00    2.00908   1.35290    0.008
 4414.00    1.97156   1.35312    0.008
 4415.00    1.83357   1.35350    0.008
 4416.00    1.48760   1.35354    0.008
 4417.00    1.41873   1.35374    0.008
 4418.00    1.84866   1.35399    0.008
 4419.00    2.13140   1.35396    0.008
 4420.00    2.18241   1.35410    0.008
 4421.00    2.03026   1.35419    0.008
 4422.00    1.59738   1.35404    0.008
 4423.00    1.53881   1.35414    0.008
 4424.00    1.93552   1.35409    0.008
 4425.00    2.26641   1.35387    0.008
 4426.00    2.52673   1.35402    0.008
 4427.00    2.49640   1.35390    0.008
 4428.00    2.19117   1.35371    0.008
 4429.00    1.98619   1.35403    0.008
 4430.00    1.86482   1.35394    0.008
 4431.00    1.79884   1.35386    0.008
 4432.00    1.77351   1.35442    0.008
 4433.00    1.67595   1.35445    0.008
 4434.00    1.53182   1.35450    0.008
 4435.00    1.66766   1.35526    0.008
 4436.00    1.96144   1.35542    0.008
 4437.00    2.14623   1.35555    0.008
 4438.00    2.27752   1.35637    0.008
 4439.00    2.17376   1.35662    0.008
 4440.00    1.97028   1.35673    0.008
 4441.00    2.05190   1.35736    0.008
 4442.00    2.23714   1.35761    0.008
 4443.00    2.31212   1.35759    0.008
 4444.00    2.35319   1.35780    0.008
 4445.00    2.09729   1.35780    0.008
 4446.00    1.76536   1.35747    0.008
 4447.00    1.74338   1.35708    0.008
 4448.00    1.78599   1.35659    0.008
 4449.00    1.88936   1.35565    0.008
 4450.00    2.00271   1.35443    0.008
 4451.00    2.26063   1.35329    0.008
 4452.00    2.53637   1.35147    0.008
 4453.00    2.48949   1.34923    0.008
 4454.00    2.41516   1.34753    0.008
 4455.00    2.12928   1.34475    0.008
 4456.00    1.83296   1.34164    0.008
 4457.00    1.66504   1.33989    0.008
 4458.00    1.50665   1.33653    0.008
 4459.00    1.81819   1.33318    0.008
 4460.00    2.13002   1.33235    0.008
 4461.00    2.44797   1.32922    0.000
 4462.00    2.71058   1.32656    0.000
 4463.00    2.32269   1.32763    0.000
 4464.00    1.97723   1.32566    0.000
 4465.00    1.97577   1.32446    0.000
 4466.00    1.97332   1.32781    0.000
 4467.00    1.96491   1.32752    0.000
 4468.00    1.93181   1.32789    0.000
 4469.00    1.78027   1.33298    0.000
 4470.00    1.75437   1.33419    0.000
 4471.00    2.21917   1.33559    0.000
 4472.00    2.47238   1.34120    0.000
 4473.00    2.03760   1.34332    0.000
 4474.00    1.65529   1.34493    0.000
 4475.00    1.41737   1.34984    0.000
 4476.00    1.20414   1.35234    0.000
 4477.00    1.04910   1.35371    0.000
 4478.00    0.97097   1.35703    0.000
 4479.00    1.04951   1.35908    0.000
 4480.00    1.25674   1.36011    0.000
 4481.00    1.69212   1.36214    0.000
 4482.00    1.82889   1.36359    0.008
 4483.00    1.50252   1.36425    0.008
 4484.00    1.38668   1.36540    0.008
 4485.00    1.55757   1.36635    0.008
 4486.00    1.57219   1.36678    0.008
 4487.00    1.39945   1.36740    0.008
 4488.00    1.53857   1.36798    0.008
 4489.00    2.00738   1.36827    0.008
 4490.00    2.21993   1.36864    0.008
 4491.00    2.19350   1.36903    0.008
 4492.00    2.04271   1.36923    0.008
 4493.00    1.78967   1.36948    0.008
 4494.00    1.64272   1.36978    0.008
 4495.00    1.57253   1.36994    0.008
 4496.00    1.53756   1.37012    0.008
 4497.00    1.52497   1.37039    0.008
 4498.00    1.60528   1.37052    0.008
 4499.00    1.73720   1.37065    0.008
 4500.00    1.77324   1.37091    0.008
 4501.00    1.76296   1.37103    0.008
 4502.00    2.00578   1.37112    0.008
 4503.00    2.35419   1.37136    0.008
 4504.00    2.11596   1.37146    0.008
 4505.00    1.66835   1.37151    0.008
 4506.00    1.70284   1.37172    0.008
 4507.00    1.88268   1.37178    0.008
 4508.00    1.92802   1.37177    0.008
 4509.00    1.93968   1.37190    0.008
 4510.00    1.64162   1.37187    0.008
 4511.00    1.28061   1.37177    0.008
 4512.00    1.73366   1.37172    0.008
 4513.00    2.31658   1.37148    0.008
 4514.00    1.89370   1.37116    0.008
 4515.00    1.35128   1.37077    0.008
 4516.00    1.56795   1.37012    0.008
 4517.00    1.84604   1.36937    0.008
 4518.00    1.80514   1.36844    0.008
 4519.00    1.74973   1.36708    0.008
 4520.00    1.92896   1.36566    0.008
 4521.00    2.10728   1.36399    0.008
 4522.00    2.09207   1.36169    0.008
 4523.00    2.05794   1.35947    0.008
 4524.00    1.66851   1.35710    0.008
 4525.00    1.31090   1.35388    0.008
 4526.00    1.30979   1.35107    0.008
 4527.00    1.35069   1.34846    0.008
 4528.00    1.72040   1.34484    0.008
 4529.00    1.96256   1.34208    0.008
 4530.00    1.45052   1.34011    0.008
 4531.00    1.07448   1.33705    0.008
 4532.00    1.33507   1.33528    0.008
 4533.00    1.61429   1.33491    0.008
 4534.00    1.96471   1.33339    0.008
 4535.00    2.05886   1.33334    0.008
 4536.00    1.33592   1.33499    0.008
 4537.00    0.98383   1.33546    0.008
 4538.00    1.63384   1.33723    0.008
 4539.00    1.97227   1.34052    0.008
 4540.00    1.58874   1.34261    0.008
 4541.00    1.36022   1.34562    0.008
 4542.00    1.44242   1.34957    0.008
 4543.00    1.59489   1.35238    0.008
 4544.00    1.87004   1.35572    0.008
 4545.00    1.91050   1.35934    0.008
 4546.00    1.59233   1.36200    0.008
 4547.00    1.43621   1.36494    0.008
 4548.00    1.49764   1.36763    0.008
 4549.00    1.58663   1.36959    0.008
 4550.00    1.70819   1.37182    0.000
 4551.00    1.60449   1.37352    0.000
 4552.00    1.26599   1.37470    0.000
 4553.00    1.28457   1.37621    0.000
 4554.00    1.63146   1.37720    0.000
 4555.00    1.62152   1.37779    0.000
 4556.00    1.32239   1.37877    0.000
 4557.00    1.28805   1.37936    0.000
 4558.00    1.44254   1.37961    0.000
 4559.00    1.52603   1.38025    0.000
 4560.00    1.56508   1.38069    0.000
 4561.00    1.60763   1.38079    0.000
 4562.00    1.65209   1.38122    0.000
 4563.00    1.58767   1.38164    0.000
 4564.00    1.47149   1.38171    0.000
 4565.00    1.51849   1.38202    0.000
 4566.00    1.63242   1.38247    0.000
 4567.00    1.75599   1.38257    0.000
 4568.00    1.88293   1.38277    0.000
 4569.00    1.95271   1.38322    0.000
 4570.00    2.00559   1.38337    0.000
 4571.00    1.64174   1.38348    0.000
 4572.00    1.17579   1.38387    0.000
 4573.00    1.41884   1.38408    0.000
 4574.00    1.80241   1.38410    0.000
 4575.00    1.56930   1.38438    0.000
 4576.00    1.24072   1.38466    0.000
 4577.00    1.52154   1.38462    0.000
 4578.00    1.87209   1.38477    0.000
 4579.00    1.76751   1.38513    0.000
 4580.00    1.62797   1.38506    0.000
 4581.00    1.59806   1.38512    0.000
 4582.00    1.57271   1.38555    0.000
 4583.00    1.75339   1.38549    0.000
 4584.00    1.91879   1.38552    0.000
 4585.00    1.35115   1.38600    0.000
 4586.00    0.82656   1.38599    0.000
 4587.00    1.05442   1.38604    0.000
 4588.00    1.25471   1.38653    0.000
 4589.00    1.16014   1.38659    0.000
 4590.00    1.10159   1.38668    0.000
 4591.00    1.31533   1.38713    0.000
 4592.00    1.50392   1.38726    0.000
 4593.00    1.54789   1.38741    0.000
 4594.00    1.51934   1.38778    0.000
 4595.00    1.15937   1.38797    0.000
 4596.00    0.90056   1.38818    0.000
 4597.00    1.02016   1.38845    0.000
 4598.00    1.10811   1.38867    0.000
 4599.00    1.09707   1.38892    0.000
 4600.00    1.11957   1.38910    0.000
 4601.00    1.23105   1.38932    0.000
 4602.00    1.33962   1.38961    0.000
 4603.00    1.44153   1.38971    0.000
 4604.00    1.44832   1.38993    0.000
 4605.00    1.26744   1.39024    0.000
 4606.00    1.03435   1.39029    0.000
 4607.00    0.71148   1.39050    0.000
 4608.00    0.72257   1.39081    0.000
 4609.00    1.23654   1.39084    0.000
 4610.00    1.43819   1.39103    0.000
 4611.00    1.22658   1.39135    0.000
 4612.00    1.31634   1.39137    0.000
 4613.00    1.75733   1.39154    0.000
 4614.00    1.97025   1.39186    0.000
 4615.00    1.94880   1.39188    0.000
 4616.00    1.88649   1.39199    0.000
 4617.00    1.78712   1.39233    0.000
 4618.00    1.80965   1.39237    0.000
 4619.00    1.92955   1.39237    0.000
 4620.00    1.84693   1.39273    0.000
 4621.00    1.62196   1.39281    0.000
 4622.00    1.56014   1.39267    0.000
 4623.00    1.59890   1.39301    0.000
 4624.00    1.49166   1.39318    0.000
 4625.00    1.30581   1.39288    0.000
 4626.00    1.57382   1.39316    0.000
 4627.00    2.05411   1.39343    0.000
 4628.00    2.05268   1.39301    0.000
 4629.00    1.85705   1.39318    0.000
 4630.00    1.63194   1.39350    0.000
 4631.00    1.39669   1.39306    0.000
 4632.00    1.41784   1.39312    0.000
 4633.00    1.51326   1.39344    0.000
 4634.00    1.58273   1.39306    0.000
 4635.00    1.64599   1.39312    0.000
 4636.00    1.68925   1.39337    0.000
 4637.00    1.72866   1.39316    0.000
 4638.00    1.59997   1.39334    0.000
 4639.00    1.44605   1.39352    0.000
 4640.00    1.38005   1.39350    0.000
 4641.00    1.32372   1.39392    0.000
 4642.00    1.39046   1.39406    0.000
 4643.00    1.46616   1.39418    0.000
 4644.00    1.18204   1.39481    0.000
 4645.00    0.88432   1.39498    0.000
 4646.00    0.98638   1.39518    0.000
 4647.00    1.09079   1.39590    0.000
 4648.00    1.20695   1.39606    0.000
 4649.00    1.32627   1.39627    0.000
 4650.00    1.49725   1.39693    0.000
 4651.00    1.64046   1.39704    0.000
 4652.00    1.49946   1.39713    0.000
 4653.00    1.37026   1.39761    0.000
 4654.00    1.32737   1.39758    0.000
 4655.00    1.29771   1.39750    0.000
 4656.00    1.34204   1.39766    0.000
 4657.00    1.40646   1.39736    0.000
 4658.00    1.56048   1.39699    0.000
 4659.00    1.64362   1.39663    0.000
 4660.00    1.46715   1.39579    0.000
 4661.00    1.31488   1.39499    0.000
 4662.00    1.23683   1.39388    0.000
 4663.00    1.12233   1.39203    0.000
 4664.00    0.91275   1.39064    0.000
 4665.00    0.81548   1.38867    0.000
 4666.00    0.96990   1.38532    0.000
 4667.00    1.14732   1.38325    0.000
 4668.00    1.36941   1.38076    0.000
 4669.00    1.50312   1.37571    0.000
 4670.00    1.48715   1.37309    0.000
 4671.00    1.51630   1.37105    0.000
 4672.00    1.61241   1.36482    0.000
 4673.00    1.53856   1.36208    0.000
 4674.00    1.24305   1.36186    0.000
 4675.00    1.18243   1.35579    0.000
 4676.00    1.39168   1.35354    0.000
 4677.00    1.51284   1.35626    0.000
 4678.00    1.54473   1.35200    0.000
 4679.00    1.57052   1.35077    0.000
 4680.00    1.59088   1.35649    0.000
 4681.00    1.52014   1.35509    0.000
 4682.00    1.37765   1.35498    0.000
 4683.00    1.40783   1.36252    0.000
 4684.00    1.55759   1.36418    0.000
 4685.00    1.65897   1.36505    0.000
 4686.00    1.73097   1.37232    0.000
 4687.00    1.52112   1.37573    0.000
 4688.00    1.16182   1.37730    0.000
 4689.00    1.22313   1.38277    0.000
 4690.00    1.47797   1.38601    0.000
 4691.00    1.55740   1.38766    0.000
 4692.00    1.56732   1.39119    0.000
 4693.00    1.65564   1.39324    0.000
 4694.00    1.77042   1.39434    0.000
 4695.00    1.66802   1.39644    0.000
 4696.00    1.50398   1.39708    0.000
 4697.00    1.54693   1.39729    0.000
 4698.00    1.63833   1.39879    0.000
 4699.00    1.42007   1.39848    0.000
 4700.00    1.14356   1.39772    0.000
 4701.00    1.04389   1.39931    0.000
 4702.00    0.96996   1.39885    0.000
 4703.00    1.42848   1.39725    0.000
 4704.00    1.94331   1.39927    0.000
 4705.00    1.38721   1.39943    0.000
 4706.00    0.75757   1.39735    0.000
 4707.00    0.89173   1.39967    0.000
 4708.00    1.05187   1.40082    0.000
 4709.00    1.24074   1.39874    0.000
 4710.00    1.42342   1.40093    0.000
 4711.00    1.40368   1.40296    0.000
 4712.00    1.39182   1.40139    0.000
 4713.00    1.50095   1.40300    0.000
 4714.00    1.57910   1.40532    0.000
 4715.00    1.35349   1.40461    0.000
 4716.00    1.17018   1.40557    0.000
 4717.00    1.28603   1.40736    0.000
 4718.00    1.46660   1.40730    0.000
 4719.00    1.99931   1.40786    0.000
 4720.00    2.35964   1.40903    0.000
 4721.00    1.96865   1.40925    0.000
 4722.00    1.73135   1.40958    0.000
 4723.00    2.04537   1.41026    0.000
 4724.00    2.19270   1.41052    0.000
 4725.00    1.83820   1.41075    0.000
 4726.00    1.48576   1.41114    0.000
 4727.00    1.13860   1.41136    0.000
 4728.00    0.99270   1.41154    0.000
 4729.00    1.29044   1.41178    0.000
 4730.00    1.57841   1.41195    0.000
 4731.00    1.84770   1.41212    0.000
 4732.00    1.82127   1.41230    0.000
 4733.00    1.30154   1.41244    0.000
 4734.00    1.19035   1.41261    0.000
 4735.00    1.67648   1.41276    0.000
 4736.00    1.89370   1.41289    0.000
 4737.00    1.76517   1.41304    0.000
 4738.00    1.55990   1.41318    0.000
 4739.00    1.26769   1.41331    0.000
 4740.00    1.22497   1.41344    0.000
 4741.00    1.43151   1.41358    0.000
 4742.00    1.59818   1.41370    0.000
 4743.00    1.72973   1.41384    0.000
 4744.00    1.77498   1.41395    0.000
 4745.00    1.75323   1.41408    0.000
 4746.00    1.74368   1.41422    0.000
 4747.00    1.74245   1.41430    0.000
 4748.00    1.88212   1.41443    0.000
 4749.00    2.10609   1.41459    0.000
 4750.00    1.91033   1.41466    0.000
 4751.00    1.49547   1.41478    0.000
 4752.00    1.27422   1.41495    0.000
 4753.00    1.14061   1.41501    0.000
 4754.00    1.63706   1.41513    0.000
 4755.00    2.37884   1.41531    0.000
 4756.00    2.00665   1.41536    0.000
 4757.00    1.26534   1.41549    0.000
 4758.00    1.54519   1.41567    0.000
 4759.00    2.10892   1.41573    0.000
 4760.00    2.07983   1.41585    0.000
 4761.00    1.91514   1.41603    0.007
 4762.00    1.35602   1.41609    0.007
 4763.00    0.72466   1.41622    0.007
 4764.00    0.71737   1.41639    0.007
 4765.00    0.79796   1.41646    0.007
 4766.00    0.97838   1.41659    0.007
 4767.00    1.16893   1.41676    0.007
 4768.00    1.29868   1.41683    0.007
 4769.00    1.42450   1.41695    0.007
 4770.00    1.35314   1.41711    0.007
 4771.00    1.27709   1.41721    0.006
 4772.00    1.83593   1.41729    0.007
 4773.00    2.36679   1.41745    0.007
 4774.00    2.08691   1.41758    0.007
 4775.00    1.81989   1.41763    0.006
 4776.00    1.73883   1.41778    0.007
 4777.00    1.66777   1.41793    0.007
 4778.00    1.69081   1.41797    0.006
 4779.00    1.68839   1.41809    0.006
 4780.00    1.51165   1.41825    0.006
 4781.00    1.33576   1.41830    0.006
 4782.00    1.16444   1.41839    0.006
 4783.00    1.11582   1.41854    0.006
 4784.00    1.58974   1.41861    0.006
 4785.00    1.87001   1.41868    0.006
 4786.00    1.46976   1.41879    0.006
 4787.00    1.21181   1.41886    0.006
 4788.00    1.37426   1.41894    0.006
 4789.00    1.53849   1.41899    0.006
 4790.00    1.70719   1.41905    0.006
 4791.00    1.79674   1.41913    0.006
 4792.00    1.71467   1.41914    0.006
 4793.00    1.66309   1.41914    0.006
 4794.00    1.66890   1.41922    0.006
 4795.00    1.61957   1.41923    0.006
 4796.00    1.47966   1.41915    0.006
 4797.00    1.41257   1.41922    0.006
 4798.00    1.45040   1.41922    0.006
 4799.00    1.51139   1.41907    0.006
 4800.00    1.60174   1.41908    0.007
 4801.00    1.65754   1.41911    0.007
 4802.00    1.67475   1.41892    0.007
 4803.00    1.57706   1.41883    0.006
 4804.00    1.36618   1.41886    0.007
 4805.00    1.25557   1.41865    0.007
 4806.00    1.23207   1.41845    0.006
 4807.00    1.25938   1.41844    0.006
 4808.00    1.32558   1.41826    0.006
 4809.00    1.32365   1.41794    0.006
 4810.00    1.27590   1.41784    0.006
 4811.00    1.34911   1.41769    0.006
 4812.00    1.49362   1.41725    0.006
 4813.00    1.58884   1.41701    0.006
 4814.00    1.65873   1.41686    0.006
 4815.00    1.71077   1.41633    0.006
 4816.00    1.75485   1.41590    0.006
 4817.00    1.60598   1.41566    0.006
 4818.00    1.38330   1.41505    0.006
 4819.00    1.38450   1.41437    0.006
 4820.00    1.45848   1.41395    0.006
 4821.00    1.58224   1.41321    0.006
 4822.00    1.71954   1.41221    0.006
 4823.00    1.66567   1.41146    0.006
 4824.00    1.56907   1.41045    0.007
 4825.00    1.27763   1.40900    0.007
 4826.00    0.95146   1.40769    0.006
 4827.00    1.13511   1.40615    0.006
 4828.00    1.38822   1.40401    0.006
 4829.00    1.57381   1.40180    0.006
 4830.00    1.75284   1.39933    0.006
 4831.00    1.69136   1.39608    0.006
 4832.00    1.61529   1.39244    0.006
 4833.00    1.65550   1.38842    0.006
 4834.00    1.69715   1.38347    0.006
 4835.00    1.44396   1.37773    0.006
 4836.00    1.20244   1.37152    0.006
 4837.00    1.26561   1.36416    0.006
 4838.00    1.31830   1.35562    0.006
 4839.00    1.22804   1.34673    0.006
 4840.00    1.16750   1.33660    0.006
 4841.00    1.37560   1.32492    0.006
 4842.00    1.55154   1.31354    0.006
 4843.00    1.51410   1.30166    0.006
 4844.00    1.50582   1.28804    0.006
 4845.00    1.64804   1.27531    0.006
 4846.00    1.72767   1.26353    0.006
 4847.00    1.54675   1.25044    0.006
 4848.00    1.38704   1.23861    0.000
 4849.00    1.30034   1.22955    0.000
 4850.00    1.29182   1.22019    0.000
 4851.00    1.50996   1.21206    0.000
 4852.00    1.59868   1.20825    0.000
 4853.00    1.36712   1.20554    0.000
 4854.00    1.23308   1.20333    0.000
 4855.00    1.30712   1.20595    0.000
 4856.00    1.30055   1.21084    0.000
 4857.00    1.14462   1.21521    0.000
 4858.00    1.19692   1.22347    0.000
 4859.00    1.58630   1.23447    0.000
 4860.00    1.77167   1.24415    0.000
 4861.00    1.66734   1.25586    0.000
 4862.00    1.60796   1.27045    0.000
 4863.00    1.60471   1.28344    0.000
 4864.00    1.52665   1.29587    0.000
 4865.00    1.36621   1.30943    0.000
 4866.00    1.33896   1.32185    0.000
 4867.00    1.44105   1.33297    0.000
 4868.00    1.47711   1.34401    0.000
 4869.00    1.45662   1.35410    0.000
 4870.00    1.33145   1.36282    0.000
 4871.00    1.12732   1.37091    0.000
 4872.00    1.07992   1.37823    0.000
 4873.00    1.13640   1.38444    0.000
 4874.00    1.28222   1.38993    0.000
 4875.00    1.47989   1.39486    0.006
 4876.00    1.44663   1.39902    0.006
 4877.00    1.29655   1.40258    0.006
 4878.00    1.23862   1.40581    0.006
 4879.00    1.22103   1.40850    0.006
 4880.00    1.16962   1.41082    0.006
 4881.00    1.10549   1.41292    0.006
 4882.00    1.19889   1.41470    0.006
 4883.00    1.34252   1.41624    0.006
 4884.00    1.32752   1.41762    0.006
 4885.00    1.27023   1.41886    0.006
 4886.00    1.15235   1.41989    0.006
 4887.00    1.02126   1.42083    0.006
 4888.00    1.04667   1.42171    0.006
 4889.00    1.09922   1.42239    0.006
 4890.00    1.54135   1.42303    0.006
 4891.00    2.03480   1.42361    0.006
 4892.00    1.83940   1.42400    0.006
 4893.00    1.58001   1.42438    0.006
 4894.00    1.37601   1.42466    0.006
 4895.00    1.17516   1.42471    0.006
 4896.00    1.04809   1.42482    0.006
 4897.00    0.92646   1.42479    0.006
 4898.00    1.21645   1.42440    0.006
 4899.00    1.49747   1.42412    0.006
 4900.00    1.56554   1.42388    0.006
 4901.00    1.63034   1.42291    0.006
 4902.00    1.65283   1.42209    0.006
 4903.00    1.65169   1.42187    0.006
 4904.00    1.44506   1.42022    0.006
 4905.00    1.27200   1.41861    0.006
 4906.00    1.31493   1.41866    0.006
 4907.00    1.37468   1.41726    0.006
 4908.00    1.51904   1.41493    0.006
 4909.00    1.67764   1.41508    0.006
 4910.00    1.89423   1.41480    0.006
 4911.00    1.96573   1.41245    0.006
 4912.00    1.54759   1.41248    0.006
 4913.00    1.21732   1.41344    0.006
 4914.00    1.13718   1.41193    0.006
 4915.00    1.17844   1.41178    0.006
 4916.00    1.51505   1.41391    0.006
 4917.00    1.65561   1.41375    0.006
 4918.00    1.38464   1.41352    0.006
 4919.00    1.22191   1.41622    0.006
 4920.00    1.25668   1.41732    0.006
 4921.00    1.20073   1.41713    0.006
 4922.00    1.00010   1.41954    0.006
 4923.00    0.96756   1.42204    0.006
 4924.00    1.17028   1.42235    0.006
 4925.00    1.28441   1.42381    0.006
 4926.00    1.28943   1.42587    0.006
 4927.00    1.40475   1.42667    0.006
 4928.00    1.63982   1.42756    0.006
 4929.00    1.74489   1.42889    0.006
 4930.00    1.72545   1.42976    0.006
 4931.00    1.55588   1.43032    0.006
 4932.00    1.25954   1.43105    0.006
 4933.00    1.12853   1.43173    0.006
 4934.00    1.12043   1.43207    0.006
 4935.00    1.26604   1.43247    0.006
 4936.00    1.51205   1.43289    0.006
 4937.00    1.60298   1.43311    0.006
 4938.00    1.60526   1.43333    0.006
 4939.00    1.51991   1.43357    0.006
 4940.00    1.39093   1.43372    0.000
 4941.00    1.41054   1.43386    0.000
 4942.00    1.49412   1.43398    0.000
 4943.00    1.49003   1.43410    0.000
 4944.00    1.45359   1.43420    0.000
 4945.00    1.43700   1.43430    0.000
 4946.00    1.42662   1.43438    0.000
 4947.00    1.56837   1.43443    0.000
 4948.00    1.74980   1.43455    0.000
 4949.00    1.58300   1.43460    0.000
 4950.00    1.34204   1.43464    0.000
 4951.00    1.25698   1.43476    0.000
 4952.00    1.19818   1.43479    0.000
 4953.00    1.23372   1.43483    0.000
 4954.00    1.28126   1.43496    0.000
 4955.00    1.29930   1.43498    0.000
 4956.00    1.31473   1.43501    0.000
 4957.00    1.28902   1.43513    0.000
 4958.00    1.26114   1.43516    0.000
 4959.00    1.32450   1.43520    0.000
 4960.00    1.38883   1.43530    0.000
 4961.00    1.39234   1.43533    0.000
 4962.00    1.39848   1.43536    0.000
 4963.00    1.46195   1.43544    0.000
 4964.00    1.50345   1.43548    0.000
 4965.00    1.27527   1.43547    0.000
 4966.00    1.09773   1.43555    0.000
 4967.00    1.34435   1.43562    0.000
 4968.00    1.52277   1.43557    0.000
 4969.00    1.27541   1.43563    0.000
 4970.00    1.09505   1.43570    0.000
 4971.00    1.24320   1.43567    0.000
 4972.00    1.36091   1.43573    0.000
 4973.00    1.35744   1.43579    0.000
 4974.00    1.35132   1.43576    0.000
 4975.00    1.33641   1.43582    0.000
 4976.00    1.39064   1.43587    0.000
 4977.00    1.63815   1.43584    0.000
 4978.00    1.73246   1.43589    0.000
 4979.00    1.46034   1.43593    0.000
 4980.00    1.23923   1.43593    0.000
 4981.00    1.12350   1.43591    0.000
 4982.00    1.10119   1.43596    0.000
 4983.00    1.24674   1.43595    0.000
 4984.00    1.35649   1.43586    0.000
 4985.00    1.40998   1.43587    0.000
 4986.00    1.47921   1.43588    0.000
 4987.00    1.57015   1.43566    0.000
 4988.00    1.57799   1.43549    0.000
 4989.00    1.48495   1.43554    0.000
 4990.00    1.44633   1.43533    0.000
 4991.00    1.46595   1.43469    0.000
 4992.00    1.35501   1.43459    0.000
 4993.00    1.12082   1.43465    0.000
 4994.00    1.17500   1.43371    0.000
 4995.00    1.46923   1.43308    0.000
 4996.00    1.51255   1.43340    0.000
 4997.00    1.37199   1.43254    0.000
 4998.00    1.38567   1.43101    0.000
 4999.00    1.49859   1.43144    0.000
 5000.00    1.57018   1.43147    0.000
 5001.00    1.61850   1.42871    0.000
 5002.00    1.56721   1.42859    0.000
 5003.00    1.46711   1.43023    0.000
 5004.00    1.57630   1.42764    0.000
 5005.00    1.77412   1.42615    0.000
 5006.00    1.64956   1.42870    0.000
 5007.00    1.40810   1.42809    0.000
 5008.00    1.30326   1.42569    0.000
 5009.00    1.24033   1.42765    0.000
 5010.00    1.45658   1.42902    0.000
 5011.00    1.74412   1.42679    0.000
 5012.00    1.53803   1.42767    0.000
 5013.00    1.22938   1.43042    0.000
 5014.00    1.27862   1.42896    0.000
 5015.00    1.38645   1.42860    0.000
 5016.00    1.33400   1.43155    0.000
 5017.00    1.26188   1.43200    0.000
 5018.00    1.50137   1.43119    0.000
 5019.00    1.76719   1.43278    0.000
 5020.00    1.70745   1.43372    0.000
 5021.00    1.63179   1.43340    0.000
 5022.00    1.37070   1.43397    0.000
 5023.00    1.11281   1.43462    0.000
 5024.00    1.22442   1.43459    0.000
 5025.00    1.32905   1.43482    0.000
 5026.00    1.29365   1.43499    0.000
 5027.00    1.26697   1.43479    0.000
 5028.00    1.34211   1.43506    0.000
 5029.00    1.41924   1.43504    0.006
 5030.00    1.51243   1.43438    0.006
 5031.00    1.58240   1.43469    0.006
 5032.00    1.51167   1.43487    0.006
 5033.00    1.49014   1.43378    0.006
 5034.00    1.70400   1.43382    0.006
 5035.00    1.82249   1.43451    0.006
 5036.00    1.56953   1.43348    0.006
 5037.00    1.36308   1.43281    0.006
 5038.00    1.30749   1.43387    0.006
 5039.00    1.30092   1.43392    0.006
 5040.00    1.42889   1.43276    0.006
 5041.00    1.57815   1.43345    0.006
 5042.00    1.77745   1.43420    0.006
 5043.00    1.84082   1.43339    0.006
 5044.00    1.62791   1.43352    0.006
 5045.00    1.48838   1.43450    0.006
 5046.00    1.47869   1.43428    0.006
 5047.00    1.44151   1.43405    0.006
 5048.00    1.36176   1.43488    0.006
 5049.00    1.42726   1.43547    0.006
 5050.00    1.69021   1.43518    0.006
 5051.00    1.76805   1.43552    0.006
 5052.00    1.62434   1.43608    0.006
 5053.00    1.47483   1.43619    0.006
 5054.00    1.31919   1.43621    0.006
 5055.00    1.34388   1.43652    0.006
 5056.00    1.53642   1.43678    0.006
 5057.00    1.68754   1.43685    0.006
 5058.00    1.80469   1.43695    0.006
 5059.00    1.80304   1.43715    0.006
 5060.00    1.71560   1.43724    0.006
 5061.00    1.59325   1.43728    0.006
 5062.00    1.44876   1.43735    0.006
 5063.00    1.53194   1.43743    0.006
 5064.00    1.74134   1.43747    0.006
 5065.00    1.73867   1.43747    0.006
 5066.00    1.63374   1.43750    0.006
 5067.00    1.35062   1.43757    0.006
 5068.00    0.99333   1.43756    0.006
 5069.00    0.99262   1.43754    0.006
 5070.00    1.11889   1.43757    0.006
 5071.00    1.14786   1.43762    0.006
 5072.00    1.14756   1.43756    0.006
 5073.00    1.28947   1.43757    0.006
 5074.00    1.46691   1.43764    0.006
 5075.00    1.58342   1.43758    0.006
 5076.00    1.68759   1.43758    0.006
 5077.00    1.59143   1.43764    0.006
 5078.00    1.46342   1.43759    0.006
 5079.00    1.56387   1.43758    0.006
 5080.00    1.69135   1.43761    0.006
 5081.00    1.67984   1.43761    0.006
 5082.00    1.65715   1.43755    0.006
 5083.00    1.71477   1.43758    0.006
 5084.00    1.77600   1.43758    0.006
 5085.00    1.61558   1.43753    0.006
 5086.00    1.45485   1.43752    0.006
 5087.00    1.40961   1.43752    0.006
 5088.00    1.36130   1.43748    0.006
 5089.00    1.25567   1.43745    0.006
 5090.00    1.16609   1.43744    0.006
 5091.00    1.25512   1.43744    0.006
 5092.00    1.36323   1.43740    0.006
 5093.00    1.61994   1.43735    0.006
 5094.00    1.83270   1.43735    0.006
 5095.00    1.78643   1.43735    0.006
 5096.00    1.73103   1.43729    0.006
 5097.00    1.63301   1.43726    0.006
 5098.00    1.53904   1.43729    0.006
 5099.00    1.46051   1.43723    0.006
 5100.00    1.43052   1.43718    0.006
 5101.00    1.55494   1.43722    0.006
 5102.00    1.64629   1.43719    0.006
 5103.00    1.64850   1.43712    0.006
 5104.00    1.59594   1.43713    0.006
 5105.00    1.41671   1.43712    0.006
 5106.00    1.32152   1.43708    0.006
 5107.00    1.39445   1.43705    0.006
 5108.00    1.43881   1.43703    0.006
 5109.00    1.43338   1.43700    0.006
 5110.00    1.27770   1.43697    0.006
 5111.00    0.89284   1.43694    0.006
 5112.00    0.88561   1.43689    0.006
 5113.00    1.38440   1.43688    0.006
 5114.00    1.67833   1.43686    0.006
 5115.00    1.73053   1.43678    0.006
 5116.00    1.74466   1.43677    0.006
 5117.00    1.71917   1.43677    0.006
 5118.00    1.64752   1.43669    0.006
 5119.00    1.53352   1.43664    0.006
 5120.00    1.54093   1.43665    0.006
 5121.00    1.64656   1.43660    0.006
 5122.00    1.50792   1.43651    0.006
 5123.00    1.19538   1.43652    0.006
 5124.00    1.06942   1.43650    0.006
 5125.00    1.06002   1.43640    0.006
 5126.00    1.16626   1.43636    0.006
 5127.00    1.33563   1.43637    0.006
 5128.00    1.37655   1.43629    0.006
 5129.00    1.35653   1.43622    0.006
 5130.00    1.29735   1.43623    0.006
 5131.00    1.22214   1.43617    0.006
 5132.00    1.23617   1.43609    0.006
 5133.00    1.28141   1.43607    0.006
 5134.00    1.29806   1.43605    0.006
 5135.00    1.30627   1.43595    0.006
 5136.00    1.40262   1.43594    0.006
 5137.00    1.52050   1.43592    0.006
 5138.00    1.53157   1.43582    0.006
 5139.00    1.52154   1.43580    0.006
 5140.00    1.36480   1.43579    0.006
 5141.00    1.18542   1.43571    0.006
 5142.00    1.03015   1.43566    0.006
 5143.00    0.87763   1.43564    0.006
 5144.00    1.01694   1.43558    0.006
 5145.00    1.17851   1.43551    0.006
 5146.00    1.33672   1.43548    0.006
 5147.00    1.49479   1.43543    0.006
 5148.00    1.44910   1.43532    0.006
 5149.00    1.40343   1.43526    0.006
 5150.00    1.42915   1.43519    0.006
 5151.00    1.45590   1.43508    0.006
 5152.00    1.50063   1.43503    0.006
 5153.00    1.53094   1.43492    0.006
 5154.00    1.40787   1.43482    0.006
 5155.00    1.28966   1.43473    0.006
 5156.00    1.20795   1.43462    0.006
 5157.00    1.16132   1.43455    0.006
 5158.00    1.31551   1.43440    0.006
 5159.00    1.44091   1.43436    0.006
 5160.00    1.43514   1.43428    0.006
 5161.00    1.42828   1.43415    0.006
 5162.00    1.41737   1.43410    0.006
 5163.00    1.37697   1.43409    0.006
 5164.00    1.24457   1.43401    0.006
 5165.00    1.13520   1.43389    0.007
 5166.00    1.08683   1.43390    0.016
 5167.00    1.09717   1.43391   -1.000
 5168.00    1.24098   1.43379   -1.000
 5169.00    1.31461   1.43378   -1.000
 5170.00    1.25003   1.43385   -1.000
 5171.00    1.32186   1.43376   -1.000
 5172.00    1.62782   1.43368   -1.000
 5173.00    1.74238   1.43371   -1.000
 5174.00    1.56926   1.43374   -1.000
 5175.00    1.45718   1.43363   -1.000
 5176.00    1.42574   1.43359   -1.000
 5177.00    1.29670   1.43363    0.024
 5178.00    1.05414   1.43359    0.008
 5179.00    0.95850   1.43350    0.006
 5180.00    1.01358   1.43348    0.006
 5181.00    1.05856   1.43350    0.006
 5182.00    1.09442   1.43338    0.006
 5183.00    1.20196   1.43328    0.006
 5184.00    1.36669   1.43333    0.006
 5185.00    1.40340   1.43327    0.006
 5186.00    1.35031   1.43312    0.006
 5187.00    1.37004   1.43308    0.006
 5188.00    1.43460   1.43312    0.006
 5189.00    1.53122   1.43295    0.006
 5190.00    1.64506   1.43281    0.000
 5191.00    1.62265   1.43289    0.000
 5192.00    1.53663   1.43277    0.000
 5193.00    1.37953   1.43260    0.000
 5194.00    1.19383   1.43257    0.000
 5195.00    1.28524   1.43261    0.000
 5196.00    1.47174   1.43245    0.000
 5197.00    1.47124   1.43231    0.000
 5198.00    1.41670   1.43237    0.000
 5199.00    1.41296   1.43234    0.000
 5200.00    1.42135   1.43219    0.000
 5201.00    1.34491   1.43211    0.000
 5202.00    1.25213   1.43219    0.000
 5203.00    1.22153   1.43212    0.000
 5204.00    1.20023   1.43193    0.000
 5205.00    1.39971   1.43195    0.000
 5206.00    1.62337   1.43205    0.000
 5207.00    1.51092   1.43189    0.000
 5208.00    1.37420   1.43174    0.000
 5209.00    1.33378   1.43185    0.000
 5210.00    1.29695   1.43181    0.000
 5211.00    1.35475   1.43160    0.006
 5212.00    1.41243   1.43160    0.005
 5213.00    1.44926   1.43166    0.005
 5214.00    1.48747   1.43151    0.005
 5215.00    1.54825   1.43135    0.005
 5216.00    1.59289   1.43144    0.005
 5217.00    1.47324   1.43134    0.005
 5218.00    1.39929   1.43115    0.006
 5219.00    1.65786   1.43117    0.006
 5220.00    1.86155   1.43114    0.006
 5221.00    1.75941   1.43101    0.006
 5222.00    1.65426   1.43092    0.006
 5223.00    1.53574   1.43098    0.006
 5224.00    1.46857   1.43085    0.006
 5225.00    1.58900   1.43071    0.006
 5226.00    1.66087   1.43073    0.006
 5227.00    1.58406   1.43069    0.006
 5228.00    1.53867   1.43058    0.006
 5229.00    1.57498   1.43051    0.006
 5230.00    1.54272   1.43059    0.006
 5231.00    1.35707   1.43044    0.006
 5232.00    1.31314   1.43033    0.006
 5233.00    1.54388   1.43036    0.006
 5234.00    1.59046   1.43030    0.006
 5235.00    1.32573   1.43017    0.006
 5236.00    1.25869   1.43006    0.006
 5237.00    1.48442   1.43015    0.006
 5238.00    1.54274   1.42998    0.006
 5239.00    1.38309   1.42982    0.006
 5240.00    1.39964   1.42984    0.006
 5241.00    1.61828   1.42974    0.006
 5242.00    1.68375   1.42956    0.006
 5243.00    1.59428   1.42946    0.006
 5244.00    1.46008   1.42947    0.006
 5245.00    1.28598   1.42927    0.006
 5246.00    1.40886   1.42909    0.006
 5247.00    1.76521   1.42910    0.006
 5248.00    1.80142   1.42896    0.006
 5249.00    1.61628   1.42871    0.006
 5250.00    1.36690   1.42869    0.006
 5251.00    1.07858   1.42860    0.006
 5252.00    1.18539   1.42837    0.006
 5253.00    1.50130   1.42826    0.006
 5254.00    1.48582   1.42823    0.006
 5255.00    1.31817   1.42803    0.006
 5256.00    1.41570   1.42784    0.006
 5257.00    1.61808   1.42787    0.006
 5258.00    1.52013   1.42770    0.006
 5259.00    1.32102   1.42752    0.006
 5260.00    1.43011   1.42751    0.006
 5261.00    1.62643   1.42740    0.006
 5262.00    1.42708   1.42722    0.006
 5263.00    1.13537   1.42717    0.006
 5264.00    1.17161   1.42716    0.006
 5265.00    1.26934   1.42698    0.006
 5266.00    1.30912   1.42693    0.006
 5267.00    1.34050   1.42692    0.006
 5268.00    1.47630   1.42677    0.006
 5269.00    1.62308   1.42668    0.006
 5270.00    1.60491   1.42671    0.006
 5271.00    1.57551   1.42663    0.006
 5272.00    1.17125   1.42650    0.006
 5273.00    0.75442   1.42651    0.006
 5274.00    1.13909   1.42643    0.006
 5275.00    1.51484   1.42632    0.006
 5276.00    1.57672   1.42627    0.006
 5277.00    1.62841   1.42624    0.006
 5278.00    1.52486   1.42614    0.006
 5279.00    1.42134   1.42606    0.006
 5280.00    1.31796   1.42603    0.006
 5281.00    1.25111   1.42590    0.006
 5282.00    1.44148   1.42582    0.006
 5283.00    1.61017   1.42575    0.006
 5284.00    1.66130   1.42567    0.006
 5285.00    1.68910   1.42554    0.006
 5286.00    1.61554   1.42545    0.006
 5287.00    1.57320   1.42541    0.006
 5288.00    1.64257   1.42522    0.006
 5289.00    1.73052   1.42515    0.006
 5290.00    1.87429   1.42508    0.006
 5291.00    1.86562   1.42493    0.007
 5292.00    1.46719   1.42480    0.016
 5293.00    1.11325   1.42469   -1.000
 5294.00    0.85718   1.42463   -1.000
 5295.00    0.73237   1.42440   -1.000
 5296.00    0.85804   1.42430   -1.000
 5297.00    1.00203   1.42426   -1.000
 5298.00    1.17652   1.42404   -1.000
 5299.00    1.34880   1.42387   -1.000
 5300.00    1.51784   1.42377   -1.000
 5301.00    1.58128   1.42368   -1.000
 5302.00    1.50917   1.42340   -1.000
 5303.00    1.49129   1.42328    0.023
 5304.00    1.53475   1.42328    0.007
 5305.00    1.56084   1.42298    0.006
 5306.00    1.56963   1.42277    0.006
 5307.00    1.53197   1.42274    0.006
 5308.00    1.45345   1.42262    0.006
 5309.00    1.40763   1.42228    0.006
 5310.00    1.38717   1.42222    0.006
 5311.00    1.38338   1.42225    0.006
 5312.00    1.39095   1.42190    0.006
 5313.00    1.33791   1.42170    0.006
 5314.00    1.24866   1.42176    0.006
 5315.00    1.32982   1.42163    0.006
 5316.00    1.49977   1.42131    0.006
 5317.00    1.44370   1.42130    0.006
 5318.00    1.28554   1.42132    0.006
 5319.00    1.45641   1.42101    0.006
 5320.00    1.75510   1.42086    0.006
 5321.00    1.65711   1.42093    0.006
 5322.00    1.42799   1.42081    0.006
 5323.00    1.28041   1.42054    0.006
 5324.00    1.15543   1.42054    0.006
 5325.00    1.46509   1.42053    0.006
 5326.00    1.87390   1.42028    0.006
 5327.00    1.72309   1.42016    0.006
 5328.00    1.47013   1.42019    0.006
 5329.00    1.63190   1.42009    0.006
 5330.00    1.85182   1.41985    0.005
 5331.00    1.72145   1.41982    0.005
 5332.00    1.55573   1.41980    0.006
 5333.00    1.54575   1.41962    0.005
 5334.00    1.54576   1.41947    0.005
 5335.00    1.52117   1.41948    0.005
 5336.00    1.49590   1.41940    0.005
 5337.00    1.49402   1.41918    0.005
 5338.00    1.49488   1.41913    0.006
 5339.00    1.57372   1.41909    0.006
 5340.00    1.64591   1.41898    0.006
 5341.00    1.62272   1.41880    0.005
 5342.00    1.58396   1.41877    0.005
 5343.00    1.39943   1.41871    0.005
 5344.00    1.22375   1.41852    0.005
 5345.00    1.10846   1.41844    0.005
 5346.00    1.05599   1.41834    0.005
 5347.00    1.33516   1.41829    0.005
 5348.00    1.55630   1.41808    0.005
 5349.00    1.53098   1.41798    0.005
 5350.00    1.50016   1.41791    0.005
 5351.00    1.45002   1.41773    0.005
 5352.00    1.44942   1.41759    0.005
 5353.00    1.59484   1.41744    0.005
 5354.00    1.66702   1.41737    0.005
 5355.00    1.55519   1.41717    0.005
 5356.00    1.49402   1.41698    0.005
 5357.00    1.54253   1.41690    0.005
 5358.00    1.53847   1.41672    0.005
 5359.00    1.43567   1.41654    0.005
 5360.00    1.34664   1.41637    0.005
 5361.00    1.28020   1.41627    0.005
 5362.00    1.29714   1.41608    0.005
 5363.00    1.43400   1.41587    0.005
 5364.00    1.54058   1.41577    0.005
 5365.00    1.60887   1.41558    0.005
 5366.00    1.62719   1.41540    0.005
 5367.00    1.58978   1.41522    0.006
 5368.00    1.45814   1.41508   -2.000
 5369.00    1.23384   1.41487   -2.000
 5370.00    1.33097   1.41464   -2.000
 5371.00    1.70685   1.41448   -2.000
 5372.00    1.77508   1.41422   -2.000
 5373.00    1.60829   1.41397   -2.000
 5374.00    1.72741   1.41368   -2.000
 5375.00    2.03850   1.41339   -2.000
 5376.00    2.10106   1.41302   -2.000
 5377.00    2.01743   1.41254   -2.000
 5378.00    1.70333   1.41207   -2.000
 5379.00    1.27103   1.41150   -2.000
 5380.00    1.01710   1.41083   -2.000
 5381.00    0.84241   1.41000   -2.000
 5382.00    1.12567   1.40905   -2.000
 5383.00    1.58373   1.40808    0.005
 5384.00    1.59648   1.40670    0.005
 5385.00    1.46479   1.40505    0.005
 5386.00    1.50497   1.40351    0.005
 5387.00    1.59181   1.40190    0.005
 5388.00    1.50628   1.39958    0.005
 5389.00    1.38236   1.39696    0.005
 5390.00    1.30810   1.39496    0.005
 5391.00    1.24266   1.39224    0.005
 5392.00    1.11904   1.38860    0.005
 5393.00    0.98752   1.38579    0.005
 5394.00    0.83332   1.38391    0.005
 5395.00    0.67693   1.38041    0.005
 5396.00    1.05856   1.37624    0.005
 5397.00    1.47255   1.37442    0.005
 5398.00    1.55962   1.37263    0.005
 5399.00    1.63657   1.36902    0.005
 5400.00    1.44595   1.36676    0.005
 5401.00    1.26283   1.36727    0.005
 5402.00    1.27319   1.36594    0.005
 5403.00    1.27625   1.36321    0.005
 5404.00    1.18048   1.36387    0.005
 5405.00    1.10622   1.36610    0.005
 5406.00    1.22543   1.36614    0.005
 5407.00    1.32207   1.36654    0.005
 5408.00    1.26953   1.36990    0.005
 5409.00    1.23356   1.37226    0.005
 5410.00    1.28281   1.37277    0.005
 5411.00    1.34286   1.37535    0.005
 5412.00    1.44771   1.37957    0.005
 5413.00    1.49131   1.38218    0.005
 5414.00    1.32451   1.38401    0.005
 5415.00    1.22791   1.38716    0.005
 5416.00    1.33440   1.38996    0.005
 5417.00    1.38358   1.39146    0.005
 5418.00    1.29121   1.39343    0.005
 5419.00    1.20607   1.39598    0.005
 5420.00    1.13629   1.39778    0.005
 5421.00    1.16377   1.39889    0.005
 5422.00    1.37109   1.40025    0.005
 5423.00    1.47012   1.40145    0.005
 5424.00    1.39415   1.40208    0.005
 5425.00    1.36248   1.40278    0.005
 5426.00    1.39357   1.40350    0.005
 5427.00    1.45889   1.40397    0.005
 5428.00    1.56688   1.40418    0.005
 5429.00    1.62026   1.40449    0.005
 5430.00    1.61360   1.40469    0.005
 5431.00    1.51775   1.40469    0.005
 5432.00    1.33542   1.40478    0.005
 5433.00    1.23937   1.40482    0.005
 5434.00    1.21710   1.40474    0.005
 5435.00    1.23601   1.40463    0.005
 5436.00    1.28592   1.40464    0.005
 5437.00    1.34308   1.40454    0.005
 5438.00    1.40505   1.40433    0.005
 5439.00    1.47271   1.40426    0.005
 5440.00    1.54366   1.40415    0.005
 5441.00    1.47484   1.40395    0.005
 5442.00    1.33547   1.40377    0.005
 5443.00    1.33497   1.40370    0.005
 5444.00    1.39516   1.40356    0.005
 5445.00    1.47696   1.40331    0.005
 5446.00    1.56685   1.40319    0.005
 5447.00    1.43895   1.40306    0.005
 5448.00    1.24175   1.40289    0.005
 5449.00    1.31619   1.40270    0.005
 5450.00    1.46285   1.40256    0.005
 5451.00    1.56813   1.40245    0.005
 5452.00    1.66441   1.40223    0.005
 5453.00    1.65107   1.40209    0.005
 5454.00    1.61880   1.40191    0.005
 5455.00    1.64595   1.40181    0.005
 5456.00    1.68090   1.40163    0.005
 5457.00    1.68544   1.40145    0.005
 5458.00    1.68716   1.40132    0.005
 5459.00    1.65466   1.40113    0.005
 5460.00    1.62024   1.40101    0.005
 5461.00    1.71998   1.40079    0.005
 5462.00    1.82007   1.40069    0.005
 5463.00    1.64531   1.40050    0.005
 5464.00    1.47455   1.40036    0.005
 5465.00    1.39767   1.40019    0.005
 5466.00    1.32714   1.40001    0.005
 5467.00    1.33817   1.39991    0.005
 5468.00    1.35444   1.39971    0.005
 5469.00    1.41601   1.39959    0.005
 5470.00    1.46914   1.39938    0.005
 5471.00    1.46819   1.39929    0.005
 5472.00    1.44385   1.39911    0.005
 5473.00    1.30231   1.39893    0.005
 5474.00    1.20790   1.39882    0.005
 5475.00    1.30486   1.39865    0.005
 5476.00    1.37493   1.39851    0.005
 5477.00    1.35449   1.39830    0.005
 5478.00    1.37730   1.39822   -2.000
 5479.00    1.52295   1.39804   -2.000
 5480.00    1.63750   1.39786   -2.000
 5481.00    1.67654   1.39773   -2.000
 5482.00    1.60534   1.39757   -2.000
 5483.00    1.30319   1.39741   -2.000
 5484.00    1.21208   1.39719   -2.000
 5485.00    1.50531   1.39712   -2.000
 5486.00    2.25940   1.39692   -2.000
 5487.00    3.74708   1.39673   -2.000
 5488.00    4.78214   1.39656   -2.000
 5489.00    5.18491   1.39644   -2.000
 5490.00    4.83021   1.39625   -2.000
 5491.00    3.54430   1.39602   -2.000
 5492.00    2.39691   1.39593   -2.000
 5493.00    1.39963   1.39575   -2.000
 5494.00    0.82230   1.39554   -2.000
 5495.00    0.64639   1.39530   -2.000
 5496.00    0.77282   1.39525   -2.000
 5497.00    1.15409   1.39506   -2.000
 5498.00    1.36801   1.39481   -2.000
 5499.00    1.45772   1.39464   -2.000
 5500.00    1.37420   1.39453   -2.000
 5501.00    1.17775   1.39433   -2.000
 5502.00    1.09347   1.39403    0.005
 5503.00    1.07318   1.39397    0.005
 5504.00    1.18716   1.39380    0.005
 5505.00    1.36785   1.39358    0.005
 5506.00    1.44986   1.39331    0.005
 5507.00    1.48947   1.39325    0.005
 5508.00    1.47164   1.39306    0.005
 5509.00    1.43267   1.39279    0.005
 5510.00    1.40700   1.39263    0.005
 5511.00    1.38547   1.39249    0.005
 5512.00    1.48516   1.39229    0.005
 5513.00    1.61640   1.39202    0.005
 5514.00    1.52943   1.39192    0.005
 5515.00    1.39614   1.39173    0.005
 5516.00    1.50903   1.39151    0.005
 5517.00    1.66325   1.39130    0.005
 5518.00    1.61842   1.39119    0.005
 5519.00    1.54839   1.39099    0.005
 5520.00    1.50243   1.39077    0.005
 5521.00    1.45860   1.39063    0.005
 5522.00    1.48698   1.39044    0.005
 5523.00    1.51914   1.39026    0.005
 5524.00    1.47261   1.39008    0.005
 5525.00    1.42394   1.38992    0.005
 5526.00    1.32397   1.38975    0.005
 5527.00    1.23359   1.38959    0.005
 5528.00    1.34946   1.38940    0.005
 5529.00    1.45408   1.38923    0.005
 5530.00    1.42149   1.38908    0.005
 5531.00    1.38792   1.38889    0.005
 5532.00    1.34616   1.38871    0.005
 5533.00    1.31302   1.38857    0.005
 5534.00    1.33358   1.38839    0.005
 5535.00    1.36596   1.38819    0.005
 5536.00    1.45614   1.38802    0.005
 5537.00    1.49681   1.38791    0.005
 5538.00    1.34086   1.38766    0.005
 5539.00    1.19106   1.38748    0.005
 5540.00    1.06160   1.38734    0.005
 5541.00    1.02097   1.38719    0.005
 5542.00    1.22813   1.38690    0.005
 5543.00    1.39100   1.38673    0.005
 5544.00    1.44815   1.38665    0.005
 5545.00    1.43377   1.38640    0.005
 5546.00    1.27194   1.38615    0.005
 5547.00    1.20622   1.38599    0.005
 5548.00    1.31285   1.38590    0.005
 5549.00    1.39518   1.38557    0.005
 5550.00    1.43938   1.38536    0.005
 5551.00    1.43769   1.38526    0.005
 5552.00    1.37281   1.38506    0.005
 5553.00    1.32455   1.38477    0.005
 5554.00    1.29643   1.38455    0.005
 5555.00    1.33339   1.38449    0.005
 5556.00    1.43986   1.38424    0.005
 5557.00    1.46169   1.38394    0.005
 5558.00    1.40375   1.38378    0.005
 5559.00    1.37931   1.38366    0.005
 5560.00    1.38272   1.38340    0.005
 5561.00    1.41367   1.38311    0.005
 5562.00    1.46477   1.38300    0.005
 5563.00    1.41105   1.38282    0.005
 5564.00    1.29000   1.38254    0.005
 5565.00    1.28396   1.38225    0.005
 5566.00    1.34253   1.38215    0.005
 5567.00    1.38923   1.38197    0.005
 5568.00    1.43012   1.38164    0.005
 5569.00    1.42110   1.38132    0.005
 5570.00    1.39100   1.38119    0.005
 5571.00    1.32010   1.38104    0.005
 5572.00    1.23443   1.38064    0.005
 5573.00    1.22074   1.38033    0.005
 5574.00    1.22907   1.38029    0.005
 5575.00    1.26461   1.38002    0.005
 5576.00    1.30709   1.37950    0.005
 5577.00    1.40831   1.37927    0.005
 5578.00    1.52169   1.37941    0.005
 5579.00    1.61029   1.37900    0.005
 5580.00    1.69484   1.37838    0.005
 5581.00    1.69334   1.37833    0.005
 5582.00    1.68134   1.37849    0.005
 5583.00    1.50891   1.37802    0.005
 5584.00    1.32301   1.37752    0.005
 5585.00    1.25302   1.37773    0.005
 5586.00    1.18865   1.37764    0.005
 5587.00    1.26761   1.37710    0.005
 5588.00    1.34832   1.37685    0.005
 5589.00    1.40447   1.37718    0.005
 5590.00    1.45931   1.37695    0.005
 5591.00    1.48836   1.37645    0.005
 5592.00    1.50917   1.37642    0.005
 5593.00    1.43432   1.37656    0.005
 5594.00    1.37032   1.37630    0.005
 5595.00    1.39351   1.37596    0.005
 5596.00    1.42188   1.37603    0.005
 5597.00    1.48151   1.37591    0.005
 5598.00    1.52473   1.37565    0.005
 5599.00    1.48971   1.37546    0.005
 5600.00    1.45975   1.37546    0.005
 5601.00    1.44946   1.37525    0.005
 5602.00    1.44513   1.37504    0.005
 5603.00    1.46006   1.37490    0.005
 5604.00    1.43466   1.37475    0.005
 5605.00    1.29880   1.37455    0.005
 5606.00    1.21659   1.37437    0.005
 5607.00    1.26030   1.37422    0.005
 5608.00    1.32875   1.37400    0.005
 5609.00    1.44740   1.37384    0.005
 5610.00    1.50861   1.37363    0.005
 5611.00    1.46839   1.37345    0.005
 5612.00    1.43235   1.37323    0.005
 5613.00    1.40276   1.37306    0.005
 5614.00    1.39961   1.37286    0.005
 5615.00    1.43235   1.37265    0.005
 5616.00    1.46729   1.37244    0.005
 5617.00    1.50486   1.37223    0.005
 5618.00    1.46033   1.37205    0.005
 5619.00    1.32931   1.37182    0.005
 5620.00    1.34495   1.37159    0.005
 5621.00    1.49687   1.37138    0.005
 5622.00    1.50100   1.37121    0.005
 5623.00    1.38407   1.37093    0.005
 5624.00    1.31937   1.37068    0.005
 5625.00    1.29233   1.37050    0.005
 5626.00    1.34346   1.37033    0.005
 5627.00    1.44406   1.37005    0.005
 5628.00    1.48126   1.36979    0.005
 5629.00    1.48336   1.36963    0.005
 5630.00    1.38232   1.36942    0.005
 5631.00    1.23164   1.36917    0.004
 5632.00    1.24669   1.36892    0.004
 5633.00    1.33058   1.36877    0.005
 5634.00    1.41236   1.36853    0.005
 5635.00    1.49339   1.36831    0.005
 5636.00    1.40942   1.36807    0.005
 5637.00    1.27594   1.36791    0.004
 5638.00    1.17788   1.36773    0.005
 5639.00    1.08863   1.36747    0.005
 5640.00    1.11538   1.36722    0.004
 5641.00    1.16557   1.36706    0.004
 5642.00    1.19075   1.36693    0.004
 5643.00    1.21196   1.36661    0.005
 5644.00    1.26711   1.36637    0.005
 5645.00    1.32626   1.36624    0.005
 5646.00    1.30444   1.36608    0.005
 5647.00    1.27615   1.36571    0.005
 5648.00    1.21685   1.36551    0.005
 5649.00    1.15617   1.36541    0.005
 5650.00    1.32590   1.36518    0.005
 5651.00    1.49288   1.36480    0.005
 5652.00    1.39760   1.36464    0.005
 5653.00    1.30767   1.36453    0.005
 5654.00    1.31630   1.36424    0.005
 5655.00    1.32031   1.36392    0.005
 5656.00    1.27307   1.36377    0.005
 5657.00    1.22451   1.36365    0.005
 5658.00    1.16569   1.36331    0.005
 5659.00    1.10844   1.36307    0.005
 5660.00    1.06034   1.36287    0.005
 5661.00    1.04456   1.36277    0.004
 5662.00    1.17915   1.36244    0.005
 5663.00    1.29821   1.36221    0.005
 5664.00    1.35824   1.36199    0.005
 5665.00    1.38702   1.36186    0.005
 5666.00    1.31665   1.36162    0.005
 5667.00    1.24449   1.36135    0.005
 5668.00    1.16749   1.36116    0.005
 5669.00    1.13768   1.36096    0.005
 5670.00    1.21672   1.36078    0.004
 5671.00    1.33453   1.36046    0.004
 5672.00    1.52973   1.36031    0.004
 5673.00    1.65739   1.36011    0.004
 5674.00    1.66760   1.35994    0.005
 5675.00    1.65011   1.35959    0.005
 5676.00    1.59048   1.35939    0.005
 5677.00    1.48280   1.35926    0.005
 5678.00    1.31087   1.35910    0.005
 5679.00    1.18992   1.35874    0.005
 5680.00    1.12903   1.35844    0.005
 5681.00    1.11192   1.35836    0.005
 5682.00    1.14028   1.35824    0.005
 5683.00    1.21279   1.35787    0.005
 5684.00    1.32575   1.35755    0.005
 5685.00    1.32810   1.35753    0.005
 5686.00    1.24115   1.35735    0.005
 5687.00    1.19410   1.35694    0.005
 5688.00    1.17541   1.35671    0.005
 5689.00    1.16175   1.35673    0.005
 5690.00    1.15122   1.35649    0.004
 5691.00    1.16524   1.35604    0.005
 5692.00    1.19264   1.35587    0.005
 5693.00    1.23171   1.35594    0.005
 5694.00    1.27631   1.35565    0.005
 5695.00    1.34214   1.35524    0.005
 5696.00    1.41664   1.35512    0.005
 5697.00    1.46006   1.35511    0.005
 5698.00    1.49263   1.35480    0.005
 5699.00    1.34892   1.35448    0.005
 5700.00    1.15337   1.35437    0.005
 5701.00    1.25164   1.35427    0.005
 5702.00    1.42149   1.35394    0.005
 5703.00    1.33574   1.35372    0.005
 5704.00    1.19964   1.35358    0.005
 5705.00    1.17177   1.35343    0.005
 5706.00    1.16052   1.35310    0.005
 5707.00    1.34766   1.35292    0.005
 5708.00    1.55728   1.35274    0.005
 5709.00    1.47974   1.35254    0.004
 5710.00    1.38043   1.35226    0.004
 5711.00    1.36231   1.35209    0.004
 5712.00    1.34750   1.35187    0.004
 5713.00    1.30946   1.35160    0.004
 5714.00    1.26962   1.35143    0.004
 5715.00    1.16278   1.35116    0.004
 5716.00    1.07139   1.35096    0.004
 5717.00    1.24541   1.35066    0.004
 5718.00    1.40821   1.35054    0.004
 5719.00    1.45216   1.35021    0.004
 5720.00    1.49280   1.34998    0.004
 5721.00    1.50862   1.34976    0.004
 5722.00    1.50237   1.34960    0.004
 5723.00    1.37017   1.34926    0.004
 5724.00    1.24630   1.34896    0.004
 5725.00    1.16030   1.34887    0.004
 5726.00    1.09970   1.34862    0.004
 5727.00    1.13366   1.34831    0.004
 5728.00    1.18527   1.34800    0.005
 5729.00    1.29184   1.34797    0.005
 5730.00    1.36466   1.34766    0.005
 5731.00    1.34832   1.34736    0.004
 5732.00    1.30964   1.34712    0.004
 5733.00    1.22024   1.34707    0.004
 5734.00    1.16185   1.34677    0.004
 5735.00    1.16441   1.34640    0.005
 5736.00    1.17740   1.34629    0.005
 5737.00    1.20830   1.34619    0.005
 5738.00    1.20959   1.34594    0.004
 5739.00    1.16647   1.34552    0.004
 5740.00    1.15999   1.34549    0.000
 5741.00    1.20180   1.34532    0.000
 5742.00    1.18750   1.34510    0.000
 5743.00    1.10804   1.34471    0.000
 5744.00    1.06540   1.34467    0.000
 5745.00    1.06045   1.34447    0.000
 5746.00    1.13567   1.34427    0.000
 5747.00    1.28331   1.34391    0.000
 5748.00    1.37213   1.34383    0.000
 5749.00    1.41412   1.34365    0.000
 5750.00    1.39625   1.34338    0.000
 5751.00    1.33646   1.34310    0.000
 5752.00    1.36510   1.34294    0.000
 5753.00    1.44806   1.34282    0.000
 5754.00    1.45902   1.34247    0.000
 5755.00    1.43136   1.34223    0.000
 5756.00    1.38539   1.34206    0.000
 5757.00    1.33089   1.34193    0.000
 5758.00    1.36054   1.34154    0.000
 5759.00    1.42397   1.34131    0.000
 5760.00    1.42034   1.34114    0.000
 5761.00    1.39376   1.34100    0.000
 5762.00    1.36319   1.34056    0.000
 5763.00    1.33149   1.34037    0.000
 5764.00    1.26380   1.34023    0.000
 5765.00    1.18755   1.34001    0.000
 5766.00    1.32557   1.33961    0.000
 5767.00    1.50470   1.33939    0.000
 5768.00    1.59032   1.33930    0.000
 5769.00    1.66200   1.33901    0.000
 5770.00    1.54130   1.33867    0.000
 5771.00    1.39963   1.33844    0.000
 5772.00    1.38406   1.33834    0.000
 5773.00    1.37753   1.33802    0.000
 5774.00    1.46626   1.33775    0.000
 5775.00    1.55850   1.33751    0.000
 5776.00    1.44715   1.33737    0.000
 5777.00    1.33664   1.33706    0.000
 5778.00    1.28696   1.33682    0.000
 5779.00    1.23978   1.33658    0.000
 5780.00    1.23267   1.33643    0.000
 5781.00    1.23690   1.33612    0.000
 5782.00    1.35602   1.33586    0.000
 5783.00    1.45905   1.33567    0.000
 5784.00    1.44556   1.33548    0.000
 5785.00    1.43711   1.33518    0.000
 5786.00    1.45667   1.33491    0.000
 5787.00    1.47500   1.33476    0.000
 5788.00    1.48786   1.33452    0.000
 5789.00    1.47285   1.33422    0.000
 5790.00    1.35632   1.33403    0.000
 5791.00    1.24309   1.33382   -2.000
 5792.00    1.13994   1.33356   -2.000
 5793.00    0.99870   1.33328   -2.000
 5794.00    0.75855   1.33317   -2.000
 5795.00    0.60891   1.33287   -2.000
 5796.00    0.66124   1.33264   -2.000
 5797.00    0.78481   1.33242   -2.000
 5798.00    1.04616   1.33231   -2.000
 5799.00    1.22741   1.33200   -2.000
 5800.00    1.27353   1.33176   -2.000
 5801.00    1.28334   1.33166   -2.000
 5802.00    1.23948   1.33149   -2.000
 5803.00    1.16412   1.33119   -2.000
 5804.00    1.04783   1.33097   -2.000
 5805.00    1.02890   1.33096   -2.000
 5806.00    1.12143   1.33072   -2.000
 5807.00    1.23980   1.33045   -2.000
 5808.00    1.38429   1.33024   -2.000
 5809.00    1.51764   1.33027   -2.000
 5810.00    1.64107   1.33001   -2.000
 5811.00    1.64478   1.32977    0.000
 5812.00    1.55454   1.32953    0.000
 5813.00    1.45408   1.32953    0.000
 5814.00    1.34658   1.32933    0.000
 5815.00    1.28238   1.32901    0.000
 5816.00    1.24440   1.32879    0.000
 5817.00    1.21097   1.32877    0.000
 5818.00    1.17995   1.32859    0.000
 5819.00    1.20827   1.32815    0.000
 5820.00    1.26379   1.32798    0.000
 5821.00    1.33995   1.32793    0.000
 5822.00    1.42426   1.32771    0.000
 5823.00    1.46404   1.32728    0.000
 5824.00    1.48886   1.32707    0.000
 5825.00    1.45332   1.32697    0.000
 5826.00    1.40074   1.32668    0.000
 5827.00    1.46360   1.32635    0.000
 5828.00    1.55333   1.32614    0.000
 5829.00    1.54918   1.32593    0.000
 5830.00    1.52748   1.32559    0.000
 5831.00    1.35646   1.32536    0.000
 5832.00    1.16390   1.32511    0.000
 5833.00    1.08788   1.32483    0.000
 5834.00    1.02407   1.32446    0.000
 5835.00    1.20467   1.32426    0.000
 5836.00    1.40181   1.32393    0.000
 5837.00    1.50778   1.32363    0.000
 5838.00    1.61073   1.32322    0.000
 5839.00    1.45620   1.32286    0.000
 5840.00    1.30380   1.32241    0.000
 5841.00    1.22390   1.32218    0.000
 5842.00    1.14921   1.32165    0.000
 5843.00    1.15310   1.32075    0.000
 5844.00    1.16689   1.32012    0.000
 5845.00    1.27680   1.32017    0.000
 5846.00    1.36487   1.31926    0.000
 5847.00    1.29980   1.31724    0.000
 5848.00    1.23662   1.31650    0.000
 5849.00    1.18375   1.31690    0.000
 5850.00    1.12493   1.31532    0.000
 5851.00    1.04036   1.31184    0.000
 5852.00    0.99485   1.31135    0.000
 5853.00    1.08874   1.31213    0.000
 5854.00    1.18907   1.30920    0.000
 5855.00    1.30869   1.30429    0.000
 5856.00    1.39462   1.30490    0.000
 5857.00    1.39462   1.30615    0.000
 5858.00    1.36933   1.30130    0.000
 5859.00    1.28852   1.29561    0.000
 5860.00    1.22431   1.29847    0.000
 5861.00    1.19173   1.30043    0.000
 5862.00    1.19638   1.29335    0.000
 5863.00    1.26291   1.28807    0.000
 5864.00    1.29510   1.29397    0.000
 5865.00    1.27726   1.29691    0.000
 5866.00    1.27457   1.28786    0.000
 5867.00    1.29129   1.28419    0.000
 5868.00    1.31531   1.29236    0.000
 5869.00    1.34759   1.29672    0.000
 5870.00    1.35095   1.28738    0.000
 5871.00    1.32552   1.28585    0.000
 5872.00    1.35819   1.29378    0.000
 5873.00    1.44185   1.29865    0.000
 5874.00    1.45194   1.29193    0.000
 5875.00    1.40510   1.29224    0.000
 5876.00    1.36221   1.29835    0.000
 5877.00    1.32201   1.30134    0.000
 5878.00    1.29695   1.29781    0.000
 5879.00    1.28092   1.29912    0.000
 5880.00    1.23452   1.30326    0.000
 5881.00    1.17234   1.30462    0.000
 5882.00    1.09270   1.30310    0.000
 5883.00    1.00518   1.30444    0.000
 5884.00    0.99079   1.30687    0.000
 5885.00    1.00473   1.30725    0.000
 5886.00    1.03908   1.30667    0.000
 5887.00    1.08015   1.30753    0.000
 5888.00    1.06819   1.30878    0.000
 5889.00    1.04155   1.30873    0.000
 5890.00    1.06210   1.30849    0.000
 5891.00    1.09337   1.30881    0.000
 5892.00    1.07377   1.30937    0.000
 5893.00    1.04491   1.30918    0.000
 5894.00    1.05893   1.30905    0.000
 5895.00    1.07893   1.30904    0.000
 5896.00    1.17254   1.30921    0.000
 5897.00    1.27353   1.30896    0.000
 5898.00    1.27349   1.30883    0.000
 5899.00    1.26702   1.30872    0.000
 5900.00    1.17738   1.30866    0.000
 5901.00    1.08552   1.30838    0.004
 5902.00    1.06691   1.30823    0.004
 5903.00    1.04889   1.30811    0.004
 5904.00    1.04721   1.30793    0.004
 5905.00    1.05293   1.30763    0.004
 5906.00    1.16390   1.30746    0.004
 5907.00    1.26825   1.30734    0.004
 5908.00    1.31103   1.30709    0.004
 5909.00    1.34226   1.30679    0.004
 5910.00    1.29502   1.30663    0.004
 5911.00    1.23716   1.30645    0.004
 5912.00    1.12341   1.30620    0.004
 5913.00    1.04575   1.30592    0.004
 5914.00    1.12091   1.30576    0.004
 5915.00    1.21355   1.30550    0.004
 5916.00    1.36738   1.30530    0.004
 5917.00    1.49882   1.30503    0.004
 5918.00    1.56444   1.30485    0.004
 5919.00    1.59490   1.30454    0.004
 5920.00    1.53723   1.30438    0.004
 5921.00    1.47193   1.30411    0.004
 5922.00    1.39013   1.30391    0.004
 5923.00    1.27834   1.30360    0.004
 5924.00    1.11030   1.30343    0.004
 5925.00    0.99134   1.30318    0.004
 5926.00    0.95269   1.30293    0.004
 5927.00    0.97532   1.30266    0.004
 5928.00    1.08591   1.30246    0.004
 5929.00    1.16667   1.30223    0.004
 5930.00    1.20974   1.30195    0.004
 5931.00    1.25116   1.30171    0.004
 5932.00    1.29073   1.30148    0.004
 5933.00    1.27874   1.30123    0.004
 5934.00    1.21614   1.30096    0.004
 5935.00    1.16577   1.30074    0.004
 5936.00    1.12599   1.30051    0.004
 5937.00    1.12156   1.30022    0.004
 5938.00    1.14409   1.29999    0.004
 5939.00    1.16086   1.29978    0.004
 5940.00    1.17376   1.29952    0.004
 5941.00    1.21758   1.29925    0.004
 5942.00    1.27953   1.29903    0.004
 5943.00    1.35756   1.29885    0.004
 5944.00    1.44383   1.29855    0.004
 5945.00    1.37178   1.29832    0.004
 5946.00    1.22955   1.29812    0.004
 5947.00    1.06578   1.29794    0.004
 5948.00    0.89382   1.29764    0.004
 5949.00    0.88567   1.29741    0.004
 5950.00    0.93053   1.29723    0.004
 5951.00    1.08809   1.29705    0.004
 5952.00    1.27616   1.29676    0.004
 5953.00    1.32881   1.29652    0.004
 5954.00    1.35138   1.29635    0.004
 5955.00    1.32876   1.29614    0.004
 5956.00    1.29815   1.29587    0.004
 5957.00    1.24226   1.29562    0.004
 5958.00    1.18295   1.29541    0.004
 5959.00    1.10045   1.29521    0.004
 5960.00    1.01573   1.29496    0.004
 5961.00    0.97942   1.29471    0.004
 5962.00    0.94599   1.29443    0.004
 5963.00    1.00004   1.29427    0.004
 5964.00    1.05619   1.29403    0.004
 5965.00    1.08927   1.29376    0.004
 5966.00    1.12031   1.29344    0.004
 5967.00    1.09933   1.29334    0.004
 5968.00    1.06865   1.29311    0.004
 5969.00    0.90717   1.29284    0.004
 5970.00    0.76371   1.29251    0.004
 5971.00    0.78146   1.29244    0.004
 5972.00    0.80830   1.29221    0.004
 5973.00    0.89501   1.29194    0.004
 5974.00    0.98300   1.29166    0.004
 5975.00    1.07749   1.29157    0.004
 5976.00    1.15137   1.29131    0.004
 5977.00    1.13991   1.29107    0.004
 5978.00    1.11004   1.29084    0.004
 5979.00    1.01709   1.29072    0.004
 5980.00    0.96826   1.29042    0.004
 5981.00    1.04676   1.29021    0.004
 5982.00    1.11030   1.29000    0.004
 5983.00    1.13698   1.28984    0.004
 5984.00    1.16441   1.28952    0.004
 5985.00    1.19346   1.28933    0.004
 5986.00    1.20094   1.28912    0.004
 5987.00    1.16860   1.28894    0.004
 5988.00    1.15918   1.28861    0.004
 5989.00    1.18670   1.28840    0.004
 5990.00    1.21431   1.28820    0.004
 5991.00    1.24201   1.28802    0.004
 5992.00    1.23411   1.28770    0.004
 5993.00    1.18187   1.28747    0.004
 5994.00    1.17284   1.28729    0.004
 5995.00    1.21119   1.28710    0.004
 5996.00    1.22399   1.28680    0.004
 5997.00    1.21205   1.28656    0.004
 5998.00    1.17035   1.28641    0.004
 5999.00    1.10325   1.28620    0.004
 6000.00    1.12483   1.28595    0.004
 6001.00    1.21307   1.28568    0.004
 6002.00    1.29731   1.28556    0.004
 6003.00    1.37891   1.28531    0.004
 6004.00    1.37738   1.28510    0.004
 6005.00    1.32778   1.28482    0.004
 6006.00    1.26981   1.28472    0.004
 6007.00    1.20761   1.28442    0.004
 6008.00    1.17296   1.28422    0.004
 6009.00    1.15031   1.28396    0.004
 6010.00    1.14299   1.28382    0.004
 6011.00    1.14141   1.28349    0.004
 6012.00    1.18491   1.28328    0.004
 6013.00    1.24272   1.28305    0.004
 6014.00    1.25647   1.28286    0.004
 6015.00    1.25854   1.28251    0.004
 6016.00    1.29785   1.28230    0.004
 6017.00    1.34524   1.28208    0.004
 6018.00    1.40569   1.28182    0.004
 6019.00    1.46839   1.28150    0.004
 6020.00    1.40963   1.28130    0.004
 6021.00    1.33502   1.28107    0.004
 6022.00    1.25472   1.28078    0.004
 6023.00    1.17390   1.28051    0.004
 6024.00    1.17382   1.28033    0.004
 6025.00    1.17824   1.28008    0.004
 6026.00    1.23043   1.27977    0.004
 6027.00    1.28359   1.27956    0.004
 6028.00    1.32744   1.27941    0.004
 6029.00    1.36808   1.27915    0.004
 6030.00    1.33382   1.27883    0.004
 6031.00    1.30069   1.27868    0.004
 6032.00    1.28195   1.27856    0.004
 6033.00    1.26699   1.27830    0.004
 6034.00    1.28459   1.27797    0.004
 6035.00    1.29817   1.27785    0.004
 6036.00    1.28613   1.27774    0.004
 6037.00    1.25621   1.27749    0.004
 6038.00    1.13699   1.27715    0.004
 6039.00    1.03507   1.27703    0.004
 6040.00    1.00320   1.27692    0.004
 6041.00    0.97246   1.27668    0.004
 6042.00    0.94553   1.27631    0.004
 6043.00    0.92555   1.27616    0.004
 6044.00    0.92530   1.27603    0.004
 6045.00    0.95624   1.27580    0.004
 6046.00    1.06274   1.27542    0.004
 6047.00    1.16902   1.27522    0.004
 6048.00    1.27483   1.27505    0.004
 6049.00    1.36813   1.27482    0.004
 6050.00    1.43868   1.27444    0.004
 6051.00    1.44697   1.27419    0.004
 6052.00    1.35632   1.27398    0.004
 6053.00    1.27253   1.27375    0.004
 6054.00    1.19828   1.27339    0.004
 6055.00    1.14525   1.27312    0.004
 6056.00    1.11826   1.27287    0.004
 6057.00    1.11429   1.27264    0.004
 6058.00    1.13522   1.27230    0.004
 6059.00    1.12603   1.27205    0.004
 6060.00    1.08810   1.27179    0.004
 6061.00    1.06342   1.27157    0.004
 6062.00    1.04988   1.27124    0.004
 6063.00    1.06803   1.27103    0.004
 6064.00    1.10964   1.27079    0.004
 6065.00    1.13112   1.27058    0.004
 6066.00    1.13949   1.27027    0.004
 6067.00    1.17482   1.27012    0.004
 6068.00    1.22549   1.26992    0.004
 6069.00    1.24277   1.26970    0.004
 6070.00    1.24348   1.26941    0.004
 6071.00    1.25142   1.26929    0.004
 6072.00    1.26245   1.26914    0.004
 6073.00    1.26691   1.26891    0.004
 6074.00    1.26894   1.26864    0.004
 6075.00    1.24953   1.26852    0.004
 6076.00    1.22344   1.26840    0.004
 6077.00    1.18624   1.26816    0.004
 6078.00    1.14616   1.26790    0.004
 6079.00    1.17228   1.26775    0.004
 6080.00    1.21242   1.26764    0.004
 6081.00    1.28168   1.26739    0.004
 6082.00    1.35582   1.26713    0.004
 6083.00    1.25486   1.26691    0.004
 6084.00    1.13183   1.26681    0.004
 6085.00    1.06823   1.26654    0.004
 6086.00    1.00984   1.26629    0.004
 6087.00    0.98331   1.26599    0.004
 6088.00    0.95843   1.26587    0.004
 6089.00    1.04172   1.26558    0.004
 6090.00    1.12637   1.26534    0.004
 6091.00    1.16647   1.26497    0.004
 6092.00    1.20203   1.26482    0.004
 6093.00    1.14104   1.26451    0.004
 6094.00    1.08533   1.26429    0.004
 6095.00    1.09358   1.26387    0.004
 6096.00    1.10138   1.26369    0.004
 6097.00    1.10538   1.26335    0.004
 6098.00    1.11030   1.26317    0.004
 6099.00    1.12090   1.26274    0.004
 6100.00    1.13577   1.26252    0.004
 6101.00    1.17147   1.26217    0.004
 6102.00    1.19866   1.26204    0.004
 6103.00    1.19218   1.26164    0.004
 6104.00    1.18319   1.26140    0.004
 6105.00    1.16599   1.26105    0.004
 6106.00    1.16884   1.26098    0.004
 6107.00    1.22752   1.26065    0.004
 6108.00    1.24918   1.26039    0.004
 6109.00    1.18265   1.26007    0.004
 6110.00    1.12371   1.26004    0.004
 6111.00    1.08036   1.25979    0.004
 6112.00    1.05733   1.25954    0.004
 6113.00    1.07067   1.25924    0.004
 6114.00    1.10121   1.25922    0.004
 6115.00    1.15869   1.25906    0.004
 6116.00    1.17128   1.25881    0.004
 6117.00    1.12217   1.25855    0.004
 6118.00    1.09368   1.25852    0.004
 6119.00    1.09014   1.25840    0.004
 6120.00    1.09559   1.25815    0.004
 6121.00    1.11062   1.25792    0.004
 6122.00    1.10444   1.25785    0.004
 6123.00    1.07831   1.25775    0.004
 6124.00    1.07707   1.25747    0.004
 6125.00    1.09650   1.25727    0.004
 6126.00    1.10827   1.25715    0.004
 6127.00    1.11445   1.25703    0.004
 6128.00    1.07397   1.25672    0.004
 6129.00    1.00357   1.25653    0.004
 6130.00    0.94384   1.25638    0.004
 6131.00    0.89011   1.25623    0.004
 6132.00    0.93150   1.25587    0.004
 6133.00    1.01932   1.25567    0.004
 6134.00    1.07080   1.25550    0.004
 6135.00    1.10695   1.25531    0.004
 6136.00    1.08518   1.25490    0.004
 6137.00    1.04249   1.25468    0.004
 6138.00    1.06342   1.25449    0.004
 6139.00    1.10376   1.25426    0.004
 6140.00    1.14985   1.25381    0.004
 6141.00    1.19740   1.25357    0.004
 6142.00    1.16434   1.25336    0.004
 6143.00    1.11463   1.25309    0.004
 6144.00    1.04054   1.25260    0.004
 6145.00    0.96250   1.25233    0.004
 6146.00    0.94940   1.25212    0.004
 6147.00    0.94421   1.25181    0.004
 6148.00    0.94881   1.25131    0.004
 6149.00    0.95422   1.25103    0.004
 6150.00    0.98956   1.25082    0.004
 6151.00    1.02633   1.25049    0.004
 6152.00    1.03519   1.24999    0.004
 6153.00    1.04381   1.24972    0.004
 6154.00    1.06174   1.24954    0.004
 6155.00    1.07947   1.24921    0.004
 6156.00    1.09329   1.24874    0.004
 6157.00    1.09908   1.24851    0.004
 6158.00    1.01231   1.24838    0.004
 6159.00    0.93477   1.24808    0.004
 6160.00    0.93109   1.24766    0.004
 6161.00    0.93600   1.24749    0.004
 6162.00    0.99264   1.24741    0.004
 6163.00    1.05551   1.24715    0.004
 6164.00    1.14798   1.24680    0.004
 6165.00    1.23127   1.24669    0.004
 6166.00    1.27900   1.24665    0.004
 6167.00    1.29650   1.24642    0.004
 6168.00    1.21648   1.24616    0.004
 6169.00    1.13830   1.24608    0.004
 6170.00    1.06512   1.24604    0.004
 6171.00    1.00676   1.24582    0.004
 6172.00    0.98308   1.24565    0.004
 6173.00    0.98552   1.24557    0.004
 6174.00    1.04087   1.24550    0.004
 6175.00    1.08879   1.24527    0.004
 6176.00    1.12365   1.24517    0.004
 6177.00    1.15673   1.24506    0.004
 6178.00    1.18710   1.24495    0.004
 6179.00    1.19998   1.24468    0.004
 6180.00    1.18918   1.24463    0.004
 6181.00    1.15993   1.24449    0.004
 6182.00    1.10869   1.24433    0.004
 6183.00    1.08324   1.24401    0.004
 6184.00    1.08490   1.24398    0.004
 6185.00    1.07251   1.24383    0.004
 6186.00    1.04710   1.24362    0.004
 6187.00    1.00985   1.24325    0.004
 6188.00    0.96294   1.24322    0.004
 6189.00    0.96449   1.24307    0.004
 6190.00    1.00092   1.24282    0.004
 6191.00    1.08508   1.24243    0.004
 6192.00    1.19940   1.24234    0.004
 6193.00    1.37951   1.24220    0.004
 6194.00    1.59595   1.24194    0.004
 6195.00    1.94571   1.24154    0.004
 6196.00    2.35949   1.24138   -2.000
 6197.00    2.67199   1.24123   -2.000
 6198.00    2.94250   1.24096   -2.000
 6199.00    2.76063   1.24057   -2.000
 6200.00    2.41841   1.24033   -2.000
 6201.00    1.79963   1.24015   -2.000
 6202.00    1.09808   1.23986   -2.000
 6203.00    0.61340   1.23948   -2.000
 6204.00    0.18259   1.23918   -2.000
 6205.00    0.37058   1.23894   -2.000
 6206.00    0.68316   1.23863   -2.000
 6207.00    0.93827   1.23826   -2.000
 6208.00    1.18431   1.23793    0.004
 6209.00    1.13927   1.23762    0.004
 6210.00    1.06012   1.23728    0.004
 6211.00    0.97764   1.23692    0.004
 6212.00    0.89491   1.23660    0.004
 6213.00    0.89298   1.23623    0.004
 6214.00    0.89461   1.23588    0.004
 6215.00    0.92081   1.23554    0.004
 6216.00    0.94907   1.23525    0.004
 6217.00    1.06246   1.23488    0.004
 6218.00    1.17213   1.23453    0.004
 6219.00    1.21362   1.23423    0.004
 6220.00    1.25061   1.23400    0.004
 6221.00    1.23810   1.23367    0.004
 6222.00    1.22552   1.23336    0.004
 6223.00    1.21239   1.23312    0.004
 6224.00    1.19656   1.23296    0.004
 6225.00    1.16493   1.23270    0.004
 6226.00    1.13748   1.23244    0.004
 6227.00    1.12945   1.23227    0.004
 6228.00    1.11386   1.23218    0.004
 6229.00    1.06967   1.23200    0.004
 6230.00    1.01998   1.23179    0.004
 6231.00    0.95288   1.23167    0.004
 6232.00    0.90400   1.23162    0.004
 6233.00    0.90402   1.23149    0.004
 6234.00    0.92069   1.23131    0.004
 6235.00    0.97568   1.23122    0.004
 6236.00    1.00092   1.23117    0.004
 6237.00    0.96691   1.23108    0.004
 6238.00    0.95388   1.23089    0.004
 6239.00    0.97729   1.23079    0.004
 6240.00    1.04103   1.23073    0.004
 6241.00    1.16608   1.23063    0.004
 6242.00    1.21210   1.23042    0.004
 6243.00    1.15263   1.23029    0.004
 6244.00    1.08270   1.23019    0.004
 6245.00    1.00048   1.23008    0.004
 6246.00    0.96449   1.22984    0.004
 6247.00    0.97643   1.22966    0.004
 6248.00    0.97230   1.22953    0.004
 6249.00    0.95347   1.22940    0.004
 6250.00    0.91398   1.22912    0.004
 6251.00    0.85784   1.22890    0.004
 6252.00    0.85551   1.22876    0.004
 6253.00    0.89134   1.22861    0.004
 6254.00    0.94834   1.22831    0.004
 6255.00    1.01851   1.22805    0.004
 6256.00    1.10667   1.22790    0.004
 6257.00    1.20461   1.22774    0.004
 6258.00    1.31893   1.22743    0.004
 6259.00    1.44099   1.22713    0.004
 6260.00    1.50870   1.22698    0.004
 6261.00    1.55428   1.22682    0.005
 6262.00    1.45581   1.22650    0.005
 6263.00    1.30720   1.22618    0.005
 6264.00    1.15917   1.22602    0.005
 6265.00    1.01131   1.22587    0.005
 6266.00    0.97575   1.22556    0.005
 6267.00    0.96747   1.22521    0.004
 6268.00    0.98800   1.22503    0.004
 6269.00    1.01419   1.22488    0.004
 6270.00    1.04277   1.22458    0.004
 6271.00    1.07172   1.22422    0.004
 6272.00    1.16953   1.22402    0.004
 6273.00    1.27510   1.22385    0.004
 6274.00    1.31093   1.22355    0.004
 6275.00    1.34151   1.22320    0.004
 6276.00    1.24588   1.22297    0.004
 6277.00    1.14518   1.22276    0.004
 6278.00    1.11340   1.22245    0.004
 6279.00    1.08327   1.22210    0.004
 6280.00    1.09955   1.22182    0.000
 6281.00    1.11365   1.22158    0.000
 6282.00    1.09040   1.22122    0.000
 6283.00    1.06522   1.22089    0.000
 6284.00    1.01979   1.22057    0.000
 6285.00    0.97262   1.22027    0.000
 6286.00    0.91244   1.21987    0.000
 6287.00    0.86352   1.21956    0.000
 6288.00    0.87870   1.21922    0.000
 6289.00    0.90169   1.21888    0.000
 6290.00    0.96004   1.21843    0.000
 6291.00    1.02657   1.21815    0.000
 6292.00    1.12345   1.21783    0.000
 6293.00    1.19592   1.21749    0.000
 6294.00    1.19259   1.21703    0.000
 6295.00    1.17637   1.21679    0.000
 6296.00    1.12618   1.21655    0.000
 6297.00    1.09013   1.21623    0.000
 6298.00    1.08610   1.21579    0.000
 6299.00    1.09765   1.21562    0.000
 6300.00    1.13974   1.21549    0.000
 6301.00    1.15496   1.21523    0.000
 6302.00    1.12423   1.21485    0.000
 6303.00    1.08825   1.21473    0.000
 6304.00    1.04441   1.21473    0.000
 6305.00    1.01599   1.21455    0.000
 6306.00    1.00785   1.21423    0.000
 6307.00    1.03467   1.21414    0.000
 6308.00    1.10202   1.21422    0.000
 6309.00    1.10247   1.21412    0.000
 6310.00    1.03453   1.21386    0.000
 6311.00    0.99572   1.21375    0.000
 6312.00    0.98317   1.21386    0.000
 6313.00    0.99922   1.21379    0.000
 6314.00    1.03799   1.21356    0.000
 6315.00    1.05419   1.21343    0.000
 6316.00    1.05462   1.21348    0.000
 6317.00    1.01997   1.21340    0.000
 6318.00    0.96380   1.21319    0.000
 6319.00    0.93708   1.21303    0.000
 6320.00    0.92612   1.21296    0.000
 6321.00    0.95501   1.21283    0.004
 6322.00    1.00242   1.21263    0.004
 6323.00    1.02896   1.21249    0.004
 6324.00    1.04714   1.21227    0.004
 6325.00    1.02832   1.21204    0.004
 6326.00    0.99687   1.21185    0.004
 6327.00    1.00846   1.21177    0.004
 6328.00    1.03243   1.21146    0.004
 6329.00    1.07686   1.21111    0.004
 6330.00    1.12614   1.21093    0.004
 6331.00    1.12874   1.21092    0.004
 6332.00    1.12241   1.21057    0.004
 6333.00    1.13461   1.21015    0.004
 6334.00    1.14956   1.20997    0.004
 6335.00    1.14309   1.21001    0.004
 6336.00    1.13431   1.20969    0.004
 6337.00    1.04710   1.20925    0.004
 6338.00    0.95432   1.20905    0.004
 6339.00    0.89399   1.20911    0.004
 6340.00    0.83484   1.20885    0.004
 6341.00    0.81310   1.20841    0.004
 6342.00    0.79353   1.20820    0.004
 6343.00    0.84549   1.20827    0.004
 6344.00    0.89500   1.20802    0.004
 6345.00    0.90571   1.20760    0.004
 6346.00    0.90893   1.20739    0.004
 6347.00    0.83687   1.20747    0.004
 6348.00    0.77571   1.20719    0.004
 6349.00    0.79326   1.20674    0.004
 6350.00    0.81483   1.20653    0.004
 6351.00    0.85867   1.20665    0.004
 6352.00    0.89083   1.20634    0.004
 6353.00    0.87133   1.20580    0.004
 6354.00    0.84992   1.20556    0.004
 6355.00    0.82153   1.20571    0.004
 6356.00    0.80836   1.20545    0.004
 6357.00    0.84155   1.20485    0.004
 6358.00    0.88972   1.20454    0.004
 6359.00    0.97671   1.20466    0.004
 6360.00    1.05749   1.20448    0.004
 6361.00    1.12446   1.20391    0.004
 6362.00    1.16648   1.20351    0.004
 6363.00    1.16034   1.20351    0.004
 6364.00    1.14531   1.20345    0.004
 6365.00    1.11534   1.20298    0.004
 6366.00    1.10396   1.20253    0.004
 6367.00    1.12002   1.20236    0.004
 6368.00    1.09750   1.20237    0.004
 6369.00    1.02491   1.20202    0.004
 6370.00    0.93416   1.20157    0.004
 6371.00    0.82265   1.20126    0.004
 6372.00    0.77827   1.20123    0.004
 6373.00    0.80155   1.20097    0.004
 6374.00    0.84311   1.20057    0.004
 6375.00    0.90092   1.20016    0.004
 6376.00    0.92504   1.20000    0.004
 6377.00    0.92276   1.19979    0.004
 6378.00    0.89770   1.19939    0.004
 6379.00    0.85694   1.19898    0.004
 6380.00    0.87914   1.19866    0.004
 6381.00    0.93936   1.19844    0.004
 6382.00    0.94982   1.19804    0.004
 6383.00    0.93406   1.19766    0.004
 6384.00    0.88013   1.19723    0.004
 6385.00    0.80874   1.19694    0.004
 6386.00    0.79627   1.19657    0.004
 6387.00    0.80699   1.19621    0.004
 6388.00    0.81608   1.19575    0.004
 6389.00    0.82462   1.19547    0.004
 6390.00    0.86259   1.19513    0.004
 6391.00    0.90885   1.19481    0.004
 6392.00    0.92258   1.19442    0.004
 6393.00    0.92877   1.19423    0.004
 6394.00    0.89962   1.19392    0.004
 6395.00    0.86389   1.19366    0.004
 6396.00    0.85433   1.19342    0.004
 6397.00    0.84853   1.19332    0.004
 6398.00    0.86543   1.19312    0.004
 6399.00    0.88469   1.19289    0.004
 6400.00    0.87046   1.19281    0.004
 6401.00    0.85397   1.19278    0.004
 6402.00    0.83333   1.19272    0.004
 6403.00    0.81256   1.19251    0.004
 6404.00    0.85713   1.19254    0.004
 6405.00    0.90146   1.19254    0.004
 6406.00    0.93821   1.19261    0.004
 6407.00    0.96403   1.19242    0.004
 6408.00    0.82590   1.19244    0.004
 6409.00    0.70275   1.19245    0.004
 6410.00    0.72417   1.19257    0.004
 6411.00    0.75170   1.19241    0.004
 6412.00    0.82192   1.19234    0.004
 6413.00    0.88603   1.19235    0.004
 6414.00    0.91723   1.19244    0.004
 6415.00    0.94618   1.19229    0.004
 6416.00    0.96543   1.19211    0.004
 6417.00    0.97101   1.19210    0.004
 6418.00    0.92794   1.19211    0.004
 6419.00    0.90417   1.19197    0.004
 6420.00    0.93809   1.19170    0.004
 6421.00    0.97198   1.19167    0.004
 6422.00    1.00579   1.19158    0.004
 6423.00    0.99158   1.19146    0.004
 6424.00    0.87217   1.19111    0.004
 6425.00    0.78733   1.19106    0.004
 6426.00    0.76820   1.19087    0.004
 6427.00    0.79847   1.19078    0.004
 6428.00    0.91066   1.19040    0.004
 6429.00    0.97325   1.19028    0.004
 6430.00    0.96373   1.19008    0.004
 6431.00    0.94051   1.18996    0.004
 6432.00    0.89979   1.18960    0.004
 6433.00    0.89555   1.18943    0.004
 6434.00    0.93242   1.18921    0.004
 6435.00    0.93955   1.18909    0.004
 6436.00    0.91712   1.18873    0.004
 6437.00    0.92423   1.18853    0.004
 6438.00    0.95722   1.18831    0.004
 6439.00    0.95655   1.18817    0.004
 6440.00    0.92988   1.18785    0.004
 6441.00    0.89753   1.18760    0.004
 6442.00    0.86132   1.18739    0.004
 6443.00    0.84850   1.18725    0.004
 6444.00    0.84960   1.18697    0.004
 6445.00    0.82636   1.18668    0.004
 6446.00    0.79050   1.18650    0.004
 6447.00    0.73043   1.18632    0.004
 6448.00    0.65948   1.18607    0.004
 6449.00    0.64141   1.18578    0.004
 6450.00    0.64381   1.18561    0.004
 6451.00    0.70131   1.18542    0.004
 6452.00    0.77693   1.18517    0.004
 6453.00    0.82667   1.18489    0.004
 6454.00    0.86926   1.18472    0.004
 6455.00    0.89758   1.18453    0.004
 6456.00    0.92266   1.18429    0.004
 6457.00    0.97688   1.18399    0.004
 6458.00    1.03638   1.18382    0.004
 6459.00    1.03159   1.18364    0.004
 6460.00    1.01786   1.18340    0.004
 6461.00    0.95329   1.18308    0.004
 6462.00    0.88365   1.18289    0.004
 6463.00    0.80113   1.18272    0.004
 6464.00    0.71779   1.18249    0.004
 6465.00    0.72056   1.18218    0.004
 6466.00    0.72591   1.18194    0.004
 6467.00    0.76358   1.18177    0.004
 6468.00    0.80134   1.18155    0.004
 6469.00    0.84149   1.18127    0.004
 6470.00    0.87953   1.18098    0.004
 6471.00    0.88785   1.18079    0.004
 6472.00    0.89900   1.18057    0.004
 6473.00    0.93633   1.18031    0.004
 6474.00    0.96594   1.18002    0.004
 6475.00    0.94339   1.17978    0.004
 6476.00    0.92067   1.17954    0.004
 6477.00    0.89707   1.17928    0.004
 6478.00    0.89226   1.17903    0.004
 6479.00    0.96678   1.17874    0.004
 6480.00    1.02917   1.17847    0.004
 6481.00    1.04926   1.17818    0.004
 6482.00    1.03364   1.17796    0.004
 6483.00    0.91325   1.17764    0.004
 6484.00    0.81839   1.17735    0.004
 6485.00    0.78742   1.17701    0.004
 6486.00    0.78459   1.17678    0.004
 6487.00    0.84242   1.17646    0.004
 6488.00    0.91865   1.17614    0.004
 6489.00    1.02933   1.17575    0.004
 6490.00    1.10620   1.17544    0.004
 6491.00    1.12781   1.17513    0.004
 6492.00    1.12460   1.17473    0.004
 6493.00    1.08582   1.17432    0.004
 6494.00    1.01738   1.17392    0.004
 6495.00    0.91154   1.17355    0.004
 6496.00    0.83968   1.17307    0.004
 6497.00    0.80555   1.17265    0.004
 6498.00    0.82574   1.17212    0.004
 6499.00    0.89916   1.17165    0.004
 6500.00    0.97321   1.17110    0.004
 6501.00    1.04781   1.17061    0.004
 6502.00    1.04378   1.16999    0.004
 6503.00    0.97991   1.16943    0.004
 6504.00    0.93712   1.16879    0.004
 6505.00    0.90842   1.16819    0.004
 6506.00    0.91578   1.16750    0.004
 6507.00    0.94426   1.16687    0.004
 6508.00    0.94825   1.16615    0.004
 6509.00    0.93974   1.16545    0.004
 6510.00    0.93606   1.16468    0.004
 6511.00    0.93451   1.16401    0.004
 6512.00    0.96554   1.16321    0.004
 6513.00    1.00894   1.16238    0.004
 6514.00    1.04410   1.16152    0.004
 6515.00    1.07658   1.16074    0.004
 6516.00    1.03970   1.15989    0.004
 6517.00    0.98409   1.15882    0.004
 6518.00    0.89584   1.15777    0.004
 6519.00    0.80037   1.15667    0.004
 6520.00    0.80998   1.15566    0.004
 6521.00    0.83813   1.15421    0.004
 6522.00    0.85536   1.15267    0.004
 6523.00    0.87112   1.15094    0.004
 6524.00    0.87295   1.14942    0.004
 6525.00    0.87345   1.14733    0.004
 6526.00    0.80879   1.14491    0.004
 6527.00    0.74029   1.14215    0.004
 6528.00    0.73390   1.13961    0.000
 6529.00    0.72912   1.13655    0.000
 6530.00    0.73165   1.13288    0.000
 6531.00    0.73450   1.12858    0.000
 6532.00    0.74561   1.12451    0.000
 6533.00    0.75824   1.12021    0.000
 6534.00    0.79115   1.11513    0.000
 6535.00    0.82150   1.10910    0.000
 6536.00    0.82921   1.10311    0.000
 6537.00    0.83568   1.09778    0.000
 6538.00    0.83405   1.09187    0.000
 6539.00    0.83767   1.08487    0.000
 6540.00    0.86819   1.07742    0.000
 6541.00    0.90044   1.07146    0.000
 6542.00    0.93978   1.06561    0.000
 6543.00    0.98047   1.05900    0.000
 6544.00    1.02577   1.05137    0.000
 6545.00    1.05044   1.04565    0.000
 6546.00    1.01570   1.04119    0.000
 6547.00    0.99659   1.03662    0.000
 6548.00    1.01592   1.03066    0.000
 6549.00    1.02359   1.02630    0.000
 6550.00    1.00652   1.02454    0.000
 6551.00    0.99568   1.02347    0.000
 6552.00    0.99630   1.02143    0.000
 6553.00    0.99496   1.01953    0.000
 6554.00    0.99044   1.02106    0.000
 6555.00    1.00532   1.02399    0.000
 6556.00    1.04759   1.02684    0.000
 6557.00    1.14930   1.02866    0.000
 6558.00    1.32487   1.03237    0.000
 6559.00    1.46258   1.03768    0.000
 6560.00    1.55884   1.04348    0.000
 6561.00    1.55713   1.04827    0.000
 6562.00    1.46079   1.05356    0.000
 6563.00    1.30844   1.05995    0.000
 6564.00    1.10838   1.06679    0.000
 6565.00    1.00501   1.07316    0.000
 6566.00    0.97419   1.07885    0.000
 6567.00    0.95949   1.08513    0.000
 6568.00    0.95541   1.09144    0.000
 6569.00    0.94870   1.09781    0.000
 6570.00    0.94046   1.10323    0.000
 6571.00    0.91813   1.10833    0.000
 6572.00    0.88871   1.11300    0.000
 6573.00    0.89360   1.11785    0.000
 6574.00    0.91343   1.12216    0.000
 6575.00    0.94548   1.12594    0.000
 6576.00    0.98208   1.12911    0.000
 6577.00    1.00492   1.13222    0.000
 6578.00    1.02340   1.13522    0.000
 6579.00    1.10863   1.13772    0.000
 6580.00    1.21151   1.13977    0.000
 6581.00    1.21025   1.14160    0.000
 6582.00    1.18647   1.14340    0.000
 6583.00    1.15918   1.14498    0.000
 6584.00    1.13128   1.14620    0.000
 6585.00    1.04851   1.14722    0.000
 6586.00    0.95860   1.14820    0.000
 6587.00    0.89514   1.14915    0.000
 6588.00    0.83410   1.14978    0.000
 6589.00    0.88328   1.15032    0.000
 6590.00    0.93854   1.15086    0.000
 6591.00    0.90022   1.15138    0.000
 6592.00    0.86005   1.15166    0.000
 6593.00    0.83553   1.15189    0.000
 6594.00    0.81276   1.15227    0.000
 6595.00    0.82999   1.15241    0.000
 6596.00    0.84784   1.15265    0.000
 6597.00    0.87367   1.15260    0.000
 6598.00    0.90048   1.15286    0.000
 6599.00    0.93562   1.15283    0.000
 6600.00    0.95749   1.15302    0.000
 6601.00    0.89492   1.15292    0.000
 6602.00    0.83973   1.15292    0.000
 6603.00    0.82130   1.15295    0.000
 6604.00    0.81480   1.15298    0.000
 6605.00    0.85643   1.15296    0.000
 6606.00    0.88674   1.15270    0.000
 6607.00    0.87911   1.15286    0.000
 6608.00    0.87437   1.15269    0.000
 6609.00    0.87779   1.15276    0.004
 6610.00    0.89232   1.15242    0.004
 6611.00    0.93368   1.15249    0.004
 6612.00    0.96795   1.15236    0.004
 6613.00    0.98739   1.15234    0.004
 6614.00    0.99370   1.15215    0.004
 6615.00    0.97617   1.15196    0.004
 6616.00    0.96275   1.15196    0.004
 6617.00    0.95586   1.15185    0.004
 6618.00    0.97804   1.15177    0.004
 6619.00    1.04072   1.15139    0.004
 6620.00    1.07984   1.15147    0.004
 6621.00    1.09011   1.15133    0.004
 6622.00    1.09861   1.15125    0.004
 6623.00    1.10521   1.15092    0.004
 6624.00    1.07023   1.15085    0.004
 6625.00    0.99564   1.15081    0.004
 6626.00    0.92713   1.15065    0.004
 6627.00    0.86371   1.15046    0.004
 6628.00    0.79387   1.15021    0.004
 6629.00    0.71928   1.15021    0.004
 6630.00    0.68635   1.15005    0.004
 6631.00    0.68047   1.14988    0.004
 6632.00    0.66136   1.14954    0.004
 6633.00    0.63472   1.14951    0.004
 6634.00    0.65236   1.14938    0.004
 6635.00    0.69191   1.14918    0.004
 6636.00    0.74267   1.14883    0.004
 6637.00    0.79823   1.14866    0.004
 6638.00    0.85635   1.14855    0.004
 6639.00    0.91542   1.14830    0.004
 6640.00    0.95639   1.14796    0.004
 6641.00    0.99175   1.14761    0.004
 6642.00    0.94617   1.14737    0.004
 6643.00    0.87965   1.14715    0.004
 6644.00    0.81644   1.14682    0.004
 6645.00    0.75392   1.14618    0.004
 6646.00    0.72933   1.14568    0.004
 6647.00    0.71107   1.14542    0.004
 6648.00    0.79446   1.14515    0.004
 6649.00    0.89060   1.14440    0.004
 6650.00    0.93012   1.14345    0.004
 6651.00    0.96470   1.14293    0.004
 6652.00    0.93489   1.14279    0.004
 6653.00    0.90177   1.14219    0.004
 6654.00    0.86433   1.14063    0.004
 6655.00    0.82713   1.13950    0.004
 6656.00    0.81264   1.13946    0.004
 6657.00    0.79652   1.13945    0.004
 6658.00    0.74615   1.13772    0.004
 6659.00    0.70502   1.13581    0.004
 6660.00    0.77532   1.13544    0.004
 6661.00    0.83955   1.13612    0.004
 6662.00    0.85366   1.13529    0.004
 6663.00    0.86537   1.13286    0.004
 6664.00    0.86229   1.13181    0.004
 6665.00    0.85234   1.13282    0.004
 6666.00    0.80902   1.13328    0.004
 6667.00    0.76610   1.13102    0.004
 6668.00    0.72478   1.12928    0.004
 6669.00    0.68959   1.12995    0.004
 6670.00    0.67450   1.13170    0.004
 6671.00    0.68879   1.13107    0.004
 6672.00    0.78464   1.12917    0.004
 6673.00    0.84946   1.12914    0.004
 6674.00    0.84053   1.13097    0.004
 6675.00    0.80809   1.13183    0.004
 6676.00    0.72737   1.13073    0.004
 6677.00    0.69120   1.13023    0.004
 6678.00    0.73460   1.13153    0.004
 6679.00    0.79561   1.13302    0.004
 6680.00    0.88412   1.13287    0.004
 6681.00    0.94759   1.13234    0.004
 6682.00    0.97671   1.13287    0.004
 6683.00    1.00131   1.13434    0.004
 6684.00    1.02045   1.13504    0.004
 6685.00    1.02015   1.13485    0.004
 6686.00    0.99916   1.13490    0.004
 6687.00    0.94345   1.13565    0.004
 6688.00    0.85512   1.13634    0.004
 6689.00    0.78517   1.13661    0.004
 6690.00    0.73041   1.13652    0.004
 6691.00    0.75024   1.13674    0.004
 6692.00    0.82441   1.13717    0.004
 6693.00    0.86415   1.13746    0.004
 6694.00    0.88186   1.13749    0.004
 6695.00    0.89216   1.13736    0.004
 6696.00    0.89830   1.13754    0.000
 6697.00    0.85446   1.13764    0.000
 6698.00    0.78627   1.13782    0.000
 6699.00    0.74834   1.13754    0.000
 6700.00    0.72315   1.13752    0.000
 6701.00    0.69409   1.13743    0.000
 6702.00    0.66365   1.13756    0.000
 6703.00    0.64253   1.13742    0.000
 6704.00    0.62426   1.13718    0.000
 6705.00    0.67344   1.13708    0.000
 6706.00    0.73971   1.13700    0.000
 6707.00    0.79941   1.13707    0.000
 6708.00    0.85776   1.13667    0.000
 6709.00    0.94302   1.13663    0.000
 6710.00    1.03263   1.13638    0.000
 6711.00    1.14676   1.13646    0.000
 6712.00    1.26386   1.13618    0.000
 6713.00    1.33033   1.13602    0.000
 6714.00    1.39260   1.13581    0.000
 6715.00    1.29292   1.13571    0.000
 6716.00    1.18555   1.13571    0.000
 6717.00    1.05701   1.13535    0.000
 6718.00    0.93034   1.13525    0.000
 6719.00    0.92641   1.13503    0.000
 6720.00    0.92015   1.13506    0.000
 6721.00    0.86851   1.13475    0.000
 6722.00    0.82418   1.13466    0.000
 6723.00    0.86360   1.13443    0.000
 6724.00    0.91198   1.13431    0.000
 6725.00    1.03175   1.13420    0.000
 6726.00    1.14099   1.13403    0.000
 6727.00    1.18712   1.13385    0.000
 6728.00    1.20859   1.13365    0.000
 6729.00    1.11314   1.13359    0.000
 6730.00    1.02737   1.13337    0.000
 6731.00    0.97897   1.13332    0.000
 6732.00    0.94212   1.13309    0.000
 6733.00    0.94245   1.13288    0.000
 6734.00    0.93920   1.13274    0.000
 6735.00    0.92615   1.13276    0.000
 6736.00    0.90975   1.13251    0.000
 6737.00    0.88551   1.13226    0.000
 6738.00    0.89667   1.13210    0.000
 6739.00    0.97933   1.13210    0.000
 6740.00    1.00216   1.13197    0.000
 6741.00    0.91975   1.13169    0.000
 6742.00    0.85980   1.13145    0.000
 6743.00    0.83440   1.13136    0.000
 6744.00    0.83125   1.13143    0.000
 6745.00    0.85816   1.13110    0.000
 6746.00    0.89758   1.13081    0.000
 6747.00    0.95189   1.13063    0.000
 6748.00    0.98789   1.13076    0.000
 6749.00    1.00466   1.13048    0.000
 6750.00    0.99383   1.13019    0.000
 6751.00    0.95746   1.12998    0.000
 6752.00    0.95807   1.12996    0.000
 6753.00    0.98885   1.12986    0.004
 6754.00    1.08323   1.12955    0.004
 6755.00    1.22328   1.12931    0.004
 6756.00    1.17038   1.12916    0.004
 6757.00    0.99582   1.12916    0.004
 6758.00    0.90904   1.12886    0.004
 6759.00    0.87064   1.12864    0.004
 6760.00    0.94928   1.12844    0.004
 6761.00    1.08400   1.12839    0.005
 6762.00    1.22882   1.12814    0.005
 6763.00    1.37782   1.12795    0.005
 6764.00    1.25275   1.12777    0.005
 6765.00    1.03076   1.12760    0.005
 6766.00    1.02336   1.12742    0.005
 6767.00    1.08000   1.12723    0.005
 6768.00    1.01005   1.12707    0.005
 6769.00    0.90873   1.12688    0.004
 6770.00    0.88368   1.12675    0.004
 6771.00    0.87395   1.12650    0.004
 6772.00    0.95821   1.12636    0.004
 6773.00    1.05725   1.12621    0.004
 6774.00    1.07323   1.12606    0.004
 6775.00    1.07952   1.12582    0.004
 6776.00    1.01217   1.12570    0.004
 6777.00    0.93901   1.12553    0.004
 6778.00    0.96282   1.12538    0.004
 6779.00    0.99086   1.12524    0.004
 6780.00    0.97521   1.12503    0.004
 6781.00    0.95903   1.12487    0.004
 6782.00    0.93939   1.12475    0.004
 6783.00    0.92376   1.12464    0.004
 6784.00    0.98058   1.12442    0.004
 6785.00    1.03209   1.12427    0.004
 6786.00    1.02562   1.12412    0.004
 6787.00    1.02496   1.12400    0.004
 6788.00    1.06903   1.12385    0.004
 6789.00    1.10225   1.12372    0.004
 6790.00    1.07225   1.12349    0.004
 6791.00    1.03054   1.12340    0.004
 6792.00    0.93472   1.12326    0.004
 6793.00    0.86730   1.12311    0.004
 6794.00    0.90733   1.12293    0.004
 6795.00    0.93388   1.12278    0.004
 6796.00    0.91790   1.12264    0.004
 6797.00    0.91744   1.12247    0.004
 6798.00    0.95856   1.12240    0.004
 6799.00    1.00267   1.12214    0.004
 6800.00    1.05365   1.12203    0.004
 6801.00    1.09863   1.12182    0.004
 6802.00    1.13170   1.12177    0.004
 6803.00    1.14238   1.12156    0.004
 6804.00    1.11429   1.12140    0.004
 6805.00    1.07616   1.12121    0.004
 6806.00    1.02283   1.12105    0.004
 6807.00    0.98279   1.12100    0.004
 6808.00    0.96048   1.12076    0.004
 6809.00    0.95202   1.12062    0.004
 6810.00    0.95983   1.12035    0.004
 6811.00    0.99114   1.12034    0.004
 6812.00    1.04678   1.12017    0.004
 6813.00    1.04368   1.11998    0.004
 6814.00    0.98696   1.11975    0.004
 6815.00    0.93782   1.11961    0.004
 6816.00    0.89479   1.11955    0.004
 6817.00    0.87126   1.11936    0.004
 6818.00    0.86154   1.11917    0.004
 6819.00    0.86281   1.11891    0.004
 6820.00    0.87090   1.11887    0.004
 6821.00    0.81571   1.11874    0.004
 6822.00    0.72616   1.11855    0.004
 6823.00    0.67148   1.11830    0.004
 6824.00    0.63325   1.11817    0.004
 6825.00    0.54838   1.11809    0.004
 6826.00    0.44454   1.11791    0.004
 6827.00    0.50988   1.11771    0.004
 6828.00    0.63396   1.11749    0.004
 6829.00    0.76520   1.11742    0.004
 6830.00    0.89854   1.11724    0.004
 6831.00    0.93207   1.11708    0.004
 6832.00    0.94142   1.11686    0.004
 6833.00    0.95605   1.11675    0.004
 6834.00    0.97171   1.11659    0.004
 6835.00    1.03935   1.11638    0.004
 6836.00    1.11490   1.11625    0.004
 6837.00    1.19292   1.11606    0.004
 6838.00    1.27121   1.11598    0.004
 6839.00    1.06711   1.11567    0.004
 6840.00    0.84190   1.11556    0.004
 6841.00    0.85081   1.11539    0.004
 6842.00    0.86901   1.11531    0.004
 6843.00    0.81962   1.11507    0.004
 6844.00    0.77313   1.11477    0.004
 6845.00    0.86048   1.11471    0.004
 6846.00    0.93352   1.11452    0.004
 6847.00    0.76500   1.11445    0.004
 6848.00    0.61694   1.11400    0.004
 6849.00    0.68290   1.11383    0.004
 6850.00    0.75662   1.11367    0.004
 6851.00    0.88805   1.11358    0.004
 6852.00    0.99621   1.11328    0.004
 6853.00    0.97245   1.11277    0.004
 6854.00    0.95509   1.11268    0.004
 6855.00    0.96663   1.11242    0.004
 6856.00    0.97927   1.11228    0.004
 6857.00    0.99595   1.11167    0.004
 6858.00    0.96345   1.11129    0.005
 6859.00    0.77858   1.11103    0.005
 6860.00    0.66107   1.11081    0.005
 6861.00    0.72077   1.11035    0.004
 6862.00    0.75510   1.10963    0.004
 6863.00    0.73212   1.10936    0.004
 6864.00    0.76161   1.10895    0.004
 6865.00    0.89380   1.10854    0.004
 6866.00    0.98651   1.10783    0.004
 6867.00    1.01185   1.10727    0.004
 6868.00    0.96061   1.10690    0.004
 6869.00    0.79491   1.10650    0.004
 6870.00    0.71617   1.10593    0.004
 6871.00    0.75168   1.10526    0.004
 6872.00    0.76048   1.10487    0.004
 6873.00    0.73840   1.10455    0.004
 6874.00    0.81361   1.10398    0.004
 6875.00    0.98810   1.10349    0.004
 6876.00    0.99800   1.10308    0.004
 6877.00    0.85974   1.10291    0.004
 6878.00    0.77730   1.10269    0.004
 6879.00    0.73912   1.10234    0.004
 6880.00    0.77657   1.10212    0.004
 6881.00    0.86679   1.10195    0.004
 6882.00    0.95807   1.10211    0.004
 6883.00    1.05001   1.10180    0.004
 6884.00    0.99711   1.10178    0.004
 6885.00    0.86681   1.10180    0.004
 6886.00    0.84269   1.10200    0.004
 6887.00    0.86784   1.10219    0.004
 6888.00    0.89095   1.10218    0.004
 6889.00    0.91326   1.10239    0.004
 6890.00    0.91304   1.10249    0.004
 6891.00    0.90514   1.10294    0.004
 6892.00    0.81396   1.10292    0.004
 6893.00    0.69889   1.10306    0.004
 6894.00    0.68772   1.10333    0.004
 6895.00    0.70115   1.10354    0.004
 6896.00    0.77240   1.10382    0.004
 6897.00    0.85468   1.10384    0.004
 6898.00    0.89674   1.10404    0.004
 6899.00    0.93286   1.10415    0.004
 6900.00    0.86311   1.10439    0.004
 6901.00    0.78194   1.10439    0.004
 6902.00    0.80391   1.10436    0.004
 6903.00    0.83318   1.10457    0.004
 6904.00    0.77510   1.10452    0.004
 6905.00    0.71390   1.10462    0.004
 6906.00    0.77987   1.10452    0.004
 6907.00    0.84337   1.10454    0.004
 6908.00    0.80662   1.10454    0.004
 6909.00    0.77113   1.10449    0.004
 6910.00    0.75548   1.10441    0.004
 6911.00    0.75416   1.10426    0.004
 6912.00    0.89632   1.10435    0.004
 6913.00    1.01195   1.10413    0.004
 6914.00    0.93680   1.10412    0.004
 6915.00    0.85743   1.10394    0.004
 6916.00    0.75472   1.10387    0.004
 6917.00    0.69965   1.10383    0.004
 6918.00    0.85462   1.10367    0.004
 6919.00    0.97409   1.10355    0.004
 6920.00    0.96486   1.10334    0.004
 6921.00    0.92603   1.10338    0.004
 6922.00    0.79725   1.10316    0.004
 6923.00    0.75657   1.10314    0.004
 6924.00    0.94363   1.10289    0.004
 6925.00    1.05148   1.10277    0.004
 6926.00    0.98331   1.10275    0.004
 6927.00    0.96633   1.10263    0.004
 6928.00    1.04798   1.10246    0.004
 6929.00    1.05272   1.10223    0.004
 6930.00    0.92818   1.10216    0.004
 6931.00    0.89719   1.10209    0.004
 6932.00    1.00400   1.10202    0.004
 6933.00    1.07366   1.10176    0.004
 6934.00    1.09521   1.10158    0.004
 6935.00    1.10909   1.10156    0.004
 6936.00    1.11423   1.10151    0.004
 6937.00    1.05440   1.10125    0.004
 6938.00    0.92921   1.10110    0.004
 6939.00    0.82805   1.10091    0.004
 6940.00    0.74821   1.10096    0.004
 6941.00    0.75482   1.10079    0.004
 6942.00    0.82903   1.10054    0.004
 6943.00    0.89707   1.10041    0.004
 6944.00    0.96086   1.10032    0.004
 6945.00    0.91908   1.10033    0.004
 6946.00    0.81365   1.09997    0.004
 6947.00    0.79493   1.09989    0.004
 6948.00    0.82183   1.09969    0.004
 6949.00    0.84895   1.09977    0.004
 6950.00    0.87617   1.09950    0.004
 6951.00    0.87295   1.09928    0.004
 6952.00    0.85778   1.09917    0.004
 6953.00    0.85062   1.09906    0.004
 6954.00    0.84612   1.09912    0.004
 6955.00    0.85968   1.09867    0.004
 6956.00    0.87830   1.09858    0.004
 6957.00    0.79921   1.09843    0.004
 6958.00    0.69751   1.09851    0.004
 6959.00    0.87384   1.09820    0.004
 6960.00    1.10179   1.09799    0.004
 6961.00    1.06447   1.09786    0.004
 6962.00    0.98919   1.09776    0.004
 6963.00    1.01494   1.09784    0.004
 6964.00    1.05115   1.09735    0.004
 6965.00    0.88757   1.09730    0.004
 6966.00    0.71067   1.09712    0.004
 6967.00    0.70144   1.09722    0.004
 6968.00    0.69760   1.09690    0.004
 6969.00    0.65663   1.09672    0.004
 6970.00    0.62263   1.09661    0.004
 6971.00    0.80229   1.09648    0.004
 6972.00    0.96084   1.09657    0.004
 6973.00    0.80531   1.09609    0.004
 6974.00    0.66534   1.09609    0.004
 6975.00    0.67470   1.09593    0.004
 6976.00    0.69410   1.09597    0.004
 6977.00    0.78326   1.09571    0.004
 6978.00    0.85062   1.09552    0.004
 6979.00    0.80087   1.09548    0.004
 6980.00    0.77580   1.09531    0.004
 6981.00    0.85703   1.09540    0.004
 6982.00    0.93144   1.09496    0.004
 6983.00    0.98158   1.09497    0.004
 6984.00    1.01399   1.09487    0.004
 6985.00    0.99351   1.09479    0.004
 6986.00    0.93738   1.09467    0.004
 6987.00    0.79074   1.09444    0.004
 6988.00    0.72392   1.09444    0.004
 6989.00    0.83162   1.09424    0.004
 6990.00    0.88784   1.09431    0.005
 6991.00    0.84644   1.09395    0.005
 6992.00    0.80086   1.09395    0.005
 6993.00    0.74834   1.09388    0.004
 6994.00    0.72853   1.09369    0.004
 6995.00    0.75620   1.09365    0.004
 6996.00    0.73084   1.09344    0.004
 6997.00    0.63780   1.09343    0.004
 6998.00    0.58772   1.09327    0.004
 6999.00    0.58597   1.09319    0.004
 7000.00    0.63963   1.09297    0.004
 7001.00    0.74826   1.09295    0.004
 7002.00    0.78025   1.09292    0.004
 7003.00    0.74518   1.09269    0.004
 7004.00    0.78678   1.09256    0.004
 7005.00    0.88747   1.09246    0.004
 7006.00    0.85092   1.09243    0.004
 7007.00    0.72138   1.09237    0.004
 7008.00    0.63546   1.09213    0.004
 7009.00    0.57546   1.09195    0.004
 7010.00    0.61685   1.09195    0.005
 7011.00    0.71074   1.09197    0.005
 7012.00    0.74592   1.09175    0.005
 7013.00    0.75475   1.09152    0.005
 7014.00    0.68938   1.09143    0.005
 7015.00    0.59537   1.09146    0.004
 7016.00    0.62739   1.09141    0.004
 7017.00    0.70078   1.09118    0.004
 7018.00    0.75469   1.09092    0.004
 7019.00    0.80324   1.09095    0.004
 7020.00    0.83032   1.09099    0.004
 7021.00    0.85254   1.09078    0.004
 7022.00    0.89180   1.09060    0.004
 7023.00    0.93414   1.09042    0.004
 7024.00    0.95247   1.09049    0.004
 7025.00    0.96748   1.09045    0.004
 7026.00    0.90936   1.09022    0.004
 7027.00    0.84398   1.09003    0.004
 7028.00    0.80767   1.08997    0.004
 7029.00    0.77319   1.09002    0.005
 7030.00    0.83261   1.08984    0.005
 7031.00    0.89393   1.08968    0.005
 7032.00    0.75594   1.08953    0.005
 7033.00    0.61799   1.08954    0.005
 7034.00    0.48150   1.08949    0.005
 7035.00    0.36723   1.08926    0.005
 7036.00    0.56498   1.08913    0.005
 7037.00    0.74790   1.08905    0.005
 7038.00    0.79412   1.08904    0.005
 7039.00    0.81967   1.08887    0.005
 7040.00    0.70592   1.08869    0.011
 7041.00    0.62456   1.08856   -1.000
 7042.00    0.71252   1.08856   -1.000
 7043.00    0.78183   1.08843   -1.000
 7044.00    0.77260   1.08827   -1.000
 7045.00    0.76913   1.08803   -1.000
 7046.00    0.78566   1.08799   -1.000
 7047.00    0.78044   1.08802   -1.000
 7048.00    0.71152   1.08774   -1.000
 7049.00    0.69385   1.08760   -1.000
 7050.00    0.80413   1.08739   -2.000
 7051.00    0.86434   1.08743   -2.000
 7052.00    0.81684   1.08733   -2.000
 7053.00    0.79022   1.08706   -2.000
 7054.00    0.80257   1.08688   -2.000
 7055.00    0.83370   1.08672   -2.000
 7056.00    0.89544   1.08683   -2.000
 7057.00    0.81094   1.08651   -2.000
 7058.00    0.51725   1.08635   -2.000
 7059.00    0.40428   1.08608   -2.000
 7060.00    0.51869   1.08610   -2.000
 7061.00    0.65957   1.08603   -2.000
 7062.00    0.82979   1.08566   -2.000
 7063.00    0.84362   1.08552   -2.000
 7064.00    0.70446   1.08534   -2.000
 7065.00    0.77840   1.08538   -2.000
 7066.00    1.03614   1.08504   -2.000
 7067.00    1.15064   1.08483   -2.000
 7068.00    1.15632   1.08465   -2.000
 7069.00    0.97985   1.08459   -2.000
 7070.00    0.68176   1.08449   -2.000
 7071.00    0.50544   1.08411   -2.000
 7072.00    0.40033   1.08397   -2.000
 7073.00    0.45316   1.08385   -2.000
 7074.00    0.58652   1.08384   -2.000
 7075.00    0.61963   1.08351   -2.000
 7076.00    0.60847   1.08331   -2.000
 7077.00    0.72786   1.08319   -2.000
 7078.00    0.89675   1.08314   -2.000
 7079.00    0.87200   1.08310   -2.000
 7080.00    0.78490   1.08275   -2.000
 7081.00    0.87568   1.08268   -2.000
 7082.00    1.01438   1.08260   -2.000
 7083.00    0.92942   1.08256   -2.000
 7084.00    0.79508   1.08248   -2.000
 7085.00    0.78772   1.08223   -2.000
 7086.00    0.80268   1.08223   -2.000
 7087.00    0.92056   1.08217   -2.000
 7088.00    1.05223   1.08215   -2.000
 7089.00    0.99684   1.08203   -2.000
 7090.00    0.92367   1.08194   -2.000
 7091.00    0.90574   1.08188   -2.000
 7092.00    0.89106   1.08185   -2.000
 7093.00    0.99024   1.08185   -2.000
 7094.00    1.09152   1.08174   -2.000
 7095.00    1.09859   1.08167   -2.000
 7096.00    1.09741   1.08164   -2.000
 7097.00    0.89115   1.08153   -2.000
 7098.00    0.71016   1.08159   -2.000
 7099.00    0.86477   1.08143   -2.000
 7100.00    1.00920   1.08135   -2.000
 7101.00    1.06340   1.08138   -2.000
 7102.00    1.08592   1.08117   -2.000
 7103.00    0.90142   1.08125   -2.000
 7104.00    0.73867   1.08107   -2.000
 7105.00    0.68667   1.08100   -2.000
 7106.00    0.67486   1.08098   -2.000
 7107.00    0.82843   1.08080   -2.000
 7108.00    0.91849   1.08081   -2.000
 7109.00    0.79213   1.08063   -2.000
 7110.00    0.74633   1.08066   -2.000
 7111.00    0.93203   1.08045   -2.000
 7112.00    1.03487   1.08041   -2.000
 7113.00    0.93440   1.08029   -2.000
 7114.00    0.87354   1.08017   -2.000
 7115.00    0.89652   1.08024   -2.000
 7116.00    0.90407   1.07990   -2.000
 7117.00    0.88324   1.07991   -2.000
 7118.00    0.90603   1.07978   -2.000
 7119.00    0.99893   1.07973   -2.000
 7120.00    1.09593   1.07972   -2.000
 7121.00    1.19869   1.07939   -2.000
 7122.00    1.24012   1.07936   -2.000
 7123.00    1.20546   1.07929   -2.000
 7124.00    1.03935   1.07932   -2.000
 7125.00    0.72952   1.07910   -2.000
 7126.00    0.58481   1.07888   -2.000
 7127.00    0.59933   1.07881   -2.000
 7128.00    0.59473   1.07883   -2.000
 7129.00    0.57386   1.07886   -2.000
 7130.00    0.76655   1.07848   -2.000
 7131.00    1.11918   1.07833   -2.000
 7132.00    1.10496   1.07832   -2.000
 7133.00    0.84935   1.07839   -2.000
 7134.00    0.79956   1.07828   -2.000
 7135.00    0.86832   1.07792   -2.000
 7136.00    0.86675   1.07779   -2.000
 7137.00    0.82988   1.07790   -2.000
 7138.00    1.23117   1.07793   -2.000
 7139.00    1.82273   1.07764   -2.000
 7140.00    1.63325   1.07739   -2.000
 7141.00    1.15283   1.07731   -2.000
 7142.00    1.03507   1.07751   -2.000
 7143.00    1.03186   1.07736   -2.000
 7144.00    0.94875   1.07707   -2.000
 7145.00    0.84457   1.07685   -2.000
 7146.00    0.76135   1.07694   -2.000
 7147.00    0.68266   1.07706   -2.000
 7148.00    0.66225   1.07675   -2.000
 7149.00    0.65180   1.07656   -2.000
 7150.00    0.00226   1.07636   -2.000
 7151.00   -0.73001   1.07661   -2.000
 7152.00   -0.12512   1.07651   -2.000
 7153.00    0.60119   1.07622   -2.000
 7154.00    0.86054   1.07603   -2.000
 7155.00    1.09434   1.07595   -2.000
 7156.00    0.92353   1.07621   -2.000
 7157.00    0.74402   1.07590   -2.000
 7158.00    0.54368   1.07575   -2.000
 7159.00    0.36133   1.07550   -2.000
 7160.00    0.58734   1.07559   -2.000
 7161.00    0.82961   1.07568   -2.000
 7162.00    1.27678   1.07537   -2.000
 7163.00    1.65856   1.07524   -2.000
 7164.00    1.48248   1.07504   -2.000
 7165.00    1.28380   1.07519   -2.000
 7166.00    0.94180   1.07506   -2.000
 7167.00    0.67724   1.07490   -2.000
 7168.00    0.79720   1.07469   -2.000
 7169.00    0.96906   1.07460   -2.000
 7170.00    1.34981   1.07470   -2.000
 7171.00    1.60471   1.07447   -2.000
 7172.00    1.43918   1.07442   -2.000
 7173.00    1.21560   1.07417   -2.000
 7174.00    0.82828   1.07417   -2.000
 7175.00    0.60733   1.07412   -2.000
 7176.00    0.78769   1.07398   -2.000
 7177.00    0.92809   1.07390   -2.000
 7178.00    0.98528   1.07369   -2.000
 7179.00    1.05006   1.07373   -2.000
 7180.00    1.12860   1.07355   -2.000
 7181.00    1.11609   1.07357   -2.000
 7182.00    0.95945   1.07334   -2.000
 7183.00    0.88834   1.07327   -2.000
 7184.00    0.93605   1.07326   -2.000
 7185.00    0.89662   1.07308   -2.000
 7186.00    0.75065   1.07314   -2.000
 7187.00    0.79346   1.07284   -2.000
 7188.00    1.03978   1.07289   -2.000
 7189.00    1.08597   1.07277   -2.000
 7190.00    0.94187   1.07271   -2.000
 7191.00    0.92460   1.07271   -2.000
 7192.00    1.01365   1.07240   -2.000
 7193.00    0.96711   1.07251   -2.000
 7194.00    0.82049   1.07231   -2.000
 7195.00    0.76409   1.07241   -2.000
 7196.00    0.76619   1.07223   -2.000
 7197.00    0.79809   1.07207   -2.000
 7198.00    0.84689   1.07211   -2.000
 7199.00    0.80944   1.07196   -2.000
 7200.00    0.72940   1.07208   -2.000
 7201.00    0.89211   1.07178   -2.000
 7202.00    1.15848   1.07180   -2.000
 7203.00    1.25050   1.07168   -2.000
 7204.00    1.27872   1.07167   -2.000
 7205.00    1.15533   1.07171   -2.000
 7206.00    0.98498   1.07137   -2.000
 7207.00    0.74766   1.07149   -2.000
 7208.00    0.49305   1.07129   -2.000
 7209.00    0.54991   1.07141   -2.000
 7210.00    0.67228   1.07125   -2.000
 7211.00    0.71415   1.07102   -2.000
 7212.00    0.74265   1.07108   -2.000
 7213.00    0.71334   1.07096   -2.000
 7214.00    0.67680   1.07104   -2.000
 7215.00    0.66248   1.07078   -2.000
 7216.00    0.65007   1.07063   -2.000
 7217.00    0.81919   1.07065   -2.000
 7218.00    0.99752   1.07057   -2.000
