###################################################################
## OUTPUT of StarlightChains_v04.for    [Cid@UFSC - 01/Apr/2007] ##
###################################################################

## Some input info
KUG0210-078._34_25.txt                   [arq_obs]
Base.CB07.vall.4m                        [arq_base]
Masks.EmLines.NEW.gm                     [arq_masks]
StCv04.C11.config                        [arq_config]
   66                                    [N_base]
    0                                    [N_YAV_components = # of components with extra extinction!]
    0                                    [i_FitPowerLaw (1/0 = Yes/No)]
-9.99                                    [alpha_PowerLaw]
CCM                                      [red_law_option]
 1.458241                                [q_norm = A(l_norm)/A(V)]

## (Re)Sampling Parameters
 3741.00                                 [l_ini (A)]
 7218.00                                 [l_fin (A)]
    1.00                                 [dl    (A)]     (OBS: dl_cushion =    50.00 A)

## Normalization info
 4020.00                                 [l_norm (A) - for base]
 4010.00                                 [llow_norm (A) - window for f_obs]
 4060.00                                 [lupp_norm (A) - window for f_obs]
1.330485E-17                             [fobs_norm (in input units)]

## S/N
 3691.00                                 [llow_SN (A) - window for S/N]
 7268.00                                 [lupp_SN (A) - window for S/N]
   3.634                                 [S/N in S/N window]
   4.272                                 [S/N in norm. window]
   0.016                                 [S/N_err in S/N window]
   0.019                                 [S/N_err in norm. window]
  1.0000                                 [fscale_chi2]

## etc...
    -2007530                             [idum_orig]
  2411                                   [NOl_eff]
  1945                                   [Nl_eff]
   466    NSIGMA                         [Ntot_cliped & clip_method]
 10574480                                [Nglobal_steps]
   7                                     [N_chains]
  37                                     [NEX0s_base = N_base in EX0s-fits]
 0   0   1      466   2.0   1.288E+04    [Clip-Bug, RC-Crash & Burn-In warning-flags, n_censored_weights, wei_nsig_threshold & wei_limit]
    83     82.671     81.864      0.806  [idt_all, wdt_TotTime, wdt_UsrTime & wdt_SysTime (sec)]

## Synthesis Results - Best model ##

 1.05887E-05                             [chi2/Nl_eff]
    11.01749                             [adev (%)]

   127.53345                             [sum-of-x (%)]
 1.11592E-17                             [Flux_tot (units of input spectrum!)]
 3.46567E-13                             [Mini_tot (???)]
 1.75842E-13                             [Mcor_tot (???)]

 -67.26                                  [v0_min  (km/s)]
 458.25                                  [vd_min  (km/s)]
-0.3120                                  [AV_min  (mag)]
 0.0000                                  [YAV_min (mag)]

# j     x_j(%)      Mini_j(%)     Mcor_j(%)     age_j(yr)     Z_j      (L/M)_j    YAV?  Mstars   component_j        a/Fe...       SSP_chi2r SSP_adev(%)   SSP_AV   SSP_x(%)
  1      0.0000     0.0000E+00    0.0000E+00    1.000000E+06  0.00400  1.094E-02    0   1.0000   age020_m42            0.0000     1.2976E-05    12.6751   2.3615   111.3019
  2      0.0322     2.0283E-05    3.9972E-05    3.160000E+06  0.00400  4.007E-02    0   0.9999   age045_m42            0.0000     1.2675E-05    12.4094   1.7014   115.0564
  3      0.0000     0.0000E+00    0.0000E+00    5.010000E+06  0.00400  2.539E-02    0   0.9488   age055_m42            0.0000     1.2650E-05    12.4183   1.9860   114.1308
  4      3.2106     3.0939E-03    5.6221E-03    6.610000E+06  0.00400  2.620E-02    0   0.9220   age061_m42            0.0000     1.2470E-05    12.2215   1.6201   115.5255
  5      0.0000     0.0000E+00    0.0000E+00    1.000000E+07  0.00400  1.322E-02    0   0.8862   age070_m42            0.0000     1.1852E-05    11.7043   1.2972   119.5442
  6     12.8348     4.1107E-02    6.9441E-02    1.445000E+07  0.00400  7.883E-03    0   0.8571   age078_m42            0.0000     1.1962E-05    11.7540   1.6105   117.3112
  7      0.0000     0.0000E+00    0.0000E+00    2.512000E+07  0.00400  5.251E-03    0   0.8174   age090_m42            0.0000     1.1791E-05    11.6664   1.1665   120.1141
  8      0.4393     3.0397E-03    4.7035E-03    4.000000E+07  0.00400  3.649E-03    0   0.7851   age104_m42            0.0000     1.1766E-05    11.6965   0.9550   120.3082
  9      0.0000     0.0000E+00    0.0000E+00    5.500000E+07  0.00400  3.098E-03    0   0.7629   age110_m42            0.0000     1.2015E-05    11.7750   1.1332   119.0369
 10      0.1033     1.1705E-03    1.6627E-03    1.015200E+08  0.00400  2.228E-03    0   0.7207   age116_m42            0.0000     1.2143E-05    11.8611   1.1707   118.4546
 11      6.6399     1.5338E-01    2.0097E-01    2.861200E+08  0.00400  1.093E-03    0   0.6648   age125_m42            0.0000     1.1700E-05    11.3036   0.5911   121.7106
 12      0.0000     0.0000E+00    0.0000E+00    5.088000E+08  0.00400  6.597E-04    0   0.6365   age130_m42            0.0000     1.1822E-05    11.5400   0.6179   121.2025
 13      0.0000     0.0000E+00    0.0000E+00    1.434000E+09  0.00400  2.132E-04    0   0.5798   age139_m42            0.0000     1.1221E-05    11.6411  -0.3112   121.9094
 14      2.1812     9.3420E-01    9.9003E-01    4.250000E+09  0.00400  5.895E-05    0   0.5377   age158_m42            0.0000     1.1167E-05    11.8278  -0.7531   117.7869
 15      0.0000     0.0000E+00    0.0000E+00    7.500000E+09  0.00400  3.510E-05    0   0.5212   age171_m42            0.0000     1.1109E-05    11.6715  -0.9400   116.8008
 16      2.3626     2.9750E+00    2.9517E+00    1.300000E+10  0.00400  2.005E-05    0   0.5034   age193_m42            0.0000     1.1321E-05    12.6171  -1.0000   112.3770
 17      0.0000     0.0000E+00    0.0000E+00    1.800000E+10  0.00400  1.525E-05    0   0.4967   age213_m42            0.0000     1.1437E-05    12.9792  -1.0000   111.2095
 18      0.0000     0.0000E+00    0.0000E+00    1.000000E+06  0.00800  1.238E-02    0   1.0000   age020_m52            0.0000     1.2980E-05    12.6783   2.3578   111.5227
 19      0.0000     0.0000E+00    0.0000E+00    3.160000E+06  0.00800  3.074E-02    0   0.9966   age045_m52            0.0000     1.2946E-05    12.6797   2.2861   112.2534
 20      0.0000     0.0000E+00    0.0000E+00    5.010000E+06  0.00800  2.668E-02    0   0.9443   age055_m52            0.0000     1.2647E-05    12.4482   2.0600   113.6196
 21      0.0000     0.0000E+00    0.0000E+00    6.610000E+06  0.00800  2.136E-02    0   0.9177   age061_m52            0.0000     1.1442E-05    11.6594   0.7938   121.3099
 22      0.0000     0.0000E+00    0.0000E+00    1.000000E+07  0.00800  1.215E-02    0   0.8827   age070_m52            0.0000     1.1725E-05    11.5115   1.4552   120.1301
 23      1.9413     5.6226E-03    9.4770E-03    1.445000E+07  0.00800  8.717E-03    0   0.8552   age078_m52            0.0000     1.1890E-05    11.6852   1.5786   118.6777
 24      0.2574     1.1622E-03    1.8696E-03    2.512000E+07  0.00800  5.592E-03    0   0.8162   age090_m52            0.0000     1.1731E-05    11.5493   1.2323   121.2511
 25      1.5046     9.7504E-03    1.5068E-02    4.000000E+07  0.00800  3.896E-03    0   0.7841   age104_m52            0.0000     1.1748E-05    11.4812   1.1611   121.1349
 26      0.0000     0.0000E+00    0.0000E+00    1.015200E+08  0.00800  2.148E-03    0   0.7226   age116_m52            0.0000     1.1869E-05    11.6513   1.1278   119.6941
 27      0.0000     0.0000E+00    0.0000E+00    2.861200E+08  0.00800  9.925E-04    0   0.6683   age125_m52            0.0000     1.1722E-05    11.3885   0.6755   122.5232
 28      0.0000     0.0000E+00    0.0000E+00    9.047900E+08  0.00800  3.141E-04    0   0.6138   age135_m52            0.0000     1.1308E-05    11.3193  -0.0607   124.3021
 29      0.0000     0.0000E+00    0.0000E+00    1.434000E+09  0.00800  1.719E-04    0   0.5853   age139_m52            0.0000     1.0875E-05    11.2720  -0.6556   122.9227
 30      0.0000     0.0000E+00    0.0000E+00    2.500000E+09  0.00800  7.872E-05    0   0.5600   age150_m52            0.0000     1.1005E-05    11.4163  -0.9168   119.5209
 31      0.4517     2.6304E-01    2.8130E-01    4.250000E+09  0.00800  4.336E-05    0   0.5426   age158_m52            0.0000     1.1040E-05    11.4737  -0.9307   118.4109
 32      0.0000     0.0000E+00    0.0000E+00    6.250000E+09  0.00800  3.159E-05    0   0.5319   age166_m52            0.0000     1.1421E-05    12.7343  -1.0000   113.5887
 33      0.0000     0.0000E+00    0.0000E+00    1.300000E+10  0.00800  1.361E-05    0   0.5073   age193_m52            0.0000     1.6909E-05    17.9151  -1.0000    96.0176
 34      0.0000     0.0000E+00    0.0000E+00    1.800000E+10  0.00800  9.886E-06    0   0.4990   age213_m52            0.0000     1.9129E-05    18.9808  -1.0000    91.7063
 35     19.2430     3.1466E-02    6.2017E-02    1.000000E+06  0.02000  1.544E-02    0   1.0000   age020_m62            0.0000     1.2988E-05    12.7019   2.3533   111.8493
 36      2.7844     1.8687E-03    3.6307E-03    3.160000E+06  0.02000  3.762E-02    0   0.9858   age045_m62            0.0000     1.2934E-05    12.6443   2.2898   112.8749
 37      0.0000     0.0000E+00    0.0000E+00    5.010000E+06  0.02000  3.296E-02    0   0.9342   age055_m62            0.0000     1.2648E-05    12.3584   1.9549   114.9746
 38     22.1085     4.8370E-02    8.4474E-02    8.710000E+06  0.02000  1.154E-02    0   0.8861   age067_m62            0.0000     1.1319E-05    11.1717   0.8153   127.7132
 39      0.0000     0.0000E+00    0.0000E+00    1.445000E+07  0.02000  7.663E-03    0   0.8472   age078_m62            0.0000     1.1379E-05    11.1377   1.0747   123.7320
 40      0.0000     0.0000E+00    0.0000E+00    2.512000E+07  0.02000  4.532E-03    0   0.8099   age090_m62            0.0000     1.1382E-05    11.0959   1.0660   123.3120
 41      0.0000     0.0000E+00    0.0000E+00    5.500000E+07  0.02000  2.733E-03    0   0.7595   age110_m62            0.0000     1.1606E-05    11.4729   1.1354   120.8551
 42      0.0000     0.0000E+00    0.0000E+00    1.609000E+08  0.02000  1.369E-03    0   0.6985   age120_m62            0.0000     1.1826E-05    11.5273   1.0159   121.8683
 43      0.0000     0.0000E+00    0.0000E+00    2.861200E+08  0.02000  9.013E-04    0   0.6714   age125_m62            0.0000     1.1916E-05    11.5503   0.7938   123.7627
 44      0.0000     0.0000E+00    0.0000E+00    5.088000E+08  0.02000  5.028E-04    0   0.6449   age130_m62            0.0000     1.1931E-05    11.5867   0.4658   124.3686
 45      6.3607     6.6142E-01    8.0549E-01    9.047900E+08  0.02000  2.428E-04    0   0.6179   age135_m62            0.0000     1.1260E-05    11.4385  -0.1064   123.1242
 46      5.1433     1.0282E+00    1.1972E+00    1.434000E+09  0.02000  1.263E-04    0   0.5908   age139_m62            0.0000     1.0968E-05    11.3812  -0.5573   121.8495
 47      3.5782     1.5094E+00    1.6877E+00    2.500000E+09  0.02000  5.985E-05    0   0.5673   age150_m62            0.0000     1.1207E-05    11.5359  -0.9172   120.1710
 48      0.0000     0.0000E+00    0.0000E+00    4.250000E+09  0.02000  3.271E-05    0   0.5468   age158_m62            0.0000     1.2318E-05    13.8783  -1.0000   111.2142
 49      1.8858     3.5010E+00    3.5653E+00    1.000000E+10  0.02000  1.360E-05    0   0.5167   age181_m62            0.0000     1.6801E-05    17.5332  -1.0000    97.9702
 50     24.6035     8.7196E+01    8.6151E+01    1.800000E+10  0.02000  7.124E-06    0   0.5013   age213_m62            0.0000     2.1351E-05    19.5869  -1.0000    89.7057
 51      0.0000     0.0000E+00    0.0000E+00    1.000000E+06  0.05000  2.592E-02    0   0.9998   age020_m72            0.0000     1.3011E-05    12.7353   2.3392   112.1986
 52      1.1165     5.8181E-04    1.0982E-03    3.160000E+06  0.05000  4.845E-02    0   0.9577   age045_m72            0.0000     1.2900E-05    12.6223   2.1929   113.2853
 53      0.0000     0.0000E+00    0.0000E+00    5.010000E+06  0.05000  3.072E-02    0   0.9147   age055_m72            0.0000     1.1594E-05    11.1628   1.6608   119.2769
 54      0.0000     0.0000E+00    0.0000E+00    6.610000E+06  0.05000  1.455E-02    0   0.8877   age061_m72            0.0000     1.1819E-05    11.2865   0.7952   130.7223
 55      0.0000     0.0000E+00    0.0000E+00    1.000000E+07  0.05000  9.074E-03    0   0.8524   age070_m72            0.0000     1.1606E-05    10.8214   1.8330   118.9801
 56      0.0000     0.0000E+00    0.0000E+00    2.512000E+07  0.05000  4.250E-03    0   0.7902   age090_m72            0.0000     1.1627E-05    10.9189   1.5571   119.7707
 57      0.0000     0.0000E+00    0.0000E+00    4.000000E+07  0.05000  3.087E-03    0   0.7618   age104_m72            0.0000     1.1632E-05    10.9578   1.3392   121.1774
 58      1.1480     1.7049E-02    2.3844E-02    1.015200E+08  0.05000  1.700E-03    0   0.7096   age116_m72            0.0000     1.1793E-05    11.3418   1.1382   122.0376
 59      0.0000     0.0000E+00    0.0000E+00    2.861200E+08  0.05000  7.384E-04    0   0.6633   age125_m72            0.0000     1.1846E-05    11.5395   0.6902   123.8996
 60      2.2759     1.5046E-01    1.8896E-01    5.088000E+08  0.05000  3.819E-04    0   0.6372   age130_m72            0.0000     1.1608E-05    11.7516   0.2416   124.1137
 61      0.4293     6.4678E-02    7.7887E-02    9.047900E+08  0.05000  1.676E-04    0   0.6110   age135_m72            0.0000     1.1450E-05    11.8180  -0.4408   121.6448
 62      4.8974     1.3992E+00    1.6199E+00    1.434000E+09  0.05000  8.837E-05    0   0.5874   age139_m72            0.0000     1.1233E-05    11.5540  -0.9017   121.1187
 63      0.0000     0.0000E+00    0.0000E+00    2.500000E+09  0.05000  4.233E-05    0   0.5598   age150_m72            0.0000     1.2445E-05    13.7891  -1.0000   112.0141
 64      0.0000     0.0000E+00    0.0000E+00    6.250000E+09  0.05000  1.435E-05    0   0.5249   age166_m72            0.0000     1.8715E-05    18.6157  -1.0000    94.1936
 65      0.0000     0.0000E+00    0.0000E+00    1.300000E+10  0.05000  6.513E-06    0   0.5036   age193_m72            0.0000     2.5932E-05    21.1802  -1.0000    85.0634
 66      0.0000     0.0000E+00    0.0000E+00    1.800000E+10  0.05000  4.527E-06    0   0.4945   age213_m72            0.0000     3.0925E-05    22.4397  -1.0000    79.2788


## Synthesis Results - Average & Chains ##

# j      x_j: min, <> & last-chain-values for 1 ...  7 chains
  1      0.0000      0.3260      0.6000      0.0526      0.2248      0.0560      0.0120      0.0000      0.0640
  2      0.0322      0.1989      0.9794      0.0000      0.0000      0.0000      0.0930      0.0000      0.0135
  3      0.0000      0.2334      0.0000      0.0000      1.9806      0.0000      0.0317      0.4258      0.0691
  4      3.2106      0.2832      0.7004      0.3129      0.0000      0.0000      0.0522      0.0000      0.0358
  5      0.0000      0.2132      0.0884      1.2376      0.2706      0.1427      0.0315      0.3522      0.0585
  6     12.8348      0.3272      1.9466      0.4740      1.9915      0.0000      0.0664      0.0000      0.0196
  7      0.0000      0.2878      0.1118      0.8208      0.5479      0.2259      0.1372      0.1084      0.0099
  8      0.4393      0.2336      1.7521      0.0000      0.0000      0.1586      0.0366      0.1894      0.1487
  9      0.0000      0.2700      2.5188      0.5507      0.7434      0.0693      0.0157      0.0150      0.0467
 10      0.1033      0.2496      0.3894      0.0135      1.1189      0.1678      0.0000      0.0000      0.0004
 11      6.6399      0.3134      0.5229      0.0000      0.0000      0.0780      0.0138      0.2093      0.0517
 12      0.0000      0.2641      0.7254      0.6299      0.0000      0.0000      0.0307      0.1857      0.0000
 13      0.0000      0.2939      0.5813      0.0000      0.2257      0.0691      0.1071      0.4338      0.0396
 14      2.1812      0.2317      0.4398      0.9832      0.0000      0.2448      0.0000      0.0935      0.0696
 15      0.0000      0.1985      0.1054      0.2820      0.0000      0.2955      0.0089      0.0068      0.0000
 16      2.3626      0.3013      0.8746      1.1520      0.1958      0.0000      0.1488      0.0945      0.0610
 17      0.0000      0.2576      0.3222      0.0000      0.8273      0.0675      0.0085      0.0536      0.0826
 18      0.0000      0.2759      0.2755      0.0000      0.0557      0.0000      0.0038      0.1763      0.0556
 19      0.0000      0.2435      0.0000      0.0000      0.4485      0.1217      0.0388      0.4382      0.0543
 20      0.0000      0.2675      0.7251      0.0000      0.0000      0.0572      0.0560      0.0000      0.0051
 21      0.0000      0.2907      0.0000      0.0000      0.3280      0.1786      0.0319      0.4853      0.1283
 22      0.0000      0.2257      0.2393      0.6979      0.0000      0.0000      0.0789      0.1956      0.0368
 23      1.9413      0.2723      0.6436      1.1588      0.0000      0.2077      0.0054      0.0000      0.0000
 24      0.2574      0.2549      0.3703      0.4786      0.0730      0.0000      0.1633      0.7100      0.0489
 25      1.5046      0.3701      0.6471      1.1713      0.0000      0.0969      0.1588      0.1755      0.0000
 26      0.0000      0.3050      0.2711      1.1749      0.0000      0.0000      0.0067      0.2732      0.1555
 27      0.0000      0.2839      0.0000      0.0769      0.0000      0.0445      0.0640      0.1090      0.0075
 28      0.0000      0.2798      0.0000      0.4606      1.2262      0.1188      0.0000      0.0263      0.0378
 29      0.0000      0.2660      1.0082      0.0697      0.0000      0.0339      0.0807      0.0000      0.0120
 30      0.0000      0.1996      0.0000      0.2190      0.2904      0.0797      0.0563      0.1159      0.0821
 31      0.4517      0.2419      0.7791      0.0553      1.0807      0.1660      0.0165      0.3705      0.0089
 32      0.0000      0.2718      0.0000      1.5526      0.1084      0.1486      0.0163      0.3119      0.0000
 33      0.0000      0.3024      0.0000      2.2605      0.6637      0.0561      0.0148      0.6144      0.0402
 34      0.0000      0.2097      0.0000      0.4387      0.0968      0.0457      0.0831      0.0000      0.0000
 35     19.2430      0.3140      0.5730      0.0967      1.0967      0.0978      0.0522      0.0000      0.0205
 36      2.7844      0.2074      0.5644      0.0000      0.5312      0.0916      0.0226      0.1490      0.0136
 37      0.0000      0.2699      0.5053      0.0000      0.2770      0.0237      0.1017      0.1995      0.0843
 38     22.1085      0.2599      0.3974      0.4094      0.2402      0.0184      0.0305      0.2315      0.0000
 39      0.0000      0.2313      0.4761      0.1487      0.0014      0.0999      0.1008      0.0000      0.0584
 40      0.0000      0.3393      0.0871      0.2385      0.2162      0.0000      0.0000      0.0000      0.0329
 41      0.0000      0.1968      0.0000      0.0000      0.4415      0.0898      0.0126      0.0000      0.0472
 42      0.0000      0.2732      0.0000      0.0000      0.0000      0.0596      0.0026      0.0000      0.0218
 43      0.0000      0.2189      0.0000      0.1220      0.3398      0.3261      0.1285      0.4707      0.0000
 44      0.0000      1.6972      0.9097      1.6275      2.1072      2.4492      1.7036      1.6878      1.3869
 45      6.3607     16.1767     13.0091     15.9807     15.6066     15.6676     14.8325     16.3434     28.6250
 46      5.1433      0.2286      0.6423      0.0687      0.7111      0.0431      0.1424      0.3131      0.0352
 47      3.5782      0.2140      0.3609      0.0000      0.0000      0.0000      0.0000      0.0708      0.0062
 48      0.0000      0.7236      0.0000      0.7076      1.5843      0.6202      1.4223      0.7939      0.3404
 49      1.8858     25.9338     26.9098     27.5424     24.8033     26.5762     22.7731     27.3361     38.6234
 50     24.6035      6.7349      5.8958      6.0183      4.9450      8.1639      7.2454      6.8284      6.5793
 51      0.0000      0.2512      0.4966      0.0656      1.2668      0.0596      0.0528      0.0099      0.0000
 52      1.1165      0.2649      0.9353      0.0000      0.0596      0.0000      0.0000      0.0319      0.1248
 53      0.0000      0.2567      0.0000      0.0079      1.7672      0.0139      0.0807      0.0975      0.0433
 54      0.0000      0.3619      0.2962      0.0000      0.2481      0.1188      0.0491      0.0000      0.0247
 55      0.0000      0.2224      0.0000      0.0000      0.0000      0.1259      0.0421      0.4350      0.0000
 56      0.0000      0.2518      0.0000      0.8409      0.0000      0.0402      0.0332      0.2621      0.0408
 57      0.0000      0.2462      0.1252      0.5415      0.0000      0.3383      0.0780      0.0000      0.0000
 58      1.1480      0.2932      0.6912      0.6521      0.4714      0.0777      0.0040      0.0596      0.1133
 59      0.0000      0.1879      1.2688      1.0997      0.5258      0.0128      0.0164      0.0845      0.0000
 60      2.2759      0.2540      0.6444      0.0000      0.0000      0.0898      0.1097      0.5173      0.1824
 61      0.4293      9.4273      8.8243      8.0750      8.5116     11.3143     13.3686      6.4302      4.0976
 62      4.8974      0.2363      1.1042      0.2383      0.8440      0.0000      0.0746      0.0871      0.0692
 63      0.0000     31.8688     27.0196     25.9884     28.9141     38.3923     42.4959     39.7764     26.2230
 64      0.0000      0.7102      0.0689      0.9571      0.4733      0.5779      1.8023      0.0000      0.0924
 65      0.0000      0.3110      0.0000      0.0000      0.2165      0.0000      0.0161      0.1432      0.0588
 66      0.0000      0.2610      0.1686      0.6071      0.0000      0.1213      0.0000      0.0458      0.0716

# j      m_j: min, <> & last-chain-values for 1 ...  7 chains
  1  0.0000E+00  1.4119E-03  2.8067E-03  2.2009E-04  1.0818E-03  2.2826E-04  5.1483E-05  0.0000E+00  2.4422E-04
  2  3.9972E-05  2.3520E-04  1.2506E-03  0.0000E+00  0.0000E+00  0.0000E+00  1.0907E-04  0.0000E+00  1.4024E-05
  3  0.0000E+00  4.1328E-04  0.0000E+00  0.0000E+00  3.8958E-03  0.0000E+00  5.5653E-05  7.2777E-04  1.0766E-04
  4  5.6221E-03  4.7216E-04  1.2612E-03  5.0447E-04  0.0000E+00  0.0000E+00  8.6368E-05  0.0000E+00  5.2594E-05
  5  0.0000E+00  6.7732E-04  3.0308E-04  3.8011E-03  9.5491E-04  4.2676E-04  9.9094E-05  1.0799E-03  1.6349E-04
  6  6.9441E-02  1.6858E-03  1.0831E-02  2.3612E-03  1.1398E-02  0.0000E+00  3.3939E-04  0.0000E+00  8.9082E-05
  7  0.0000E+00  2.1229E-03  8.9045E-04  5.8542E-03  4.4890E-03  1.5691E-03  1.0031E-03  7.7210E-04  6.4455E-05
  8  4.7035E-03  2.3814E-03  1.9291E-02  0.0000E+00  0.0000E+00  1.5232E-03  3.6959E-04  1.8638E-03  1.3353E-03
  9  0.0000E+00  3.1499E-03  3.1740E-02  6.2140E-03  9.6361E-03  7.6100E-04  1.8121E-04  1.6839E-04  4.7966E-04
 10  1.6627E-03  3.8249E-03  6.4451E-03  2.0080E-04  1.9051E-02  2.4225E-03  0.0000E+00  0.0000E+00  6.0118E-06
 11  2.0097E-01  9.0326E-03  1.6275E-02  0.0000E+00  0.0000E+00  2.1184E-03  3.9465E-04  5.8210E-03  1.3120E-03
 12  0.0000E+00  1.2074E-02  3.5818E-02  2.7847E-02  0.0000E+00  2.1511E-06  1.3897E-03  8.1929E-03  0.0000E+00
 13  0.0000E+00  3.7871E-02  8.0895E-02  0.0000E+00  3.2305E-02  8.3847E-03  1.3682E-02  5.3961E-02  4.4965E-03
 14  9.9003E-01  1.0016E-01  2.0528E-01  4.1088E-01  0.0000E+00  9.9621E-02  0.0000E+00  3.9008E-02  2.6476E-02
 15  0.0000E+00  1.3963E-01  8.0112E-02  1.9185E-01  0.0000E+00  1.9579E-01  6.2245E-03  4.6487E-03  0.0000E+00
 16  2.9517E+00  3.5845E-01  1.1237E+00  1.3252E+00  2.5881E-01  0.0000E+00  1.7556E-01  1.0846E-01  6.3882E-02
 17  0.0000E+00  3.9750E-01  5.3704E-01  0.0000E+00  1.4183E+00  9.8119E-02  1.2999E-02  7.9827E-02  1.1220E-01
 18  0.0000E+00  1.0558E-03  1.1388E-03  0.0000E+00  2.3695E-04  0.0000E+00  1.4435E-05  6.5116E-04  1.8750E-04
 19  0.0000E+00  3.7401E-04  0.0000E+00  0.0000E+00  7.6543E-04  1.7611E-04  5.9151E-05  6.4977E-04  7.3484E-05
 20  0.0000E+00  4.4857E-04  1.3133E-03  0.0000E+00  0.0000E+00  9.0406E-05  9.3161E-05  0.0000E+00  7.4883E-06
 21  0.0000E+00  5.9169E-04  0.0000E+00  0.0000E+00  7.4181E-04  3.4234E-04  6.4388E-05  9.5362E-04  2.2992E-04
 22  0.0000E+00  7.7678E-04  8.8947E-04  2.3232E-03  0.0000E+00  0.0000E+00  2.6912E-04  6.4998E-04  1.1164E-04
 23  9.4770E-03  1.2657E-03  3.2311E-03  5.2091E-03  0.0000E+00  9.0917E-04  2.5061E-05  0.0000E+00  0.0000E+00
 24  1.8696E-03  1.7626E-03  2.7658E-03  3.2003E-03  5.6116E-04  0.0000E+00  1.1199E-03  4.7395E-03  2.9760E-04
 25  1.5068E-02  3.5290E-03  6.6645E-03  1.0801E-02  0.0000E+00  8.7035E-04  1.5012E-03  1.6150E-03  0.0000E+00
 26  0.0000E+00  4.8621E-03  4.6666E-03  1.8110E-02  0.0000E+00  0.0000E+00  1.0522E-04  4.2038E-03  2.1821E-03
 27  0.0000E+00  9.0581E-03  0.0000E+00  2.3717E-03  0.0000E+00  1.3365E-03  2.0252E-03  3.3555E-03  2.1112E-04
 28  0.0000E+00  2.5908E-02  0.0000E+00  4.1243E-02  1.2613E-01  1.0362E-02  0.0000E+00  2.3520E-03  3.0818E-03
 29  0.0000E+00  4.2915E-02  1.7567E-01  1.0877E-02  0.0000E+00  5.1489E-03  1.2914E-02  0.0000E+00  1.7005E-03
 30  0.0000E+00  6.7287E-02  0.0000E+00  7.1379E-02  1.0873E-01  2.5305E-02  1.8811E-02  3.7711E-02  2.4362E-02
 31  2.8130E-01  1.4340E-01  4.9894E-01  3.1698E-02  7.1184E-01  9.2710E-02  9.6774E-03  2.1205E-01  4.6536E-03
 32  0.0000E+00  2.1682E-01  0.0000E+00  1.1978E+00  9.6052E-02  1.1168E-01  1.2891E-02  2.4018E-01  0.0000E+00
 33  0.0000E+00  5.3400E-01  0.0000E+00  3.8606E+00  1.3022E+00  9.3238E-02  2.5909E-02  1.0474E+00  6.2495E-02
 34  0.0000E+00  5.0162E-01  0.0000E+00  1.0146E+00  2.5708E-01  1.0298E-01  1.9705E-01  0.0000E+00  0.0000E+00
 35  6.2017E-02  9.6351E-04  1.8992E-03  2.8682E-04  3.7386E-03  2.8258E-04  1.5886E-04  0.0000E+00  5.5386E-05
 36  3.6307E-03  2.5752E-04  7.5687E-04  0.0000E+00  7.3267E-04  1.0714E-04  2.7881E-05  1.7857E-04  1.4881E-05
 37  0.0000E+00  3.6244E-04  7.3290E-04  0.0000E+00  4.1325E-04  2.9931E-05  1.3536E-04  2.5856E-04  9.9657E-05
 38  8.4474E-02  9.4561E-04  1.5615E-03  1.4403E-03  9.7064E-04  6.3106E-05  1.1005E-04  8.1283E-04  0.0000E+00
 39  0.0000E+00  1.2116E-03  2.6934E-03  7.5315E-04  7.9442E-06  4.9289E-04  5.2369E-04  0.0000E+00  2.6932E-04
 40  0.0000E+00  2.8727E-03  7.9653E-04  1.9526E-03  2.0340E-03  0.0000E+00  0.0000E+00  0.0000E+00  2.4539E-04
 41  0.0000E+00  2.5916E-03  0.0000E+00  0.0000E+00  6.4586E-03  1.1132E-03  1.6403E-04  0.0000E+00  5.4684E-04
 42  0.0000E+00  6.6047E-03  0.0000E+00  0.0000E+00  0.0000E+00  1.3568E-03  6.1847E-05  0.0000E+00  4.6497E-04
 43  0.0000E+00  7.7273E-03  0.0000E+00  4.1643E-03  1.3322E-02  1.0841E-02  4.4966E-03  1.6037E-02  0.0000E+00
 44  0.0000E+00  1.0314E-01  5.9711E-02  9.5646E-02  1.4226E-01  1.4018E-01  1.0265E-01  9.9011E-02  7.4221E-02
 45  8.0549E-01  1.9506E+00  1.6942E+00  1.8634E+00  2.0906E+00  1.7793E+00  1.7732E+00  1.9022E+00  3.0395E+00
 46  1.1972E+00  5.0660E-02  1.5375E-01  1.4733E-02  1.7509E-01  8.9927E-03  3.1284E-02  6.6981E-02  6.8680E-03
 47  1.6877E+00  9.6131E-02  1.7505E-01  0.0000E+00  0.0000E+00  0.0000E+00  0.0000E+00  3.0711E-02  2.4332E-03
 48  0.0000E+00  5.7318E-01  0.0000E+00  5.4197E-01  1.3940E+00  4.6268E-01  1.1169E+00  6.0693E-01  2.3741E-01
 49  3.5653E+00  4.6685E+01  5.2318E+01  4.7945E+01  4.9601E+01  4.5057E+01  4.0645E+01  4.7499E+01  6.1226E+01
 50  8.6151E+01  2.2455E+01  2.1230E+01  1.9404E+01  1.8316E+01  2.5636E+01  2.3951E+01  2.1976E+01  1.9317E+01
 51  0.0000E+00  4.5915E-04  9.8026E-04  1.1590E-04  2.5721E-03  1.0266E-04  9.5636E-05  1.7401E-05  0.0000E+00
 52  1.0982E-03  2.4810E-04  9.4607E-04  0.0000E+00  6.2029E-05  0.0000E+00  0.0000E+00  2.8814E-05  1.0292E-04
 53  0.0000E+00  3.6216E-04  0.0000E+00  1.0808E-05  2.7697E-03  1.8452E-05  1.1285E-04  1.3274E-04  5.3797E-05
 54  0.0000E+00  1.0461E-03  9.2461E-04  0.0000E+00  7.9665E-04  3.2331E-04  1.4063E-04  0.0000E+00  6.2994E-05
 55  0.0000E+00  9.9013E-04  0.0000E+00  0.0000E+00  0.0000E+00  5.2781E-04  1.8562E-04  1.8688E-03  0.0000E+00
 56  0.0000E+00  2.2181E-03  0.0000E+00  7.1633E-03  0.0000E+00  3.3356E-04  2.9012E-04  2.2287E-03  3.1680E-04
 57  0.0000E+00  2.8785E-03  1.5809E-03  6.1221E-03  0.0000E+00  3.7257E-03  9.0472E-04  0.0000E+00  0.0000E+00
 58  2.3844E-02  5.7994E-03  1.4764E-02  1.2471E-02  1.0358E-02  1.4472E-03  7.8664E-05  1.1385E-03  1.9729E-03
 59  0.0000E+00  7.9978E-03  5.8324E-02  4.5260E-02  2.4860E-02  5.1145E-04  6.9011E-04  3.4715E-03  0.0000E+00
 60  1.8896E-01  2.0077E-02  5.5019E-02  0.0000E+00  0.0000E+00  6.6883E-03  8.5976E-03  3.9476E-02  1.2700E-02
 61  7.7887E-02  1.6284E+00  1.6462E+00  1.3488E+00  1.6333E+00  1.8406E+00  2.2895E+00  1.0721E+00  6.2328E-01
 62  1.6199E+00  7.4419E-02  3.7560E-01  7.2581E-02  2.9531E-01  0.0000E+00  2.3279E-02  2.6478E-02  1.9182E-02
 63  0.0000E+00  1.9969E+01  1.8285E+01  1.5747E+01  2.0127E+01  2.2657E+01  2.6401E+01  2.4058E+01  1.4469E+01
 64  0.0000E+00  1.2309E+00  1.2896E-01  1.6040E+00  9.1134E-01  9.4329E-01  3.0969E+00  0.0000E+00  1.4104E-01
 65  0.0000E+00  1.1394E+00  0.0000E+00  0.0000E+00  8.8099E-01  0.0000E+00  5.8428E-02  5.0650E-01  1.8979E-01
 66  0.0000E+00  1.3506E+00  9.4251E-01  3.0384E+00  0.0000E+00  5.9109E-01  0.0000E+00  2.2886E-01  3.2625E-01

# AV, chi2 & Mass for <> & i_chain = 1 ...  7 solutions
AV      -0.3120     -0.8736     -0.6714     -0.7657     -0.6741     -0.8763     -0.8801     -0.8563     -0.8788
chi2 1.0589E-05  1.3254E-05  1.2442E-05  1.2698E-05  1.2659E-05  1.2717E-05  1.2745E-05  1.2688E-05  1.2713E-05
Mass 1.7584E-13  8.6867E-14  1.0552E-13  1.0383E-13  1.0222E-13  9.1892E-14  8.6851E-14  9.2107E-14  9.7953E-14
 -67.26                                  [v0_min (km/s) before EX0s...]
 458.25                                  [vd_min (km/s) before EX0s...]


## Synthetic spectrum (Best Model) ##l_obs f_obs f_syn wei
 3478    [Nl_obs]
 3741.00   -0.16416   0.93356    0.000
 3742.00    0.00438   0.93316    0.000
 3743.00    0.25439   0.93139    0.000
 3744.00    0.22847   0.92976    0.000
 3745.00    0.04180   0.92682   -1.000
 3746.00   -0.06320   0.92466    0.000
 3747.00   -0.12672   0.92289    0.000
 3748.00   -0.03948   0.92354    0.000
 3749.00    0.11404   0.92672   -1.000
 3750.00    0.41859   0.93248   -1.000
 3751.00    0.78017   0.94083   -1.000
 3752.00    0.90302   0.94942   -1.000
 3753.00    0.94937   0.95960   -1.000
 3754.00    0.72850   0.96861   -1.000
 3755.00    0.43603   0.97765   -1.000
 3756.00    0.43313   0.98572   -1.000
 3757.00    0.49379   0.99288   -1.000
 3758.00    0.63780   0.99877   -1.000
 3759.00    0.79635   1.00170   -1.000
 3760.00    0.80135   1.00242   -1.000
 3761.00    0.78595   1.00068   -1.000
 3762.00    0.79874   0.99779   -1.000
 3763.00    0.81418   0.99300   -1.000
 3764.00    0.55956   0.98843   -1.000
 3765.00    0.28936   0.98423   -1.000
 3766.00    0.13798   0.98062   -1.000
 3767.00   -0.00769   0.97841    0.000
 3768.00    0.19557   0.97830   -1.000
 3769.00    0.39093   0.98122   -1.000
 3770.00    0.39436   0.98680   -1.000
 3771.00    0.40598   0.99599   -1.000
 3772.00    0.52482   1.00726   -1.000
 3773.00    0.65225   1.02005   -1.000
 3774.00    0.85507   1.03481   -1.000
 3775.00    0.99421   1.04987   -1.000
 3776.00    0.72039   1.06531   -1.000
 3777.00    0.45394   1.07979   -1.000
 3778.00    0.22480   1.09281   -1.000
 3779.00    0.00410   1.10367   -1.000
 3780.00   -0.18208   1.11083    0.000
 3781.00   -0.28239   1.11532    0.000
 3782.00   -0.09142   1.11591    0.000
 3783.00    0.05309   1.11293   -1.000
 3784.00    0.06471   1.10657   -1.000
 3785.00    0.06286   1.09636   -1.000
 3786.00    0.02810   1.08408   -1.000
 3787.00    0.13534   1.06886   -1.000
 3788.00    0.54190   1.05218   -1.000
 3789.00    0.68257   1.03417   -1.000
 3790.00    0.33623   1.01570   -1.000
 3791.00    0.14660   0.99779   -1.000
 3792.00    0.20782   0.98069   -1.000
 3793.00    0.38345   0.96618   -1.000
 3794.00    0.71979   0.95378   -1.000
 3795.00    0.75261   0.94539   -1.000
 3796.00    0.41030   0.94056   -1.000
 3797.00    0.00775   0.94050   -1.000
 3798.00   -0.46044   0.94495    0.000
 3799.00   -0.54044   0.95331    0.000
 3800.00   -0.24740   0.96549    0.000
 3801.00   -0.01549   0.97912    0.000
 3802.00    0.16460   0.99516   -1.000
 3803.00    0.22757   1.01114   -1.000
 3804.00    0.20314   1.02743   -1.000
 3805.00    0.38603   1.04302   -1.000
 3806.00    0.70483   1.05716   -1.000
 3807.00    0.88680   1.06993   -1.000
 3808.00    0.99027   1.07919   -1.000
 3809.00    0.77589   1.08574   -1.000
 3810.00    0.40264   1.08860   -1.000
 3811.00    0.14186   1.08865   -1.000
 3812.00   -0.07028   1.08644    0.000
 3813.00    0.04333   1.08308   -1.000
 3814.00    0.27776   1.07844   -1.000
 3815.00    0.30125   1.07191   -1.000
 3816.00    0.25844   1.06328   -1.000
 3817.00    0.39280   1.05358   -1.000
 3818.00    0.57364   1.04338   -1.000
 3819.00    0.64981   1.03281   -1.000
 3820.00    0.70355   1.02328   -1.000
 3821.00    0.31306   1.01243   -1.000
 3822.00   -0.15281   1.00066    0.000
 3823.00   -0.02417   0.98683    0.000
 3824.00    0.18076   0.97207   -1.000
 3825.00    0.08712   0.95750   -1.000
 3826.00   -0.03333   0.94199    0.000
 3827.00   -0.05551   0.92677    0.000
 3828.00   -0.07240   0.91122    0.000
 3829.00   -0.03942   0.89600    0.000
 3830.00   -0.00379   0.88180    0.000
 3831.00    0.17171   0.86930   -1.000
 3832.00    0.34391   0.85988   -1.000
 3833.00    0.44298   0.85445   -1.000
 3834.00    0.53960   0.85295   -1.000
 3835.00    0.60573   0.85585   -1.000
 3836.00    0.68783   0.86294   -1.000
 3837.00    0.90488   0.87321   -1.000
 3838.00    1.05994   0.88734   -1.000
 3839.00    0.82496   0.90440   -1.000
 3840.00    0.59295   0.92388   -1.000
 3841.00    0.37552   0.94479   -1.000
 3842.00    0.19477   0.96545   -1.000
 3843.00    0.16083   0.98618   -1.000
 3844.00    0.15093   1.00555   -1.000
 3845.00    0.22099   1.02309   -1.000
 3846.00    0.27709   1.03895   -1.000
 3847.00    0.29404   1.05242    0.000
 3848.00    0.21979   1.06340    0.000
 3849.00   -0.07352   1.07250    0.000
 3850.00   -0.35671   1.07961    0.000
 3851.00   -0.61894   1.08494    0.000
 3852.00   -0.76575   1.08845    0.000
 3853.00   -0.70437   1.09063    0.000
 3854.00   -0.47944   1.09269    0.000
 3855.00    0.00343   1.09342    0.000
 3856.00    0.36008   1.09425    0.000
 3857.00    0.54199   1.09430    0.000
 3858.00    0.59231   1.09414    0.000
 3859.00    0.48230   1.09423    0.000
 3860.00    0.43195   1.09425    0.000
 3861.00    0.44570   1.09504    0.000
 3862.00    0.36599   1.09424    0.000
 3863.00    0.19773   1.09302    0.000
 3864.00    0.25151   1.09099    0.000
 3865.00    0.49077   1.08954    0.000
 3866.00    0.73615   1.08814    0.000
 3867.00    0.98603   1.08538    0.000
 3868.00    0.93390   1.08219    0.000
 3869.00    0.68669   1.07704    0.000
 3870.00    0.74394   1.07131    0.000
 3871.00    0.97323   1.06561    0.000
 3872.00    0.95088   1.05984    0.000
 3873.00    0.80473   1.05308    0.000
 3874.00    0.58183   1.04404    0.000
 3875.00    0.32629   1.03367    0.000
 3876.00    0.59039   1.02285    0.000
 3877.00    1.04378   1.01031    0.000
 3878.00    0.90889   0.99725    0.000
 3879.00    0.59266   0.98384    0.000
 3880.00    0.61852   0.96845    0.000
 3881.00    0.73219   0.95301   -1.000
 3882.00    0.55702   0.93876   -1.000
 3883.00    0.32145   0.92672   -1.000
 3884.00    0.21979   0.91612   -1.000
 3885.00    0.14022   0.90618   -1.000
 3886.00    0.32386   0.89999   -1.000
 3887.00    0.54011   0.89720   -1.000
 3888.00    0.78376   0.89870   -1.000
 3889.00    1.02975   0.90498   -1.000
 3890.00    1.00550   0.91340   -1.000
 3891.00    0.96778   0.92535   -1.000
 3892.00    0.77580   0.93840   -1.000
 3893.00    0.58286   0.95415   -1.000
 3894.00    0.49101   0.97182   -1.000
 3895.00    0.40909   0.98965   -1.000
 3896.00    0.53029   1.00862   -1.000
 3897.00    0.64299   1.02445   -1.000
 3898.00    0.65522   1.04038   -1.000
 3899.00    0.64035   1.05524   -1.000
 3900.00    0.40465   1.06947   -1.000
 3901.00    0.23281   1.08328   -1.000
 3902.00    0.45101   1.09350   -1.000
 3903.00    0.67196   1.10408   -1.000
 3904.00    0.90618   1.11291   -1.000
 3905.00    1.04463   1.12096   -1.000
 3906.00    0.80803   1.12879   -1.000
 3907.00    0.62916   1.13462   -1.000
 3908.00    0.63851   1.13981   -1.000
 3909.00    0.71187   1.14304   -1.000
 3910.00    0.96170   1.14457   -1.000
 3911.00    1.05161   1.14565   -1.000
 3912.00    0.76386   1.14483   -1.000
 3913.00    0.58684   1.14207   -1.000
 3914.00    0.63579   1.13859   -1.000
 3915.00    0.76942   1.13258   -1.000
 3916.00    1.05347   1.12604   -1.000
 3917.00    1.04100   1.11768   -1.000
 3918.00    0.56777   1.10751   -1.000
 3919.00    0.38221   1.09748   -1.000
 3920.00    0.58915   1.08538   -1.000
 3921.00    0.67799   1.07407   -1.000
 3922.00    0.62497   1.06138   -1.000
 3923.00    0.50331   1.04775   -1.000
 3924.00    0.30896   1.03439   -1.000
 3925.00    0.34864   1.01984   -1.000
 3926.00    0.60694   1.00741   -1.000
 3927.00    0.57057   0.99523   -1.000
 3928.00    0.29152   0.98427   -1.000
 3929.00    0.14419   0.97523   -1.000
 3930.00    0.09235   0.96693   -1.000
 3931.00    0.18171   0.96178   -1.000
 3932.00    0.36094   0.95890   -1.000
 3933.00    0.38006   0.95904   -1.000
 3934.00    0.31008   0.96226   -1.000
 3935.00    0.40201   0.96725   -1.000
 3936.00    0.57233   0.97448   -1.000
 3937.00    0.51158   0.98356   -1.000
 3938.00    0.35422   0.99433   -1.000
 3939.00    0.50270   1.00622   -1.000
 3940.00    0.76059   1.01817   -1.000
 3941.00    0.88438   1.03024   -1.000
 3942.00    0.96763   1.04202   -1.000
 3943.00    0.64474   1.05296   -1.000
 3944.00    0.21984   1.06334   -1.000
 3945.00    0.59054   1.07279   -1.000
 3946.00    1.12348   1.08022   -1.000
 3947.00    1.01983   1.08543   -1.000
 3948.00    0.81425   1.08909   -1.000
 3949.00    0.79429   1.09140   -1.000
 3950.00    0.79650   1.09179   -1.000
 3951.00    1.00279   1.08867   -1.000
 3952.00    1.22570   1.08261   -1.000
 3953.00    0.95110   1.07477   -1.000
 3954.00    0.65364   1.06390   -1.000
 3955.00    0.66544   1.04919   -1.000
 3956.00    0.68031   1.03166   -1.000
 3957.00    0.65034   1.01234   -1.000
 3958.00    0.61237   0.99094   -1.000
 3959.00    0.42308   0.96683   -1.000
 3960.00    0.28108   0.93981    0.000
 3961.00    0.67203   0.91304    0.000
 3962.00    1.02307   0.88823    0.000
 3963.00    1.06041   0.86408    0.000
 3964.00    1.01450   0.84187    0.000
 3965.00    0.47459   0.82248    0.000
 3966.00    0.05859   0.80748    0.000
 3967.00    0.22436   0.79846    0.000
 3968.00    0.38462   0.79423    0.000
 3969.00    0.52375   0.79605    0.000
 3970.00    0.62368   0.80445    0.000
 3971.00    0.59834   0.81788    0.000
 3972.00    0.64317   0.83607    0.000
 3973.00    0.87807   0.85761    0.000
 3974.00    1.01055   0.88288    0.000
 3975.00    0.90520   0.91069    0.000
 3976.00    0.75859   0.93903    0.000
 3977.00    0.52913   0.96801    0.000
 3978.00    0.41863   0.99554    0.000
 3979.00    0.51625   1.02237    0.000
 3980.00    0.66515   1.04706    0.000
 3981.00    0.89255   1.06846   -1.000
 3982.00    1.08835   1.08946   -1.000
 3983.00    1.24165   1.10735   -1.000
 3984.00    1.29237   1.12330   -1.000
 3985.00    1.22162   1.13740   -1.000
 3986.00    1.09838   1.14800   -1.000
 3987.00    0.92032   1.15904   -1.000
 3988.00    0.66572   1.16733   -1.000
 3989.00    0.34061   1.17400   -1.000
 3990.00    0.32414   1.18079   -1.000
 3991.00    0.55825   1.18534   -1.000
 3992.00    0.80318   1.19044   -1.000
 3993.00    1.05585   1.19362   -1.000
 3994.00    0.95446   1.19559   -1.000
 3995.00    0.63108   1.19851   -1.000
 3996.00    0.60162   1.20033   -1.000
 3997.00    0.73323   1.20208   -1.000
 3998.00    0.77514   1.20348   -1.000
 3999.00    0.77433   1.20395   -1.000
 4000.00    0.73988   1.20484   -1.000
 4001.00    0.69161   1.20568   -1.000
 4002.00    0.67078   1.20669   -1.000
 4003.00    0.65960   1.20773   -1.000
 4004.00    0.69308   1.20782   -1.000
 4005.00    0.73979   1.20924   -1.000
 4006.00    0.82213   1.21149   -1.000
 4007.00    0.91323   1.21439   -1.000
 4008.00    0.67241   1.21615   -1.000
 4009.00    0.36561   1.21719   -1.000
 4010.00    0.50405   1.22060   -1.000
 4011.00    0.71169   1.22352   -1.000
 4012.00    0.96804   1.22657   -1.000
 4013.00    1.22999   1.22816   -1.000
 4014.00    1.32121   1.22889   -1.000
 4015.00    1.39924   1.23042   -1.000
 4016.00    0.96723   1.22958   -1.000
 4017.00    0.51376   1.22884   -1.000
 4018.00    0.40532   1.22728   -1.000
 4019.00    0.31340   1.22404   -1.000
 4020.00    0.80714   1.22094   -1.000
 4021.00    1.29119   1.21691   -1.000
 4022.00    1.60432   1.21318   -1.000
 4023.00    1.85262   1.20942   -1.000
 4024.00    1.40340   1.20410   -1.000
 4025.00    1.01372   1.19996   -1.000
 4026.00    1.07606   1.19814   -1.000
 4027.00    1.00000   1.19635   -1.000
 4028.00    0.12565   1.19480   -1.000
 4029.00   -0.49469   1.19229    0.000
 4030.00    0.04906   1.19169   -1.000
 4031.00    0.54009   1.19479   -1.000
 4032.00    0.83335   1.19657   -1.000
 4033.00    1.04279   1.19824   -1.000
 4034.00    0.98947   1.19901   -1.000
 4035.00    0.97941   1.20051   -1.000
 4036.00    1.08447   1.20493   -1.000
 4037.00    1.12188   1.20639   -1.000
 4038.00    1.00479   1.20618   -1.000
 4039.00    0.92337   1.20565   -1.000
 4040.00    0.91244   1.20514   -1.000
 4041.00    0.91812   1.20725   -1.000
 4042.00    0.95240   1.20694   -1.000
 4043.00    1.10160   1.20385   -1.000
 4044.00    1.42415   1.20161   -1.000
 4045.00    1.47365   1.20043   -1.000
 4046.00    1.16120   1.20175   -1.000
 4047.00    0.97667   1.20203   -1.000
 4048.00    0.94149   1.19958   -1.000
 4049.00    0.88861   1.19777   -1.000
 4050.00    0.81753   1.19738   -1.000
 4051.00    0.81803   1.19706   -1.000
 4052.00    0.88355   1.19580   -1.000
 4053.00    1.02207   1.19348   -1.000
 4054.00    1.21904   1.19099   -1.000
 4055.00    1.24346   1.18911   -1.000
 4056.00    1.14639   1.18552   -1.000
 4057.00    1.25613   1.18113   -1.000
 4058.00    1.49362   1.17836   -1.000
 4059.00    1.50383   1.17632   -1.000
 4060.00    1.39141   1.17326   -1.000
 4061.00    1.23439   1.16866   -1.000
 4062.00    1.05646   1.16477   -1.000
 4063.00    0.84534   1.16315   -1.000
 4064.00    0.62080   1.16294   -1.000
 4065.00    0.54566   1.16021   -1.000
 4066.00    0.52204   1.15630   -1.000
 4067.00    0.51343   1.15559   -1.000
 4068.00    0.50918   1.15570   -1.000
 4069.00    0.52284   1.15571   -1.000
 4070.00    0.54079   1.15369   -1.000
 4071.00    0.90824   1.15094   -1.000
 4072.00    1.34340   1.15290   -1.000
 4073.00    1.18969   1.15491   -1.000
 4074.00    0.94725   1.15521   -1.000
 4075.00    1.20499   1.15538   -1.000
 4076.00    1.51805   1.15517   -1.000
 4077.00    1.42449   1.15849   -1.000
 4078.00    1.30114   1.16206   -1.000
 4079.00    1.15277   1.16353   -1.000
 4080.00    1.00343   1.16535   -1.000
 4081.00    1.15838   1.16605   -1.000
 4082.00    1.30595   1.16726   -1.000
 4083.00    1.11180   1.16809   -1.000
 4084.00    0.93409   1.16615   -1.000
 4085.00    1.02734   1.16337   -1.000
 4086.00    1.10029   1.15838   -1.000
 4087.00    0.96440   1.15184   -1.000
 4088.00    0.86852   1.14401   -1.000
 4089.00    1.06628   1.13206   -1.000
 4090.00    1.17570   1.11850   -1.000
 4091.00    0.78958   1.10378   -1.000
 4092.00    0.51828   1.08824    0.000
 4093.00    0.76073   1.07238    0.000
 4094.00    0.93143   1.05339    0.000
 4095.00    0.83860   1.03414    0.000
 4096.00    0.83964   1.01806    0.000
 4097.00    1.12935   1.00523    0.000
 4098.00    1.29990   0.99407    0.000
 4099.00    1.15899   0.98376    0.000
 4100.00    1.08642   0.97605    0.000
 4101.00    1.16729   0.97373    0.000
 4102.00    1.19727   0.97745    0.000
 4103.00    1.12822   0.98267    0.000
 4104.00    1.04670   0.98948    0.000
 4105.00    0.94402   0.99936    0.000
 4106.00    0.81972   1.01145    0.000
 4107.00    0.66326   1.02645    0.000
 4108.00    0.63798   1.04090    0.000
 4109.00    0.78407   1.05434    0.000
 4110.00    1.04484   1.06844    0.000
 4111.00    1.43759   1.08171    0.000
 4112.00    1.52126   1.09349    0.000
 4113.00    1.29116   1.10390   -1.000
 4114.00    1.25561   1.11311   -1.000
 4115.00    1.39424   1.12085   -1.000
 4116.00    1.36664   1.12768   -1.000
 4117.00    1.20790   1.13214   -1.000
 4118.00    1.11928   1.13581   -1.000
 4119.00    1.07932   1.14019   -1.000
 4120.00    1.38505   1.14215   -1.000
 4121.00    1.90113   1.14333   -1.000
 4122.00    2.03422   1.14389   -1.000
 4123.00    1.96383   1.14423   -1.000
 4124.00    1.71427   1.14593   -1.000
 4125.00    1.38210   1.14556   -1.000
 4126.00    1.40187   1.14355   -1.000
 4127.00    1.56138   1.14314   -1.000
 4128.00    1.28987   1.14283   -1.000
 4129.00    0.87247   1.14337   -1.000
 4130.00    0.58216   1.14376   -1.000
 4131.00    0.32802   1.14092   -1.000
 4132.00    1.00605   1.14038   -1.000
 4133.00    1.90295   1.14075   -1.000
 4134.00    1.46575   1.14094   -1.000
 4135.00    0.77675   1.14221   -1.000
 4136.00    0.85211   1.13919   -1.000
 4137.00    1.03910   1.13636   -1.000
 4138.00    1.27429   1.13593   -1.000
 4139.00    1.51460   1.13604   -1.000
 4140.00    1.17500   1.13604   -1.000
 4141.00    0.79528   1.13292   -1.000
 4142.00    0.92850   1.12938   -1.000
 4143.00    1.07941   1.12801   -1.000
 4144.00    1.21253   1.12882    0.065
 4145.00    1.34266   1.12901    0.033
 4146.00    1.37521   1.12757    0.033
 4147.00    1.38144   1.12710    0.033
 4148.00    0.98069   1.12711    0.033
 4149.00    0.66009   1.12914    0.032
 4150.00    1.12965   1.13095    0.032
 4151.00    1.50653   1.13162    0.032
 4152.00    1.22539   1.13422    0.032
 4153.00    0.98136   1.13615    0.032
 4154.00    0.93991   1.13866    0.032
 4155.00    0.93064   1.14095    0.031
 4156.00    1.06200   1.14265    0.031
 4157.00    1.16255   1.14604    0.031
 4158.00    1.15230   1.14754    0.030
 4159.00    1.10172   1.14896    0.030
 4160.00    0.92940   1.14989    0.030
 4161.00    0.76484   1.14916    0.030
 4162.00    0.62021   1.14976    0.030
 4163.00    0.56605   1.14849    0.030
 4164.00    0.71175   1.14673    0.030
 4165.00    0.83385   1.14485    0.030
 4166.00    0.91075   1.13977    0.030
 4167.00    0.98412   1.13639    0.037
 4168.00    1.05161   1.13391    0.099
 4169.00    1.11858   1.13051   -1.000
 4170.00    1.18481   1.12752   -1.000
 4171.00    1.12273   1.12225   -1.000
 4172.00    0.89539   1.11867   -1.000
 4173.00    0.73241   1.11820   -1.000
 4174.00    0.64247   1.11735   -1.000
 4175.00    0.66001   1.11607   -1.000
 4176.00    0.78513   1.11418   -1.000
 4177.00    1.03018   1.11395   -1.000
 4178.00    1.38109   1.11576   -1.000
 4179.00    1.41549   1.11818    0.104
 4180.00    1.20373   1.11864    0.037
 4181.00    1.11528   1.11780    0.030
 4182.00    1.11117   1.12009    0.029
 4183.00    1.03961   1.12255    0.029
 4184.00    0.92761   1.12442    0.029
 4185.00    0.93855   1.12446    0.029
 4186.00    1.01378   1.12270    0.029
 4187.00    0.97224   1.12453    0.029
 4188.00    0.87772   1.12562    0.029
 4189.00    0.70723   1.12401    0.029
 4190.00    0.50710   1.12180    0.029
 4191.00    0.91061   1.11983    0.030
 4192.00    1.51462   1.11941    0.030
 4193.00    1.63076   1.11766    0.030
 4194.00    1.61092   1.11499    0.030
 4195.00    1.73574   1.11226    0.031
 4196.00    1.89374   1.11065    0.031
 4197.00    1.45128   1.11046    0.031
 4198.00    0.89848   1.10932    0.030
 4199.00    0.67929   1.10977    0.030
 4200.00    0.50727   1.11064    0.030
 4201.00    0.74437   1.11106    0.030
 4202.00    1.02319   1.11470    0.030
 4203.00    1.08076   1.11736    0.030
 4204.00    1.12392   1.11917    0.029
 4205.00    1.06348   1.12341    0.029
 4206.00    0.99989   1.12635    0.030
 4207.00    0.95526   1.13008    0.030
 4208.00    0.91518   1.13341    0.030
 4209.00    1.00915   1.13311    0.030
 4210.00    1.10027   1.13553    0.030
 4211.00    1.15003   1.13849    0.030
 4212.00    1.20490   1.13845    0.030
 4213.00    1.30810   1.13825    0.030
 4214.00    1.40430   1.13551    0.031
 4215.00    1.45237   1.13363    0.030
 4216.00    1.42121   1.13320    0.030
 4217.00    0.96900   1.12953    0.030
 4218.00    0.62347   1.12500    0.030
 4219.00    0.73351   1.12082    0.030
 4220.00    0.86469   1.11626    0.029
 4221.00    1.07035   1.11103    0.029
 4222.00    1.26377   1.10704    0.029
 4223.00    1.42092   1.10343    0.030
 4224.00    1.53752   1.09941    0.030
 4225.00    1.55181   1.09659    0.029
 4226.00    1.46578   1.09324    0.029
 4227.00    1.16176   1.09316    0.028
 4228.00    0.96881   1.09563    0.028
 4229.00    0.98533   1.09554    0.028
 4230.00    0.95379   1.09769    0.028
 4231.00    0.84313   1.10073    0.027
 4232.00    0.80389   1.10263    0.027
 4233.00    0.86776   1.10753    0.027
 4234.00    0.87187   1.11135    0.026
 4235.00    0.80012   1.11459    0.026
 4236.00    0.77201   1.11931    0.026
 4237.00    0.79274   1.12228    0.026
 4238.00    0.87222   1.12561    0.026
 4239.00    1.00968   1.12855    0.026
 4240.00    1.10158   1.13053    0.026
 4241.00    1.15383   1.13151    0.026
 4242.00    1.19447   1.13181    0.026
 4243.00    1.22621   1.13364    0.026
 4244.00    1.20129   1.13243    0.026
 4245.00    1.13817   1.12986    0.027
 4246.00    1.16743   1.12840    0.027
 4247.00    1.25121   1.12605    0.028
 4248.00    1.04352   1.12478    0.028
 4249.00    0.68575   1.12065    0.028
 4250.00    0.49278   1.11752    0.028
 4251.00    0.37333   1.11878    0.028
 4252.00    0.64146   1.11622    0.029
 4253.00    1.05818   1.11328    0.029
 4254.00    1.38864   1.11215    0.030
 4255.00    1.69099   1.11217    0.031
 4256.00    1.65903   1.11525    0.032
 4257.00    1.53582   1.11443    0.032
 4258.00    1.45780   1.11265    0.032
 4259.00    1.38990   1.11421    0.032
 4260.00    1.27556   1.11405    0.029
 4261.00    1.15291   1.11431    0.027
 4262.00    1.12877   1.11398    0.027
 4263.00    1.11811   1.11175    0.028
 4264.00    0.98617   1.11174    0.028
 4265.00    0.84238   1.10883    0.028
 4266.00    0.83518   1.10352    0.028
 4267.00    0.83632   1.10193    0.028
 4268.00    0.85224   1.09899    0.027
 4269.00    0.86863   1.09603    0.027
 4270.00    0.89949   1.09281    0.027
 4271.00    0.93913   1.08821    0.027
 4272.00    1.21118   1.08964    0.027
 4273.00    1.45409   1.08830    0.028
 4274.00    1.29642   1.08453    0.028
 4275.00    1.16852   1.08677    0.028
 4276.00    1.31097   1.08644    0.028
 4277.00    1.36554   1.08724    0.028
 4278.00    0.83482   1.08857    0.028
 4279.00    0.44322   1.08498    0.028
 4280.00    0.77186   1.08579    0.028
 4281.00    1.06095   1.08564    0.028
 4282.00    1.18495   1.08251   -2.000
 4283.00    1.34971   1.08188   -2.000
 4284.00    1.65524   1.07780   -2.000
 4285.00    1.89397   1.07315   -2.000
 4286.00    1.93852   1.07149   -2.000
 4287.00    1.87160   1.06722   -2.000
 4288.00    1.52820   1.06020   -2.000
 4289.00    1.08738   1.05512   -2.000
 4290.00    0.43834   1.04993   -2.000
 4291.00    0.21993   1.04509   -2.000
 4292.00    0.80112   1.04117   -2.000
 4293.00    1.22001   1.03158   -2.000
 4294.00    1.37572   1.02496   -2.000
 4295.00    1.21609   1.02191   -2.000
 4296.00    0.60786   1.01332   -2.000
 4297.00    0.43137   1.00747   -2.000
 4298.00    0.79522   1.00101    0.028
 4299.00    0.94544   0.99378    0.028
 4300.00    0.86002   0.99302    0.028
 4301.00    0.81766   0.98810    0.028
 4302.00    0.81721   0.98373    0.028
 4303.00    0.71679   0.98561    0.028
 4304.00    0.53060   0.98550    0.027
 4305.00    0.49979   0.98794    0.027
 4306.00    0.58639   0.99206    0.027
 4307.00    0.66783   0.99632    0.027
 4308.00    0.74584   1.00493    0.027
 4309.00    0.76168   1.01370    0.027
 4310.00    0.74137   1.02304    0.027
 4311.00    0.79830   1.03338    0.027
 4312.00    0.89439   1.04336    0.027
 4313.00    1.06071   1.05329    0.026
 4314.00    1.25785   1.06170    0.026
 4315.00    1.27644   1.07123    0.026
 4316.00    1.22777   1.07827    0.027
 4317.00    1.06143   1.08173    0.026
 4318.00    0.85747   1.08708    0.026
 4319.00    0.89411   1.08912    0.026
 4320.00    0.99506   1.08849    0.026
 4321.00    1.03244   1.08904    0.026
 4322.00    1.05590   1.08610    0.026
 4323.00    1.11928   1.08323    0.026
 4324.00    1.18961   1.07880    0.026
 4325.00    1.17874   1.07178    0.026
 4326.00    1.15714   1.06886    0.026
 4327.00    1.04131   1.06432    0.026
 4328.00    0.91667   1.05536    0.026
 4329.00    0.90169   1.04730    0.026
 4330.00    0.89297   1.03880    0.000
 4331.00    0.92936   1.02859    0.000
 4332.00    0.96703   1.01851    0.000
 4333.00    1.03190   1.00865    0.000
 4334.00    1.09684   0.99934    0.000
 4335.00    1.16325   0.99111    0.000
 4336.00    1.22593   0.98117    0.000
 4337.00    1.23991   0.97280    0.000
 4338.00    1.23062   0.96868    0.000
 4339.00    1.01795   0.96363    0.000
 4340.00    0.87218   0.96296    0.000
 4341.00    1.15846   0.96851    0.000
 4342.00    1.41516   0.97118    0.000
 4343.00    1.52263   0.97583    0.000
 4344.00    1.54255   0.98628    0.000
 4345.00    1.20512   0.99567    0.000
 4346.00    0.98252   1.00502    0.000
 4347.00    1.14841   1.01643    0.000
 4348.00    1.26631   1.02964    0.000
 4349.00    1.24727   1.04325    0.000
 4350.00    1.21700   1.05190    0.000
 4351.00    1.15939   1.06079   -1.000
 4352.00    1.14354   1.07516   -1.000
 4353.00    1.21552   1.08618   -1.000
 4354.00    1.27541   1.09267   -1.000
 4355.00    1.31319   1.10215   -1.000
 4356.00    1.29806   1.11311    0.133
 4357.00    1.19840   1.11983    0.037
 4358.00    1.16963   1.12302    0.026
 4359.00    1.24025   1.12830    0.025
 4360.00    1.26982   1.13595    0.026
 4361.00    1.24874   1.14006    0.026
 4362.00    1.20353   1.14042    0.026
 4363.00    1.13210   1.14257    0.026
 4364.00    1.22910   1.14537    0.026
 4365.00    1.48768   1.14372    0.026
 4366.00    1.42993   1.13928    0.026
 4367.00    1.10462   1.13714    0.026
 4368.00    0.95882   1.13651    0.026
 4369.00    0.94674   1.13255    0.026
 4370.00    0.94129   1.12655    0.026
 4371.00    0.94016   1.12212    0.026
 4372.00    0.97230   1.11817    0.026
 4373.00    1.02350   1.11155    0.026
 4374.00    1.03429   1.10285    0.026
 4375.00    1.02492   1.09676    0.026
 4376.00    1.08792   1.09315    0.026
 4377.00    1.18215   1.08807    0.026
 4378.00    1.16437   1.08071    0.026
 4379.00    1.10513   1.07417    0.026
 4380.00    0.98449   1.07125    0.026
 4381.00    0.84460   1.06688    0.026
 4382.00    1.01126   1.06026    0.026
 4383.00    1.25811   1.05737    0.026
 4384.00    1.15164   1.05830    0.026
 4385.00    0.96969   1.06040    0.026
 4386.00    0.87643   1.05957    0.026
 4387.00    0.79816   1.06010    0.026
 4388.00    0.85048   1.06589    0.026
 4389.00    0.91947   1.06905    0.026
 4390.00    1.00046   1.07150    0.026
 4391.00    1.08251   1.07598    0.026
 4392.00    1.08206   1.08053    0.026
 4393.00    1.07720   1.08646    0.026
 4394.00    1.07490   1.08837    0.026
 4395.00    1.07637   1.08981    0.026
 4396.00    1.38099   1.09461    0.026
 4397.00    1.66243   1.09596    0.027
 4398.00    1.43468   1.09663    0.026
 4399.00    1.21563   1.09617    0.026
 4400.00    1.10409   1.09488    0.026
 4401.00    0.98506   1.09842    0.026
 4402.00    0.80295   1.09844    0.026
 4403.00    0.65063   1.09445    0.026
 4404.00    0.68499   1.09587    0.026
 4405.00    0.75521   1.09853    0.026
 4406.00    1.00180   1.09886    0.026
 4407.00    1.17284   1.09892    0.026
 4408.00    1.04224   1.10061    0.026
 4409.00    0.91326   1.10578    0.026
 4410.00    0.78964   1.10792    0.026
 4411.00    0.78562   1.10816    0.025
 4412.00    1.11663   1.11353    0.026
 4413.00    1.32066   1.11533    0.026
 4414.00    1.22035   1.11469    0.026
 4415.00    1.09602   1.11926    0.026
 4416.00    0.92199   1.12182    0.025
 4417.00    0.82060   1.12338    0.025
 4418.00    0.85001   1.12553    0.025
 4419.00    0.89674   1.12665    0.025
 4420.00    0.97072   1.12911    0.025
 4421.00    1.08046   1.12734    0.025
 4422.00    1.23960   1.12617    0.025
 4423.00    1.27586   1.12903    0.025
 4424.00    1.16267   1.12827    0.025
 4425.00    1.28467   1.12712    0.026
 4426.00    1.65887   1.12589    0.027
 4427.00    1.75162   1.12596    0.028
 4428.00    1.57817   1.12747    0.028
 4429.00    1.57364   1.12327    0.028
 4430.00    1.70997   1.12263    0.028
 4431.00    1.62002   1.12543    0.027
 4432.00    1.36392   1.12331    0.026
 4433.00    1.22595   1.12307    0.025
 4434.00    1.16414   1.12301    0.025
 4435.00    1.14549   1.12322    0.025
 4436.00    1.15118   1.12689    0.025
 4437.00    1.02669   1.12701    0.025
 4438.00    0.83828   1.12760    0.025
 4439.00    0.74913   1.13105    0.025
 4440.00    0.70209   1.13074    0.025
 4441.00    0.82828   1.13092    0.025
 4442.00    1.01743   1.13250    0.025
 4443.00    1.02051   1.13172    0.025
 4444.00    0.96637   1.13390    0.024
 4445.00    1.05450   1.13472    0.024
 4446.00    1.17905   1.12983    0.025
 4447.00    1.20727   1.12972    0.025
 4448.00    1.21540   1.12966    0.025
 4449.00    1.10181   1.12314    0.025
 4450.00    0.96821   1.12007    0.024
 4451.00    1.00896   1.11800    0.024
 4452.00    1.07121   1.11304    0.024
 4453.00    1.21493   1.10892    0.024
 4454.00    1.36558   1.10358    0.024
 4455.00    1.22125   1.10033    0.024
 4456.00    1.06235   1.09957    0.024
 4457.00    1.07772   1.09495    0.023
 4458.00    1.09470   1.09169    0.023
 4459.00    1.03874   1.09344    0.023
 4460.00    0.99097   1.09191    0.023
 4461.00    1.10922   1.09003    0.000
 4462.00    1.22848   1.09386    0.000
 4463.00    1.35976   1.09629    0.000
 4464.00    1.44812   1.09729    0.000
 4465.00    1.18853   1.10064    0.000
 4466.00    0.95819   1.10445    0.000
 4467.00    0.90592   1.10846    0.000
 4468.00    0.90668   1.11160    0.000
 4469.00    1.16186   1.11555    0.000
 4470.00    1.36317   1.12033    0.000
 4471.00    1.35413   1.12401    0.000
 4472.00    1.30907   1.12888    0.000
 4473.00    1.14688   1.13359    0.000
 4474.00    1.05532   1.13633    0.000
 4475.00    1.15808   1.13938    0.000
 4476.00    1.26099   1.14259    0.000
 4477.00    1.36425   1.14512    0.000
 4478.00    1.41417   1.14650    0.000
 4479.00    1.35550   1.14717    0.000
 4480.00    1.33551   1.14842    0.000
 4481.00    1.38408   1.14911    0.000
 4482.00    1.38790   1.15001    0.023
 4483.00    1.32229   1.15125    0.023
 4484.00    1.27921   1.15119    0.023
 4485.00    1.26682   1.15133    0.023
 4486.00    1.20180   1.15175    0.023
 4487.00    1.07369   1.15113    0.023
 4488.00    0.98251   1.15120    0.023
 4489.00    0.93035   1.15136    0.023
 4490.00    0.93199   1.15171    0.023
 4491.00    0.98378   1.15437    0.023
 4492.00    1.07822   1.15597    0.023
 4493.00    1.20773   1.15644    0.023
 4494.00    1.22224   1.15955    0.023
 4495.00    1.15355   1.16267    0.023
 4496.00    1.14388   1.16586    0.023
 4497.00    1.17172   1.16964    0.023
 4498.00    1.20379   1.17345    0.023
 4499.00    1.23822   1.17848    0.024
 4500.00    1.21221   1.18072    0.023
 4501.00    1.15699   1.18350    0.023
 4502.00    1.17038   1.18940    0.023
 4503.00    1.21239   1.19153    0.023
 4504.00    1.33476   1.19282    0.023
 4505.00    1.48581   1.19477    0.023
 4506.00    1.60266   1.19490    0.023
 4507.00    1.70919   1.19529    0.023
 4508.00    1.53762   1.19403    0.023
 4509.00    1.29640   1.19314    0.023
 4510.00    1.34177   1.19183    0.023
 4511.00    1.44539   1.18704    0.023
 4512.00    1.34522   1.18489    0.023
 4513.00    1.21252   1.18144    0.023
 4514.00    1.17397   1.17574    0.023
 4515.00    1.14661   1.17342    0.023
 4516.00    1.24013   1.16757    0.023
 4517.00    1.34343   1.16151    0.023
 4518.00    1.35057   1.15774    0.023
 4519.00    1.35334   1.15049    0.023
 4520.00    1.40586   1.14642    0.023
 4521.00    1.45594   1.14067    0.023
 4522.00    1.35049   1.13182    0.023
 4523.00    1.25063   1.12874    0.023
 4524.00    1.25557   1.12285    0.023
 4525.00    1.25137   1.11611    0.023
 4526.00    1.14485   1.11357    0.023
 4527.00    1.05854   1.10841    0.023
 4528.00    1.13041   1.10559    0.023
 4529.00    1.21553   1.10449    0.023
 4530.00    1.37896   1.10190    0.023
 4531.00    1.47677   1.10313    0.023
 4532.00    1.26747   1.10338    0.023
 4533.00    1.10074   1.10360    0.023
 4534.00    1.09673   1.10538    0.023
 4535.00    1.09661   1.10677    0.023
 4536.00    1.10895   1.11146    0.023
 4537.00    1.10037   1.11302    0.023
 4538.00    1.03527   1.11381    0.023
 4539.00    1.01436   1.11833    0.023
 4540.00    1.09581   1.11810    0.023
 4541.00    1.12231   1.11935    0.023
 4542.00    1.03863   1.12351    0.023
 4543.00    1.01434   1.12236    0.023
 4544.00    1.09374   1.12318    0.023
 4545.00    1.15940   1.12447    0.023
 4546.00    1.20405   1.12404    0.023
 4547.00    1.23283   1.12715    0.023
 4548.00    1.24032   1.12567    0.023
 4549.00    1.27426   1.12547    0.023
 4550.00    1.33947   1.13075    0.000
 4551.00    1.21541   1.12938    0.000
 4552.00    0.89408   1.13040    0.000
 4553.00    0.86876   1.13551    0.000
 4554.00    1.11559   1.13505    0.000
 4555.00    1.11995   1.13808    0.000
 4556.00    0.92781   1.14213    0.000
 4557.00    0.86885   1.14273    0.000
 4558.00    0.90487   1.14702    0.000
 4559.00    1.00437   1.14826    0.000
 4560.00    1.14361   1.14894    0.000
 4561.00    1.12981   1.15344    0.000
 4562.00    1.03231   1.15284    0.000
 4563.00    1.01202   1.15364    0.000
 4564.00    1.02842   1.15580    0.000
 4565.00    1.00857   1.15418    0.000
 4566.00    0.97385   1.15700    0.000
 4567.00    1.02770   1.15671    0.000
 4568.00    1.11258   1.15349    0.000
 4569.00    1.24171   1.15710    0.000
 4570.00    1.38392   1.15439    0.000
 4571.00    1.34819   1.14984    0.000
 4572.00    1.26888   1.15364    0.000
 4573.00    1.32694   1.15081    0.000
 4574.00    1.41222   1.14605    0.000
 4575.00    1.32832   1.14746    0.000
 4576.00    1.21823   1.14424    0.000
 4577.00    1.11347   1.14105    0.000
 4578.00    1.00931   1.14111    0.000
 4579.00    1.17595   1.13715    0.000
 4580.00    1.36339   1.13520    0.000
 4581.00    1.32121   1.13588    0.000
 4582.00    1.26947   1.13244    0.000
 4583.00    1.23070   1.13130    0.000
 4584.00    1.19204   1.13214    0.000
 4585.00    1.15396   1.12917    0.000
 4586.00    1.11983   1.12905    0.000
 4587.00    1.15474   1.12997    0.000
 4588.00    1.18968   1.12763    0.000
 4589.00    1.22503   1.12813    0.000
 4590.00    1.26274   1.12808    0.000
 4591.00    1.31830   1.12559    0.000
 4592.00    1.34599   1.12719    0.000
 4593.00    1.21343   1.12717    0.000
 4594.00    1.10823   1.12512    0.000
 4595.00    1.12806   1.12757    0.000
 4596.00    1.15590   1.12760    0.000
 4597.00    1.21369   1.12700    0.000
 4598.00    1.23922   1.13054    0.000
 4599.00    1.16378   1.13092    0.000
 4600.00    1.11363   1.13195    0.000
 4601.00    1.13058   1.13573    0.000
 4602.00    1.09712   1.13759    0.000
 4603.00    0.94879   1.14034    0.000
 4604.00    0.92288   1.14330    0.000
 4605.00    1.13849   1.14645    0.000
 4606.00    1.21921   1.14955    0.000
 4607.00    1.06801   1.15196    0.000
 4608.00    1.01379   1.15633    0.000
 4609.00    1.10559   1.15790    0.000
 4610.00    1.17001   1.15903    0.000
 4611.00    1.19820   1.16379    0.000
 4612.00    1.14651   1.16326    0.000
 4613.00    1.00173   1.16404    0.000
 4614.00    1.08111   1.16887    0.000
 4615.00    1.39087   1.16604    0.000
 4616.00    1.50896   1.16647    0.000
 4617.00    1.45330   1.17075    0.000
 4618.00    1.37422   1.16658    0.000
 4619.00    1.27644   1.16613    0.000
 4620.00    1.32236   1.16953    0.000
 4621.00    1.46928   1.16569    0.000
 4622.00    1.43779   1.16390    0.000
 4623.00    1.29629   1.16528    0.000
 4624.00    1.29580   1.16240    0.000
 4625.00    1.37125   1.15927    0.000
 4626.00    1.27585   1.15822    0.000
 4627.00    1.10053   1.15638    0.000
 4628.00    1.04411   1.15247    0.000
 4629.00    1.03564   1.14901    0.000
 4630.00    1.04464   1.14693    0.000
 4631.00    1.05965   1.14316    0.000
 4632.00    1.05453   1.13885    0.000
 4633.00    1.04358   1.13487    0.000
 4634.00    1.08496   1.13106    0.000
 4635.00    1.13887   1.12793    0.000
 4636.00    1.13820   1.12241    0.000
 4637.00    1.12699   1.11849    0.000
 4638.00    1.01933   1.11682    0.000
 4639.00    0.89721   1.11076    0.000
 4640.00    1.02925   1.10763    0.000
 4641.00    1.18928   1.10752    0.000
 4642.00    1.19857   1.10209    0.000
 4643.00    1.19690   1.10008    0.000
 4644.00    1.09607   1.10096    0.000
 4645.00    0.99150   1.09738    0.000
 4646.00    1.01745   1.09737    0.000
 4647.00    1.04468   1.09872    0.000
 4648.00    1.09447   1.09772    0.000
 4649.00    1.14134   1.10020    0.000
 4650.00    1.14030   1.10126    0.000
 4651.00    1.13928   1.10158    0.000
 4652.00    1.13835   1.10533    0.000
 4653.00    1.12593   1.10572    0.000
 4654.00    1.02960   1.10616    0.000
 4655.00    0.95582   1.10941    0.000
 4656.00    1.00815   1.10900    0.000
 4657.00    1.07061   1.10862    0.000
 4658.00    1.17822   1.11035    0.000
 4659.00    1.23232   1.10870    0.000
 4660.00    1.09036   1.10644    0.000
 4661.00    0.99131   1.10665    0.000
 4662.00    1.02393   1.10417    0.000
 4663.00    1.02943   1.10070    0.000
 4664.00    0.96424   1.10076    0.000
 4665.00    0.93651   1.09889    0.000
 4666.00    0.99276   1.09537    0.000
 4667.00    1.00921   1.09577    0.000
 4668.00    0.94839   1.09527    0.000
 4669.00    0.93836   1.09348    0.000
 4670.00    1.01437   1.09470    0.000
 4671.00    1.11356   1.09463    0.000
 4672.00    1.24715   1.09417    0.000
 4673.00    1.31894   1.09595    0.000
 4674.00    1.31013   1.09579    0.000
 4675.00    1.32553   1.09594    0.000
 4676.00    1.36877   1.09810    0.000
 4677.00    1.35325   1.09750    0.000
 4678.00    1.27821   1.09684    0.000
 4679.00    1.15205   1.09910    0.000
 4680.00    0.98021   1.09866    0.000
 4681.00    0.96994   1.09705    0.000
 4682.00    1.08691   1.09926    0.000
 4683.00    1.20977   1.09922    0.000
 4684.00    1.33672   1.09696    0.000
 4685.00    1.29212   1.09881    0.000
 4686.00    1.14334   1.09900    0.000
 4687.00    1.30846   1.09662    0.000
 4688.00    1.64003   1.09785    0.000
 4689.00    1.77610   1.09792    0.000
 4690.00    1.82222   1.09568    0.000
 4691.00    1.72940   1.09574    0.000
 4692.00    1.58151   1.09525    0.000
 4693.00    1.57932   1.09340    0.000
 4694.00    1.62631   1.09201    0.000
 4695.00    1.36291   1.09058    0.000
 4696.00    1.01142   1.08914    0.000
 4697.00    0.95038   1.08692    0.000
 4698.00    0.95734   1.08499    0.000
 4699.00    1.01527   1.08364    0.000
 4700.00    1.08279   1.08187    0.000
 4701.00    0.97271   1.08106    0.000
 4702.00    0.83680   1.07972    0.000
 4703.00    0.94482   1.07865    0.000
 4704.00    1.07863   1.07992    0.000
 4705.00    1.03082   1.07937    0.000
 4706.00    0.97054   1.07942    0.000
 4707.00    1.01452   1.08271    0.000
 4708.00    1.06204   1.08332    0.000
 4709.00    1.03701   1.08487    0.000
 4710.00    1.01174   1.08934    0.000
 4711.00    0.98194   1.09092    0.000
 4712.00    0.95990   1.09386    0.000
 4713.00    1.05697   1.09838    0.000
 4714.00    1.14155   1.10008    0.000
 4715.00    1.10355   1.10341    0.000
 4716.00    1.08937   1.10731    0.000
 4717.00    1.24358   1.10828    0.000
 4718.00    1.33491   1.11016    0.000
 4719.00    1.08416   1.11256    0.000
 4720.00    0.85770   1.11235    0.000
 4721.00    0.73706   1.11211    0.000
 4722.00    0.73703   1.11310    0.000
 4723.00    1.16965   1.11135    0.000
 4724.00    1.46842   1.10891    0.000
 4725.00    1.36422   1.10967    0.000
 4726.00    1.26195   1.10724    0.000
 4727.00    1.16460   1.10337    0.000
 4728.00    1.11204   1.10510    0.000
 4729.00    1.15821   1.10329    0.000
 4730.00    1.16593   1.09931    0.000
 4731.00    1.10017   1.10273    0.000
 4732.00    1.07313   1.10195    0.000
 4733.00    1.11069   1.09862    0.000
 4734.00    1.13948   1.10352    0.000
 4735.00    1.15546   1.10392    0.000
 4736.00    1.18737   1.10187    0.000
 4737.00    1.23975   1.10688    0.000
 4738.00    1.24384   1.10763    0.000
 4739.00    1.19323   1.10727    0.000
 4740.00    1.14936   1.11148    0.000
 4741.00    1.11221   1.11132    0.000
 4742.00    1.15300   1.11185    0.000
 4743.00    1.26248   1.11507    0.000
 4744.00    1.26746   1.11370    0.000
 4745.00    1.19131   1.11375    0.000
 4746.00    1.08961   1.11555    0.000
 4747.00    0.97047   1.11338    0.000
 4748.00    0.93376   1.11223    0.000
 4749.00    0.94636   1.11222    0.000
 4750.00    0.98801   1.10958    0.000
 4751.00    1.04482   1.10745    0.000
 4752.00    1.02520   1.10565    0.000
 4753.00    0.97100   1.10297    0.000
 4754.00    1.06473   1.10043    0.000
 4755.00    1.21607   1.09720    0.000
 4756.00    1.22366   1.09499    0.000
 4757.00    1.18361   1.09282    0.000
 4758.00    1.09029   1.08873    0.000
 4759.00    0.98216   1.08718    0.000
 4760.00    1.00154   1.08630    0.000
 4761.00    1.05010   1.08260    0.020
 4762.00    1.03269   1.08185    0.020
 4763.00    1.00319   1.08259    0.020
 4764.00    1.08158   1.08041    0.020
 4765.00    1.17517   1.08081    0.020
 4766.00    1.09952   1.08281    0.020
 4767.00    1.00672   1.08226    0.020
 4768.00    0.88605   1.08352    0.020
 4769.00    0.76357   1.08578    0.019
 4770.00    0.87864   1.08660    0.020
 4771.00    1.00080   1.08860    0.020
 4772.00    1.08093   1.09002    0.020
 4773.00    1.15618   1.09059    0.020
 4774.00    1.09036   1.09284    0.020
 4775.00    1.03045   1.09350    0.020
 4776.00    1.05604   1.09229    0.020
 4777.00    1.08413   1.09417    0.020
 4778.00    1.13576   1.09495    0.019
 4779.00    1.17456   1.09149    0.019
 4780.00    1.12559   1.09269    0.019
 4781.00    1.08419   1.09474    0.019
 4782.00    1.08287   1.08995    0.019
 4783.00    1.09593   1.09057    0.019
 4784.00    1.17023   1.09416    0.019
 4785.00    1.20040   1.08964    0.019
 4786.00    1.07545   1.09012    0.019
 4787.00    0.99771   1.09481    0.019
 4788.00    1.05944   1.09165    0.019
 4789.00    1.08768   1.09214    0.019
 4790.00    1.03161   1.09707    0.019
 4791.00    1.00752   1.09548    0.019
 4792.00    1.05276   1.09557    0.019
 4793.00    1.11879   1.09964    0.019
 4794.00    1.22398   1.09903    0.019
 4795.00    1.27097   1.09842    0.019
 4796.00    1.22234   1.10124    0.019
 4797.00    1.18322   1.10105    0.020
 4798.00    1.15780   1.09961    0.020
 4799.00    1.17776   1.10139    0.019
 4800.00    1.25524   1.10121    0.020
 4801.00    1.29415   1.09885    0.020
 4802.00    1.28998   1.10007    0.020
 4803.00    1.19014   1.10022    0.020
 4804.00    0.99606   1.09763    0.020
 4805.00    0.95645   1.09861    0.020
 4806.00    1.05103   1.09932    0.019
 4807.00    1.11766   1.09712    0.019
 4808.00    1.16290   1.09795    0.020
 4809.00    1.10938   1.09924    0.019
 4810.00    0.98944   1.09751    0.019
 4811.00    0.97379   1.09807    0.019
 4812.00    1.01960   1.09981    0.019
 4813.00    1.08591   1.09807    0.019
 4814.00    1.16276   1.09799    0.019
 4815.00    1.17400   1.09988    0.019
 4816.00    1.15602   1.09738    0.020
 4817.00    1.07051   1.09639    0.020
 4818.00    0.95916   1.09810    0.020
 4819.00    0.93272   1.09464    0.020
 4820.00    0.93388   1.09292    0.020
 4821.00    0.93655   1.09406    0.020
 4822.00    0.93962   1.08977    0.020
 4823.00    1.06412   1.08791    0.020
 4824.00    1.21575   1.08851    0.020
 4825.00    1.09562   1.08369    0.020
 4826.00    0.92705   1.08205    0.020
 4827.00    1.04583   1.08234    0.020
 4828.00    1.20377   1.07777    0.020
 4829.00    1.18546   1.07626    0.020
 4830.00    1.15003   1.07605    0.020
 4831.00    1.09259   1.07232    0.020
 4832.00    1.03381   1.07080    0.019
 4833.00    1.11695   1.06962    0.020
 4834.00    1.20301   1.06693    0.020
 4835.00    1.13702   1.06528    0.020
 4836.00    1.07171   1.06267    0.020
 4837.00    1.02397   1.06078    0.020
 4838.00    0.97768   1.05861    0.020
 4839.00    0.95132   1.05411    0.020
 4840.00    0.93382   1.05259    0.019
 4841.00    0.99647   1.04937    0.019
 4842.00    1.06647   1.04228    0.019
 4843.00    1.18523   1.04041    0.019
 4844.00    1.25357   1.03574    0.019
 4845.00    1.06176   1.02539    0.019
 4846.00    0.91195   1.02218    0.019
 4847.00    0.93696   1.01589    0.020
 4848.00    0.95971   1.00211    0.000
 4849.00    0.97468   0.99701    0.000
 4850.00    0.98689   0.98961    0.000
 4851.00    0.99114   0.97310    0.000
 4852.00    0.97444   0.96651    0.000
 4853.00    0.90587   0.95978    0.000
 4854.00    0.87158   0.94275    0.000
 4855.00    0.91044   0.93596    0.000
 4856.00    0.97273   0.93209    0.000
 4857.00    1.07845   0.91768    0.000
 4858.00    1.10066   0.91255    0.000
 4859.00    0.98768   0.91332    0.000
 4860.00    0.89395   0.90449    0.000
 4861.00    0.82757   0.90244    0.000
 4862.00    0.77807   0.90804    0.000
 4863.00    0.74966   0.90626    0.000
 4864.00    0.74246   0.90756    0.000
 4865.00    0.75862   0.91633    0.000
 4866.00    0.79118   0.92101    0.000
 4867.00    0.83967   0.92504    0.000
 4868.00    0.90846   0.93423    0.000
 4869.00    0.99464   0.94320    0.000
 4870.00    1.00468   0.94901    0.000
 4871.00    0.95728   0.95621    0.000
 4872.00    0.90395   0.96654    0.000
 4873.00    0.84670   0.97332    0.000
 4874.00    0.88724   0.97735    0.000
 4875.00    0.98454   0.98637    0.019
 4876.00    1.02138   0.99350    0.019
 4877.00    1.02763   0.99468    0.020
 4878.00    0.99735   1.00068    0.019
 4879.00    0.95108   1.00776    0.019
 4880.00    1.00257   1.00745    0.019
 4881.00    1.09080   1.01007    0.019
 4882.00    1.01055   1.01707    0.019
 4883.00    0.87656   1.01704    0.019
 4884.00    0.87608   1.01708    0.019
 4885.00    0.91119   1.02432    0.019
 4886.00    0.89039   1.02594    0.019
 4887.00    0.85741   1.02469    0.019
 4888.00    0.97624   1.03247    0.019
 4889.00    1.12139   1.03616    0.019
 4890.00    1.04431   1.03456    0.019
 4891.00    0.93796   1.04258    0.019
 4892.00    0.91710   1.04767    0.019
 4893.00    0.90418   1.04591    0.019
 4894.00    0.99919   1.05322    0.019
 4895.00    1.10033   1.05841    0.019
 4896.00    1.05809   1.05619    0.019
 4897.00    1.01440   1.06156    0.019
 4898.00    1.16844   1.06566    0.019
 4899.00    1.31339   1.06280    0.019
 4900.00    1.24251   1.06537    0.019
 4901.00    1.16969   1.06768    0.019
 4902.00    1.07180   1.06436    0.019
 4903.00    0.98102   1.06398    0.018
 4904.00    0.95206   1.06430    0.019
 4905.00    0.93140   1.06087    0.019
 4906.00    0.96402   1.05811    0.019
 4907.00    0.99145   1.05662    0.019
 4908.00    0.99277   1.05321    0.019
 4909.00    1.00330   1.04912    0.019
 4910.00    1.05132   1.04634    0.018
 4911.00    1.09132   1.04287    0.018
 4912.00    1.10423   1.03866    0.018
 4913.00    1.10840   1.03568    0.018
 4914.00    1.08772   1.03213    0.018
 4915.00    1.08084   1.02893    0.018
 4916.00    1.10758   1.02730    0.018
 4917.00    1.10101   1.02398    0.018
 4918.00    1.02454   1.02255    0.019
 4919.00    0.97546   1.02370    0.019
 4920.00    0.97638   1.02104    0.018
 4921.00    0.99473   1.02133    0.018
 4922.00    1.04089   1.02579    0.018
 4923.00    1.03114   1.02384    0.018
 4924.00    0.94312   1.02501    0.018
 4925.00    0.92788   1.03205    0.018
 4926.00    1.00226   1.03040    0.018
 4927.00    1.03857   1.03125    0.018
 4928.00    1.03354   1.03942    0.018
 4929.00    1.05056   1.03752    0.018
 4930.00    1.08871   1.03735    0.018
 4931.00    1.07561   1.04540    0.018
 4932.00    1.01923   1.04313    0.018
 4933.00    0.98033   1.04217    0.018
 4934.00    0.95442   1.04968    0.018
 4935.00    0.99942   1.04742    0.018
 4936.00    1.09075   1.04643    0.018
 4937.00    1.06185   1.05356    0.017
 4938.00    0.96423   1.05178    0.017
 4939.00    0.96751   1.05123    0.017
 4940.00    1.02102   1.05805    0.000
 4941.00    1.08661   1.05678    0.000
 4942.00    1.15739   1.05643    0.000
 4943.00    1.19370   1.06246    0.000
 4944.00    1.21729   1.06115    0.000
 4945.00    1.23613   1.06027    0.000
 4946.00    1.25348   1.06481    0.000
 4947.00    1.21242   1.06268    0.000
 4948.00    1.15612   1.06069    0.000
 4949.00    1.12432   1.06351    0.000
 4950.00    1.09774   1.06015    0.000
 4951.00    1.09398   1.05700    0.000
 4952.00    1.09407   1.05858    0.000
 4953.00    1.09036   1.05440    0.000
 4954.00    1.08618   1.05059    0.000
 4955.00    1.14734   1.05173    0.000
 4956.00    1.21429   1.04774    0.000
 4957.00    1.12853   1.04398    0.000
 4958.00    1.03472   1.04515    0.000
 4959.00    0.96320   1.04233    0.000
 4960.00    0.89454   1.03925    0.000
 4961.00    1.01606   1.04032    0.000
 4962.00    1.12807   1.03895    0.000
 4963.00    1.03332   1.03681    0.000
 4964.00    0.96163   1.03740    0.000
 4965.00    1.17299   1.03691    0.000
 4966.00    1.34646   1.03535    0.000
 4967.00    1.20264   1.03525    0.000
 4968.00    1.07473   1.03476    0.000
 4969.00    1.04618   1.03295    0.000
 4970.00    1.02840   1.03213    0.000
 4971.00    1.06347   1.03092    0.000
 4972.00    1.10459   1.02799    0.000
 4973.00    1.16980   1.02674    0.000
 4974.00    1.19902   1.02475    0.000
 4975.00    1.10923   1.02032    0.000
 4976.00    1.05389   1.01907    0.000
 4977.00    1.09489   1.01713    0.000
 4978.00    1.09937   1.01165    0.000
 4979.00    1.01649   1.01074    0.000
 4980.00    0.96695   1.00980    0.000
 4981.00    0.98625   1.00437    0.000
 4982.00    1.00743   1.00413    0.000
 4983.00    1.03199   1.00464    0.000
 4984.00    1.02740   1.00006    0.000
 4985.00    0.97699   1.00063    0.000
 4986.00    0.96835   1.00222    0.000
 4987.00    1.01733   0.99843    0.000
 4988.00    1.05216   0.99957    0.000
 4989.00    1.06981   1.00119    0.000
 4990.00    1.06861   0.99745    0.000
 4991.00    1.04723   0.99878    0.000
 4992.00    1.03335   0.99929    0.000
 4993.00    1.02657   0.99468    0.000
 4994.00    1.02976   0.99580    0.000
 4995.00    1.04125   0.99469    0.000
 4996.00    1.12651   0.98877    0.000
 4997.00    1.26583   0.98945    0.000
 4998.00    1.21872   0.98717    0.000
 4999.00    1.05163   0.98034    0.000
 5000.00    1.06026   0.98046    0.000
 5001.00    1.16781   0.97784    0.000
 5002.00    1.21335   0.97090    0.000
 5003.00    1.22852   0.97061    0.000
 5004.00    1.09927   0.96843    0.000
 5005.00    0.90888   0.96196    0.000
 5006.00    0.90467   0.96158    0.000
 5007.00    0.96797   0.96054    0.000
 5008.00    0.98808   0.95502    0.000
 5009.00    0.99494   0.95493    0.000
 5010.00    1.00213   0.95528    0.000
 5011.00    1.00940   0.95081    0.000
 5012.00    1.01394   0.95131    0.000
 5013.00    1.01791   0.95333    0.000
 5014.00    0.94964   0.95039    0.000
 5015.00    0.86955   0.95160    0.000
 5016.00    0.79697   0.95496    0.000
 5017.00    0.72533   0.95346    0.000
 5018.00    0.74938   0.95526    0.000
 5019.00    0.78153   0.95995    0.000
 5020.00    0.80241   0.95987    0.000
 5021.00    0.82275   0.96158    0.000
 5022.00    0.94209   0.96706    0.000
 5023.00    1.05850   0.96796    0.000
 5024.00    0.90216   0.96862    0.000
 5025.00    0.75624   0.97374    0.000
 5026.00    0.81938   0.97511    0.000
 5027.00    0.88208   0.97462    0.000
 5028.00    0.93968   0.97796    0.000
 5029.00    0.98724   0.97891    0.017
 5030.00    0.95369   0.97793    0.017
 5031.00    0.93034   0.97886    0.017
 5032.00    0.96888   0.97882    0.017
 5033.00    0.99103   0.97825    0.017
 5034.00    0.93485   0.97680    0.017
 5035.00    0.89282   0.97612    0.017
 5036.00    0.90589   0.97713    0.017
 5037.00    0.90534   0.97411    0.017
 5038.00    0.86059   0.97300    0.017
 5039.00    0.83858   0.97623    0.017
 5040.00    0.87896   0.97333    0.017
 5041.00    0.91584   0.97230    0.017
 5042.00    0.94447   0.97722    0.017
 5043.00    0.93943   0.97569    0.017
 5044.00    0.86592   0.97529    0.017
 5045.00    0.84500   0.98096    0.017
 5046.00    0.91711   0.98126    0.017
 5047.00    0.99970   0.98137    0.017
 5048.00    1.09853   0.98652    0.017
 5049.00    1.16232   0.98856    0.018
 5050.00    1.17848   0.98900    0.018
 5051.00    1.18616   0.99229    0.018
 5052.00    1.18370   0.99488    0.018
 5053.00    1.18727   0.99590    0.018
 5054.00    1.19721   0.99733    0.018
 5055.00    1.16957   0.99882    0.018
 5056.00    1.10693   1.00019    0.017
 5057.00    1.05600   1.00034    0.017
 5058.00    1.01467   0.99949    0.017
 5059.00    1.02361   1.00036    0.017
 5060.00    1.06884   0.99981    0.017
 5061.00    1.07782   0.99658    0.017
 5062.00    1.06382   0.99638    0.017
 5063.00    0.98721   0.99555    0.017
 5064.00    0.87589   0.99083    0.017
 5065.00    0.91513   0.98933    0.017
 5066.00    1.02697   0.98844    0.017
 5067.00    1.01014   0.98349    0.017
 5068.00    0.93974   0.98066    0.017
 5069.00    0.92652   0.98001    0.017
 5070.00    0.93365   0.97641    0.017
 5071.00    0.85064   0.97253    0.017
 5072.00    0.74052   0.97156    0.017
 5073.00    0.74876   0.97028    0.017
 5074.00    0.78657   0.96677    0.017
 5075.00    0.78370   0.96475    0.017
 5076.00    0.77258   0.96522    0.017
 5077.00    0.78451   0.96409    0.017
 5078.00    0.80010   0.96160    0.017
 5079.00    0.93134   0.96238    0.017
 5080.00    1.07626   0.96410    0.018
 5081.00    0.88509   0.96255    0.017
 5082.00    0.66690   0.96266    0.017
 5083.00    0.71614   0.96582    0.017
 5084.00    0.77740   0.96632    0.017
 5085.00    0.78568   0.96620    0.017
 5086.00    0.79440   0.96878    0.017
 5087.00    0.85649   0.97018    0.017
 5088.00    0.91697   0.97023    0.017
 5089.00    0.94770   0.97154    0.017
 5090.00    0.97764   0.97224    0.017
 5091.00    0.99883   0.97198    0.017
 5092.00    1.00847   0.97217    0.017
 5093.00    0.92817   0.97179    0.017
 5094.00    0.85975   0.97077    0.017
 5095.00    0.86140   0.97011    0.017
 5096.00    0.89392   0.96918    0.017
 5097.00    1.07044   0.96755    0.017
 5098.00    1.18969   0.96628    0.018
 5099.00    1.09062   0.96539    0.017
 5100.00    1.00005   0.96374    0.017
 5101.00    0.93655   0.96268    0.017
 5102.00    0.88456   0.96241    0.017
 5103.00    0.86361   0.96097    0.017
 5104.00    0.85392   0.96119    0.017
 5105.00    0.87030   0.96186    0.017
 5106.00    0.87981   0.95968    0.017
 5107.00    0.87557   0.96087    0.017
 5108.00    0.89555   0.96305    0.017
 5109.00    0.95770   0.96009    0.017
 5110.00    0.99219   0.96113    0.017
 5111.00    0.98449   0.96429    0.017
 5112.00    0.94884   0.96103    0.017
 5113.00    0.87574   0.96100    0.017
 5114.00    0.86859   0.96381    0.017
 5115.00    0.93926   0.96086    0.017
 5116.00    0.99087   0.95918    0.018
 5117.00    1.02266   0.96027    0.018
 5118.00    0.98556   0.95815    0.018
 5119.00    0.88522   0.95508    0.017
 5120.00    0.90219   0.95416    0.017
 5121.00    1.01406   0.95342    0.017
 5122.00    1.04793   0.94953    0.017
 5123.00    1.02628   0.94674    0.017
 5124.00    0.94719   0.94773    0.017
 5125.00    0.83221   0.94429    0.016
 5126.00    0.80928   0.94024    0.016
 5127.00    0.83660   0.94254    0.017
 5128.00    0.85556   0.94075    0.017
 5129.00    0.87056   0.93612    0.017
 5130.00    0.94181   0.93865    0.017
 5131.00    1.03609   0.93856    0.017
 5132.00    1.05414   0.93336    0.017
 5133.00    1.04554   0.93541    0.017
 5134.00    0.96270   0.93728    0.017
 5135.00    0.85798   0.93128    0.017
 5136.00    0.90423   0.93180    0.017
 5137.00    0.98736   0.93559    0.016
 5138.00    0.98862   0.92923    0.017
 5139.00    0.97372   0.92812    0.017
 5140.00    0.93871   0.93302    0.017
 5141.00    0.90061   0.92684    0.017
 5142.00    0.93211   0.92486    0.016
 5143.00    0.97154   0.93063    0.016
 5144.00    0.92280   0.92588    0.016
 5145.00    0.86734   0.92292    0.016
 5146.00    0.78458   0.92790    0.016
 5147.00    0.70070   0.92574    0.016
 5148.00    0.73347   0.92298    0.016
 5149.00    0.76758   0.92548    0.017
 5150.00    0.81741   0.92461    0.017
 5151.00    0.86175   0.92264    0.017
 5152.00    0.81101   0.92269    0.017
 5153.00    0.76124   0.92172    0.017
 5154.00    0.72192   0.91932    0.017
 5155.00    0.69729   0.91616    0.017
 5156.00    0.78333   0.91415    0.017
 5157.00    0.85809   0.91127    0.017
 5158.00    0.86834   0.90488    0.017
 5159.00    0.88032   0.90112    0.017
 5160.00    0.90015   0.89787    0.017
 5161.00    0.92562   0.88886    0.017
 5162.00    0.97215   0.88298    0.017
 5163.00    0.98119   0.88011    0.017
 5164.00    0.87325   0.87124    0.017
 5165.00    0.79293   0.86409    0.017
 5166.00    0.78579   0.86172    0.017
 5167.00    0.77364   0.85594    0.017
 5168.00    0.75013   0.84943    0.017
 5169.00    0.73897   0.84738    0.017
 5170.00    0.75214   0.84591    0.017
 5171.00    0.75507   0.84232    0.017
 5172.00    0.74040   0.84172    0.017
 5173.00    0.75047   0.84429    0.017
 5174.00    0.79771   0.84291    0.017
 5175.00    0.78867   0.84128    0.017
 5176.00    0.70532   0.84629    0.017
 5177.00    0.69482   0.85004    0.017
 5178.00    0.76908   0.84905    0.017
 5179.00    0.80643   0.85218    0.017
 5180.00    0.80592   0.85784    0.017
 5181.00    0.76723   0.85884    0.017
 5182.00    0.69398   0.86055    0.017
 5183.00    0.65496   0.86680    0.016
 5184.00    0.64323   0.86944    0.016
 5185.00    0.63134   0.86993    0.016
 5186.00    0.61933   0.87639    0.016
 5187.00    0.67286   0.88029    0.016
 5188.00    0.76672   0.88089    0.017
 5189.00    0.86176   0.88862    0.017
 5190.00    0.95742   0.89162    0.000
 5191.00    0.94951   0.88891    0.000
 5192.00    0.89324   0.89686    0.000
 5193.00    0.86892   0.90145    0.000
 5194.00    0.85745   0.89553    0.000
 5195.00    0.81980   0.90014    0.000
 5196.00    0.77316   0.90716    0.000
 5197.00    0.71431   0.90155    0.000
 5198.00    0.65193   0.90145    0.000
 5199.00    0.66651   0.90836    0.000
 5200.00    0.69948   0.90508    0.000
 5201.00    0.79061   0.90153    0.000
 5202.00    0.89293   0.90720    0.000
 5203.00    0.86452   0.90720    0.000
 5204.00    0.81655   0.90201    0.000
 5205.00    0.73832   0.90627    0.000
 5206.00    0.65678   0.90984    0.000
 5207.00    0.62623   0.90511    0.000
 5208.00    0.59936   0.90768    0.000
 5209.00    0.73466   0.91377    0.000
 5210.00    0.87601   0.91162    0.000
 5211.00    0.87841   0.91313    0.017
 5212.00    0.87970   0.91878    0.016
 5213.00    0.86386   0.91894    0.016
 5214.00    0.85086   0.92070    0.017
 5215.00    0.88380   0.92468    0.016
 5216.00    0.91891   0.92490    0.016
 5217.00    0.97615   0.92648    0.016
 5218.00    1.02007   0.92888    0.016
 5219.00    0.96717   0.92770    0.017
 5220.00    0.92180   0.92935    0.017
 5221.00    0.91846   0.93237    0.017
 5222.00    0.91975   0.93003    0.016
 5223.00    0.94168   0.93016    0.017
 5224.00    0.94962   0.93451    0.017
 5225.00    0.90647   0.93275    0.017
 5226.00    0.88851   0.93074    0.017
 5227.00    0.94762   0.93676    0.017
 5228.00    0.97785   0.93749    0.017
 5229.00    0.93288   0.93384    0.017
 5230.00    0.89352   0.94080    0.017
 5231.00    0.86671   0.94531    0.017
 5232.00    0.83877   0.94166    0.017
 5233.00    0.80864   0.94629    0.017
 5234.00    0.80214   0.95205    0.017
 5235.00    0.83562   0.94993    0.017
 5236.00    0.86995   0.95138    0.017
 5237.00    0.90556   0.95694    0.017
 5238.00    0.89531   0.95734    0.017
 5239.00    0.82535   0.95593    0.017
 5240.00    0.85092   0.95928    0.017
 5241.00    0.98605   0.96072    0.017
 5242.00    0.99659   0.95724    0.017
 5243.00    0.88110   0.95779    0.016
 5244.00    0.82176   0.96010    0.016
 5245.00    0.81252   0.95642    0.016
 5246.00    0.83647   0.95340    0.017
 5247.00    0.88651   0.95551    0.017
 5248.00    0.87509   0.95327    0.017
 5249.00    0.82117   0.94711    0.017
 5250.00    0.86051   0.94717    0.017
 5251.00    0.95639   0.94650    0.017
 5252.00    0.99670   0.93994    0.017
 5253.00    1.00759   0.93783    0.017
 5254.00    0.92712   0.93666    0.017
 5255.00    0.80470   0.93012    0.016
 5256.00    0.82287   0.92662    0.016
 5257.00    0.89662   0.92494    0.017
 5258.00    0.99184   0.91791    0.017
 5259.00    1.09429   0.91286    0.017
 5260.00    1.05947   0.91301    0.017
 5261.00    0.98579   0.90681    0.017
 5262.00    0.99778   0.89893    0.017
 5263.00    1.02976   0.90102    0.017
 5264.00    0.91971   0.89880    0.017
 5265.00    0.78303   0.88958    0.017
 5266.00    0.73212   0.89278    0.017
 5267.00    0.69364   0.89729    0.017
 5268.00    0.74938   0.88970    0.017
 5269.00    0.81503   0.89164    0.017
 5270.00    0.82576   0.90222    0.017
 5271.00    0.83274   0.89983    0.017
 5272.00    0.80259   0.89898    0.017
 5273.00    0.77119   0.91111    0.017
 5274.00    0.79010   0.91592    0.017
 5275.00    0.80976   0.91572    0.017
 5276.00    0.85176   0.92526    0.017
 5277.00    0.89260   0.93232    0.017
 5278.00    0.91593   0.93380    0.017
 5279.00    0.92868   0.94078    0.017
 5280.00    0.83834   0.94794    0.017
 5281.00    0.76881   0.95116    0.017
 5282.00    0.84573   0.95507    0.017
 5283.00    0.90882   0.95927    0.017
 5284.00    0.89693   0.96299    0.017
 5285.00    0.88759   0.96620    0.017
 5286.00    0.88933   0.96764    0.016
 5287.00    0.89296   0.96948    0.016
 5288.00    0.90333   0.97281    0.016
 5289.00    0.91959   0.97378    0.017
 5290.00    0.95351   0.97263    0.017
 5291.00    0.97149   0.97406    0.017
 5292.00    0.94870   0.97542    0.017
 5293.00    0.93872   0.97379    0.017
 5294.00    0.95689   0.97404    0.017
 5295.00    0.93914   0.97571    0.017
 5296.00    0.85284   0.97410    0.017
 5297.00    0.83619   0.97342    0.017
 5298.00    0.93549   0.97657    0.017
 5299.00    0.97654   0.97653    0.017
 5300.00    0.93257   0.97473    0.016
 5301.00    0.90371   0.97840    0.016
 5302.00    0.89423   0.98094    0.016
 5303.00    0.89230   0.97953    0.016
 5304.00    0.89894   0.98165    0.016
 5305.00    0.91413   0.98422    0.016
 5306.00    0.93787   0.98344    0.016
 5307.00    0.96564   0.98450    0.016
 5308.00    0.99696   0.98631    0.016
 5309.00    1.04018   0.98450    0.016
 5310.00    1.09264   0.98325    0.016
 5311.00    1.07802   0.98439    0.016
 5312.00    1.01769   0.98217    0.016
 5313.00    0.99375   0.97803    0.016
 5314.00    0.99154   0.97715    0.016
 5315.00    0.93738   0.97522    0.016
 5316.00    0.85615   0.96972    0.016
 5317.00    0.88505   0.96568    0.016
 5318.00    0.96372   0.96364    0.016
 5319.00    0.94354   0.95937    0.017
 5320.00    0.88497   0.95431    0.016
 5321.00    0.94313   0.95221    0.017
 5322.00    1.03988   0.94943    0.017
 5323.00    1.00145   0.94396    0.016
 5324.00    0.92554   0.94197    0.016
 5325.00    0.88604   0.94210    0.016
 5326.00    0.85485   0.93788    0.016
 5327.00    0.86108   0.93516    0.016
 5328.00    0.87415   0.93763    0.016
 5329.00    0.85591   0.93663    0.016
 5330.00    0.83328   0.93396    0.016
 5331.00    0.90784   0.93659    0.016
 5332.00    0.99221   0.93859    0.016
 5333.00    0.92018   0.93933    0.016
 5334.00    0.83812   0.94161    0.017
 5335.00    0.89535   0.94235    0.016
 5336.00    0.95663   0.94393    0.016
 5337.00    0.98140   0.94756    0.016
 5338.00    1.00561   0.94862    0.016
 5339.00    1.01373   0.94886    0.016
 5340.00    1.01758   0.95297    0.016
 5341.00    0.96021   0.95593    0.016
 5342.00    0.89975   0.95525    0.016
 5343.00    0.81048   0.95902    0.016
 5344.00    0.75017   0.96344    0.016
 5345.00    0.88742   0.96323    0.016
 5346.00    0.98459   0.96691    0.016
 5347.00    0.87016   0.97124    0.016
 5348.00    0.78866   0.97083    0.016
 5349.00    0.84699   0.97367    0.016
 5350.00    0.90766   0.97816    0.016
 5351.00    0.97657   0.97820    0.016
 5352.00    1.01969   0.97901    0.016
 5353.00    0.98679   0.98256    0.016
 5354.00    0.95696   0.98334    0.016
 5355.00    0.93490   0.98246    0.016
 5356.00    0.92427   0.98347    0.016
 5357.00    0.93839   0.98342    0.016
 5358.00    0.94469   0.98187    0.016
 5359.00    0.93628   0.98078    0.016
 5360.00    0.93439   0.97848    0.016
 5361.00    0.94320   0.97635    0.016
 5362.00    0.96396   0.97542    0.016
 5363.00    1.00191   0.97213    0.016
 5364.00    1.01701   0.96940    0.016
 5365.00    1.00318   0.96913    0.016
 5366.00    0.97116   0.96598    0.016
 5367.00    0.91886   0.96351    0.016
 5368.00    0.92413   0.96434   -2.000
 5369.00    0.98603   0.96199   -2.000
 5370.00    1.00056   0.95965   -2.000
 5371.00    0.97403   0.96165   -2.000
 5372.00    0.91665   0.96110   -2.000
 5373.00    0.83573   0.95857   -2.000
 5374.00    0.81635   0.96107   -2.000
 5375.00    0.83831   0.96260   -2.000
 5376.00    0.85376   0.96019   -2.000
 5377.00    0.86538   0.96211   -2.000
 5378.00    0.87062   0.96366   -2.000
 5379.00    0.87261   0.96003   -2.000
 5380.00    0.84194   0.96050   -2.000
 5381.00    0.79677   0.96261   -2.000
 5382.00    0.83490   0.95821   -2.000
 5383.00    0.90481   0.95571    0.016
 5384.00    0.93694   0.95808    0.016
 5385.00    0.95680   0.95409    0.016
 5386.00    0.98679   0.94833    0.016
 5387.00    1.01953   0.95016    0.016
 5388.00    1.01400   0.94806    0.016
 5389.00    0.99995   0.93973    0.016
 5390.00    0.95690   0.93887    0.016
 5391.00    0.90870   0.93977    0.016
 5392.00    0.95180   0.93214    0.016
 5393.00    1.00729   0.92743    0.016
 5394.00    0.96829   0.92977    0.016
 5395.00    0.92017   0.92544    0.016
 5396.00    0.87781   0.91824    0.016
 5397.00    0.83580   0.92038    0.016
 5398.00    0.84945   0.92023    0.016
 5399.00    0.86440   0.91294    0.016
 5400.00    0.85615   0.91342    0.016
 5401.00    0.84692   0.91714    0.016
 5402.00    0.81271   0.91302    0.016
 5403.00    0.78486   0.91119    0.016
 5404.00    0.84320   0.91561    0.016
 5405.00    0.89996   0.91584    0.016
 5406.00    0.94264   0.91424    0.016
 5407.00    0.97120   0.91793    0.016
 5408.00    0.90647   0.92070    0.016
 5409.00    0.84751   0.92045    0.016
 5410.00    0.81822   0.92424    0.016
 5411.00    0.80495   0.92884    0.016
 5412.00    0.85817   0.92893    0.016
 5413.00    0.91995   0.93069    0.016
 5414.00    1.01110   0.93569    0.016
 5415.00    1.07835   0.93761    0.016
 5416.00    1.07642   0.93780    0.016
 5417.00    1.05657   0.94040    0.016
 5418.00    0.99244   0.94194    0.016
 5419.00    0.97022   0.94207    0.015
 5420.00    1.03725   0.94401    0.016
 5421.00    1.05733   0.94405    0.016
 5422.00    0.99059   0.94205    0.016
 5423.00    0.94752   0.94305    0.015
 5424.00    0.94270   0.94390    0.015
 5425.00    0.95113   0.94153    0.016
 5426.00    0.97832   0.94106    0.016
 5427.00    0.97829   0.94240    0.016
 5428.00    0.94430   0.93954    0.016
 5429.00    0.92902   0.93877    0.016
 5430.00    0.93428   0.94241    0.016
 5431.00    0.89163   0.93997    0.016
 5432.00    0.80252   0.93719    0.016
 5433.00    0.83179   0.94108    0.016
 5434.00    0.96227   0.94216    0.016
 5435.00    1.01178   0.93925    0.016
 5436.00    1.00032   0.94029    0.016
 5437.00    0.93955   0.94327    0.016
 5438.00    0.84616   0.94137    0.016
 5439.00    0.89522   0.94041    0.016
 5440.00    1.02680   0.94409    0.016
 5441.00    1.01382   0.94368    0.016
 5442.00    0.92787   0.94134    0.016
 5443.00    0.95350   0.94274    0.016
 5444.00    1.02790   0.94279    0.016
 5445.00    1.04036   0.94011    0.016
 5446.00    1.02958   0.93965    0.016
 5447.00    1.00751   0.93995    0.016
 5448.00    0.98185   0.93733    0.016
 5449.00    0.88988   0.93624    0.016
 5450.00    0.78029   0.93793    0.016
 5451.00    0.86849   0.93630    0.016
 5452.00    0.99970   0.93398    0.016
 5453.00    1.00010   0.93542    0.016
 5454.00    0.97789   0.93425    0.016
 5455.00    0.95529   0.93038    0.016
 5456.00    0.93263   0.93209    0.016
 5457.00    0.87162   0.93391    0.016
 5458.00    0.80707   0.92961    0.015
 5459.00    0.84995   0.92853    0.015
 5460.00    0.89885   0.93314    0.015
 5461.00    0.94780   0.93156    0.016
 5462.00    0.99491   0.92573    0.016
 5463.00    0.85199   0.92868    0.015
 5464.00    0.72055   0.93141    0.015
 5465.00    0.85837   0.92390    0.015
 5466.00    0.98509   0.92269    0.015
 5467.00    0.96913   0.92928    0.015
 5468.00    0.94821   0.92473    0.015
 5469.00    0.88431   0.91735    0.015
 5470.00    0.83268   0.92277    0.015
 5471.00    0.85961   0.92542    0.015
 5472.00    0.87493   0.91632    0.016
 5473.00    0.83209   0.91565    0.015
 5474.00    0.81454   0.92294    0.015
 5475.00    0.89968   0.91763    0.015
 5476.00    0.95449   0.91212    0.015
 5477.00    0.90725   0.92008    0.016
 5478.00    0.87182   0.92144   -2.000
 5479.00    0.86995   0.91330   -2.000
 5480.00    0.88872   0.91628   -2.000
 5481.00    0.95756   0.92409   -2.000
 5482.00    0.98787   0.91936   -2.000
 5483.00    0.93748   0.91655   -2.000
 5484.00    0.95443   0.92492   -2.000
 5485.00    1.09402   0.92501   -2.000
 5486.00    1.04369   0.91937   -2.000
 5487.00    0.69106   0.92498   -2.000
 5488.00    0.56444   0.92974   -2.000
 5489.00    0.75355   0.92352   -2.000
 5490.00    0.74885   0.92341   -2.000
 5491.00    0.50589   0.93061   -2.000
 5492.00    0.79843   0.92787   -2.000
 5493.00    1.67131   0.92354   -2.000
 5494.00    1.76271   0.92822   -2.000
 5495.00    1.10709   0.92861   -2.000
 5496.00    0.80599   0.92342   -2.000
 5497.00    0.80371   0.92481   -2.000
 5498.00    0.83661   0.92675   -2.000
 5499.00    0.89562   0.92263   -2.000
 5500.00    0.95823   0.92165   -2.000
 5501.00    1.02318   0.92365   -2.000
 5502.00    0.98088   0.92164    0.016
 5503.00    0.87737   0.91977    0.016
 5504.00    0.86284   0.92021    0.015
 5505.00    0.89252   0.91882    0.015
 5506.00    0.90992   0.91787    0.015
 5507.00    0.92206   0.91939    0.015
 5508.00    0.96829   0.91851    0.015
 5509.00    1.02708   0.91725    0.015
 5510.00    1.05378   0.91952    0.015
 5511.00    1.07046   0.92007    0.015
 5512.00    1.03775   0.91872    0.015
 5513.00    0.99218   0.91997    0.015
 5514.00    0.95526   0.92166    0.015
 5515.00    0.92017   0.92134    0.015
 5516.00    0.95434   0.92156    0.015
 5517.00    1.00015   0.92356    0.015
 5518.00    1.02516   0.92487    0.015
 5519.00    1.04753   0.92437    0.015
 5520.00    0.90111   0.92394    0.015
 5521.00    0.73980   0.92552    0.015
 5522.00    0.72402   0.92716    0.015
 5523.00    0.71584   0.92612    0.015
 5524.00    0.87572   0.92561    0.015
 5525.00    1.03662   0.92805    0.015
 5526.00    1.03807   0.92817    0.015
 5527.00    1.03488   0.92551    0.015
 5528.00    0.93180   0.92734    0.015
 5529.00    0.84203   0.93012    0.015
 5530.00    0.91478   0.92760    0.015
 5531.00    0.97225   0.92700    0.015
 5532.00    0.90238   0.93111    0.015
 5533.00    0.84418   0.93213    0.015
 5534.00    0.85862   0.92976    0.016
 5535.00    0.87275   0.93135    0.016
 5536.00    0.88532   0.93467    0.016
 5537.00    0.89732   0.93362    0.015
 5538.00    0.90703   0.93311    0.016
 5539.00    0.92086   0.93644    0.016
 5540.00    0.94832   0.93840    0.016
 5541.00    0.96079   0.93733    0.016
 5542.00    0.93149   0.93770    0.016
 5543.00    0.89927   0.94054    0.016
 5544.00    0.86010   0.94086    0.016
 5545.00    0.84325   0.93900    0.016
 5546.00    0.87241   0.93996    0.016
 5547.00    0.88349   0.94176    0.016
 5548.00    0.86217   0.94050    0.016
 5549.00    0.86975   0.93923    0.016
 5550.00    0.92266   0.94038    0.016
 5551.00    0.95855   0.94000    0.015
 5552.00    0.97099   0.93757    0.015
 5553.00    0.97770   0.93708    0.015
 5554.00    0.97746   0.93642    0.015
 5555.00    0.92628   0.93405    0.015
 5556.00    0.82068   0.93332    0.015
 5557.00    0.80713   0.93209    0.015
 5558.00    0.88033   0.92926    0.015
 5559.00    0.92713   0.92883    0.015
 5560.00    0.95198   0.92846    0.015
 5561.00    0.95078   0.92433    0.015
 5562.00    0.93052   0.92283    0.015
 5563.00    0.91980   0.92513    0.015
 5564.00    0.91521   0.92132    0.015
 5565.00    0.90401   0.91703    0.015
 5566.00    0.88910   0.92072    0.015
 5567.00    0.88010   0.92041    0.014
 5568.00    0.87398   0.91415    0.014
 5569.00    0.87126   0.91556    0.015
 5570.00    0.86997   0.91916    0.015
 5571.00    0.86504   0.91354    0.015
 5572.00    0.85878   0.91068    0.015
 5573.00    0.90166   0.91555    0.015
 5574.00    0.95957   0.91323    0.015
 5575.00    0.94094   0.90762    0.015
 5576.00    0.90282   0.91010    0.015
 5577.00    0.92453   0.91106    0.015
 5578.00    0.95862   0.90535    0.015
 5579.00    0.97327   0.90354    0.015
 5580.00    0.98476   0.90524    0.015
 5581.00    0.98002   0.90195    0.015
 5582.00    0.97330   0.89843    0.015
 5583.00    0.90423   0.89867    0.016
 5584.00    0.82991   0.89757    0.016
 5585.00    0.85291   0.89477    0.016
 5586.00    0.88062   0.89281    0.016
 5587.00    0.81922   0.89225    0.016
 5588.00    0.75837   0.89206    0.015
 5589.00    0.80947   0.89075    0.016
 5590.00    0.85925   0.88923    0.016
 5591.00    0.88292   0.89039    0.016
 5592.00    0.90040   0.89192    0.016
 5593.00    0.84591   0.89018    0.016
 5594.00    0.79739   0.89050    0.015
 5595.00    0.79691   0.89408    0.016
 5596.00    0.80006   0.89430    0.016
 5597.00    0.82511   0.89348    0.015
 5598.00    0.84172   0.89761    0.015
 5599.00    0.81807   0.90093    0.015
 5600.00    0.80573   0.89914    0.015
 5601.00    0.83729   0.90061    0.015
 5602.00    0.86268   0.90529    0.015
 5603.00    0.86810   0.90534    0.015
 5604.00    0.88198   0.90473    0.015
 5605.00    0.91907   0.90873    0.015
 5606.00    0.93453   0.91070    0.015
 5607.00    0.89925   0.90792    0.015
 5608.00    0.87127   0.90909    0.015
 5609.00    0.85809   0.91192    0.014
 5610.00    0.84089   0.90958    0.014
 5611.00    0.81657   0.90819    0.014
 5612.00    0.80817   0.91040    0.014
 5613.00    0.82439   0.91005    0.014
 5614.00    0.87296   0.90732    0.014
 5615.00    0.96545   0.90794    0.014
 5616.00    0.97417   0.90825    0.014
 5617.00    0.88282   0.90524    0.014
 5618.00    0.83084   0.90486    0.014
 5619.00    0.82034   0.90588    0.014
 5620.00    0.84629   0.90475    0.014
 5621.00    0.90611   0.90451    0.015
 5622.00    0.89652   0.90526    0.015
 5623.00    0.83008   0.90429    0.014
 5624.00    0.78863   0.90372    0.015
 5625.00    0.76520   0.90508    0.015
 5626.00    0.79909   0.90457    0.015
 5627.00    0.86925   0.90396    0.015
 5628.00    0.89462   0.90584    0.015
 5629.00    0.89522   0.90565    0.015
 5630.00    0.88564   0.90440    0.015
 5631.00    0.87116   0.90593    0.015
 5632.00    0.86552   0.90655    0.015
 5633.00    0.86355   0.90436    0.015
 5634.00    0.85554   0.90466    0.015
 5635.00    0.84537   0.90628    0.015
 5636.00    0.86991   0.90427    0.015
 5637.00    0.90487   0.90354    0.015
 5638.00    0.86403   0.90556    0.014
 5639.00    0.80432   0.90428    0.014
 5640.00    0.88161   0.90198    0.014
 5641.00    0.98658   0.90371    0.014
 5642.00    0.98112   0.90418    0.014
 5643.00    0.95816   0.90058    0.014
 5644.00    0.95545   0.90100    0.014
 5645.00    0.95511   0.90354    0.014
 5646.00    0.94637   0.90035    0.014
 5647.00    0.93695   0.89786    0.014
 5648.00    0.91588   0.90121    0.014
 5649.00    0.89429   0.90084    0.014
 5650.00    0.85935   0.89527    0.014
 5651.00    0.82433   0.89644    0.014
 5652.00    0.79284   0.90009    0.014
 5653.00    0.76419   0.89535    0.014
 5654.00    0.78799   0.89213    0.014
 5655.00    0.81467   0.89698    0.014
 5656.00    0.87329   0.89702    0.014
 5657.00    0.92509   0.89108    0.014
 5658.00    0.92400   0.89297    0.014
 5659.00    0.91626   0.89763    0.014
 5660.00    0.86942   0.89395    0.014
 5661.00    0.83021   0.89210    0.014
 5662.00    0.82654   0.89732    0.014
 5663.00    0.82338   0.89823    0.014
 5664.00    0.82219   0.89529    0.014
 5665.00    0.82586   0.89833    0.014
 5666.00    0.84492   0.90193    0.014
 5667.00    0.86896   0.90008    0.014
 5668.00    0.90638   0.90102    0.014
 5669.00    0.93020   0.90518    0.014
 5670.00    0.92265   0.90484    0.014
 5671.00    0.93524   0.90387    0.014
 5672.00    0.98805   0.90740    0.015
 5673.00    1.00205   0.90880    0.015
 5674.00    0.94854   0.90632    0.015
 5675.00    0.90387   0.90758    0.015
 5676.00    0.87265   0.91040    0.015
 5677.00    0.88184   0.90851    0.014
 5678.00    0.94509   0.90676    0.015
 5679.00    0.94181   0.90893    0.015
 5680.00    0.86017   0.90941    0.015
 5681.00    0.81672   0.90672    0.014
 5682.00    0.81293   0.90628    0.014
 5683.00    0.83095   0.90743    0.014
 5684.00    0.86896   0.90647    0.014
 5685.00    0.87991   0.90492    0.014
 5686.00    0.86901   0.90434    0.013
 5687.00    0.84743   0.90445    0.013
 5688.00    0.81824   0.90400    0.014
 5689.00    0.81880   0.90225    0.013
 5690.00    0.83790   0.90048    0.013
 5691.00    0.84940   0.90098    0.013
 5692.00    0.85675   0.90096    0.014
 5693.00    0.84572   0.89731    0.014
 5694.00    0.82599   0.89572    0.013
 5695.00    0.83038   0.89729    0.014
 5696.00    0.84462   0.89497    0.014
 5697.00    0.82938   0.89028    0.014
 5698.00    0.80385   0.89099    0.014
 5699.00    0.80454   0.89221    0.014
 5700.00    0.81295   0.88734    0.014
 5701.00    0.81418   0.88478    0.014
 5702.00    0.81367   0.88758    0.014
 5703.00    0.80769   0.88621    0.014
 5704.00    0.80063   0.88187    0.014
 5705.00    0.80738   0.88368    0.014
 5706.00    0.81624   0.88640    0.014
 5707.00    0.84710   0.88370    0.014
 5708.00    0.88045   0.88323    0.014
 5709.00    0.87828   0.88743    0.014
 5710.00    0.87341   0.88853    0.014
 5711.00    0.83193   0.88749    0.014
 5712.00    0.78895   0.89068    0.014
 5713.00    0.78000   0.89454    0.014
 5714.00    0.77269   0.89530    0.014
 5715.00    0.82210   0.89673    0.014
 5716.00    0.86928   0.90036    0.014
 5717.00    0.87826   0.90337    0.014
 5718.00    0.88847   0.90465    0.014
 5719.00    0.91162   0.90606    0.014
 5720.00    0.93307   0.90893    0.014
 5721.00    0.94182   0.91175    0.014
 5722.00    0.94031   0.91220    0.014
 5723.00    0.88029   0.91266    0.013
 5724.00    0.83329   0.91571    0.013
 5725.00    0.84549   0.91737    0.013
 5726.00    0.85052   0.91575    0.013
 5727.00    0.82892   0.91643    0.013
 5728.00    0.81865   0.91940    0.013
 5729.00    0.84367   0.91885    0.013
 5730.00    0.86016   0.91712    0.013
 5731.00    0.85412   0.91877    0.013
 5732.00    0.85368   0.92010    0.013
 5733.00    0.86598   0.91817    0.013
 5734.00    0.88022   0.91761    0.013
 5735.00    0.89828   0.91898    0.013
 5736.00    0.91168   0.91844    0.013
 5737.00    0.91709   0.91727    0.013
 5738.00    0.91537   0.91747    0.013
 5739.00    0.90295   0.91751    0.013
 5740.00    0.89422   0.91649    0.000
 5741.00    0.89033   0.91609    0.000
 5742.00    0.89915   0.91552    0.000
 5743.00    0.92272   0.91442    0.000
 5744.00    0.90407   0.91438    0.000
 5745.00    0.84217   0.91437    0.000
 5746.00    0.83189   0.91315    0.000
 5747.00    0.86821   0.91208    0.000
 5748.00    0.90451   0.91217    0.000
 5749.00    0.94078   0.91137    0.000
 5750.00    0.94493   0.91000    0.000
 5751.00    0.92658   0.91016    0.000
 5752.00    0.89084   0.91083    0.000
 5753.00    0.84441   0.90997    0.000
 5754.00    0.83846   0.90872    0.000
 5755.00    0.85423   0.90911    0.000
 5756.00    0.83448   0.90957    0.000
 5757.00    0.79819   0.90886    0.000
 5758.00    0.82054   0.90856    0.000
 5759.00    0.86642   0.90985    0.000
 5760.00    0.85355   0.91015    0.000
 5761.00    0.82056   0.90891    0.000
 5762.00    0.81064   0.90873    0.000
 5763.00    0.80736   0.90990    0.000
 5764.00    0.84133   0.90984    0.000
 5765.00    0.88416   0.90848    0.000
 5766.00    0.91281   0.90859    0.000
 5767.00    0.93874   0.90902    0.000
 5768.00    0.92120   0.90767    0.000
 5769.00    0.89719   0.90540    0.000
 5770.00    0.86093   0.90521    0.000
 5771.00    0.82333   0.90540    0.000
 5772.00    0.84571   0.90289    0.000
 5773.00    0.87239   0.90016    0.000
 5774.00    0.89670   0.89997    0.000
 5775.00    0.92093   0.89932    0.000
 5776.00    0.90643   0.89549    0.000
 5777.00    0.89222   0.89384    0.000
 5778.00    0.89431   0.89474    0.000
 5779.00    0.89319   0.89270    0.000
 5780.00    0.84029   0.88932    0.000
 5781.00    0.79421   0.88986    0.000
 5782.00    0.81722   0.89101    0.000
 5783.00    0.83924   0.88888    0.000
 5784.00    0.85401   0.88858    0.000
 5785.00    0.86586   0.89024    0.000
 5786.00    0.86146   0.88991    0.000
 5787.00    0.85062   0.88992    0.000
 5788.00    0.81118   0.89243    0.000
 5789.00    0.78423   0.89373    0.000
 5790.00    0.80282   0.89423    0.000
 5791.00    0.82250   0.89702   -2.000
 5792.00    0.84549   0.89827   -2.000
 5793.00    0.87011   0.89786   -2.000
 5794.00    0.89897   0.90100   -2.000
 5795.00    0.89745   0.90473   -2.000
 5796.00    0.82812   0.90397   -2.000
 5797.00    0.79807   0.90425   -2.000
 5798.00    0.84402   0.90849   -2.000
 5799.00    0.86309   0.90931   -2.000
 5800.00    0.83680   0.90735   -2.000
 5801.00    0.84338   0.91004   -2.000
 5802.00    0.89856   0.91366   -2.000
 5803.00    0.92333   0.91181   -2.000
 5804.00    0.90858   0.91023   -2.000
 5805.00    0.89551   0.91359   -2.000
 5806.00    0.88435   0.91531   -2.000
 5807.00    0.88844   0.91301   -2.000
 5808.00    0.90794   0.91339   -2.000
 5809.00    0.88868   0.91650   -2.000
 5810.00    0.83493   0.91601   -2.000
 5811.00    0.79503   0.91362    0.000
 5812.00    0.76601   0.91521    0.000
 5813.00    0.76891   0.91829    0.000
 5814.00    0.79383   0.91732    0.000
 5815.00    0.81780   0.91583    0.000
 5816.00    0.84121   0.91802    0.000
 5817.00    0.88374   0.91989    0.000
 5818.00    0.93637   0.91821    0.000
 5819.00    0.92008   0.91771    0.000
 5820.00    0.87221   0.92079    0.000
 5821.00    0.88776   0.92165    0.000
 5822.00    0.92833   0.91930    0.000
 5823.00    0.93037   0.91948    0.000
 5824.00    0.91948   0.92255    0.000
 5825.00    0.89832   0.92229    0.000
 5826.00    0.87428   0.91972    0.000
 5827.00    0.88445   0.92091    0.000
 5828.00    0.90258   0.92307    0.000
 5829.00    0.91017   0.92109    0.000
 5830.00    0.91578   0.91889    0.000
 5831.00    0.91179   0.92108    0.000
 5832.00    0.90641   0.92204    0.000
 5833.00    0.90501   0.91865    0.000
 5834.00    0.90402   0.91727    0.000
 5835.00    0.88894   0.91919    0.000
 5836.00    0.87291   0.91833    0.000
 5837.00    0.87354   0.91480    0.000
 5838.00    0.87472   0.91456    0.000
 5839.00    0.86922   0.91551    0.000
 5840.00    0.86286   0.91268    0.000
 5841.00    0.82959   0.90921    0.000
 5842.00    0.79998   0.90917    0.000
 5843.00    0.82583   0.90900    0.000
 5844.00    0.84736   0.90551    0.000
 5845.00    0.82689   0.90262    0.000
 5846.00    0.80871   0.90218    0.000
 5847.00    0.80653   0.90056    0.000
 5848.00    0.80989   0.89688    0.000
 5849.00    0.84327   0.89514    0.000
 5850.00    0.87095   0.89491    0.000
 5851.00    0.87388   0.89261    0.000
 5852.00    0.87359   0.88941    0.000
 5853.00    0.86175   0.88830    0.000
 5854.00    0.84802   0.88794    0.000
 5855.00    0.82860   0.88621    0.000
 5856.00    0.81496   0.88511    0.000
 5857.00    0.81606   0.88467    0.000
 5858.00    0.82632   0.88386    0.000
 5859.00    0.85668   0.88314    0.000
 5860.00    0.87884   0.88308    0.000
 5861.00    0.88539   0.88261    0.000
 5862.00    0.87341   0.88222    0.000
 5863.00    0.83063   0.88278    0.000
 5864.00    0.80891   0.88232    0.000
 5865.00    0.81788   0.88139    0.000
 5866.00    0.82583   0.88168    0.000
 5867.00    0.83246   0.88162    0.000
 5868.00    0.83073   0.87972    0.000
 5869.00    0.81956   0.87854    0.000
 5870.00    0.81370   0.87842    0.000
 5871.00    0.81314   0.87620    0.000
 5872.00    0.81237   0.87301    0.000
 5873.00    0.81142   0.87121    0.000
 5874.00    0.79141   0.86869    0.000
 5875.00    0.75667   0.86469    0.000
 5876.00    0.74787   0.86105    0.000
 5877.00    0.75673   0.85712    0.000
 5878.00    0.75373   0.85163    0.000
 5879.00    0.74366   0.84676    0.000
 5880.00    0.76088   0.84207    0.000
 5881.00    0.79230   0.83671    0.000
 5882.00    0.80843   0.83270    0.000
 5883.00    0.81766   0.82751    0.000
 5884.00    0.84003   0.81916    0.000
 5885.00    0.86749   0.81334    0.000
 5886.00    0.83790   0.81252    0.000
 5887.00    0.78949   0.80845    0.000
 5888.00    0.75118   0.80266    0.000
 5889.00    0.71566   0.80256    0.000
 5890.00    0.70417   0.80094    0.000
 5891.00    0.69814   0.79451    0.000
 5892.00    0.72134   0.79506    0.000
 5893.00    0.74985   0.80168    0.000
 5894.00    0.79200   0.80063    0.000
 5895.00    0.83605   0.79756    0.000
 5896.00    0.83801   0.80355    0.000
 5897.00    0.83575   0.80936    0.000
 5898.00    0.78886   0.80864    0.000
 5899.00    0.73912   0.81320    0.000
 5900.00    0.74284   0.82286    0.000
 5901.00    0.74815   0.82466    0.012
 5902.00    0.75877   0.82421    0.012
 5903.00    0.77049   0.83237    0.012
 5904.00    0.81312   0.83997    0.012
 5905.00    0.85279   0.84049    0.012
 5906.00    0.85036   0.84381    0.012
 5907.00    0.84613   0.85114    0.012
 5908.00    0.82518   0.85346    0.012
 5909.00    0.80980   0.85298    0.012
 5910.00    0.83234   0.85739    0.012
 5911.00    0.85245   0.86191    0.012
 5912.00    0.85972   0.86228    0.012
 5913.00    0.86214   0.86288    0.012
 5914.00    0.84403   0.86582    0.012
 5915.00    0.83138   0.86781    0.012
 5916.00    0.83786   0.86776    0.012
 5917.00    0.83288   0.86826    0.012
 5918.00    0.79422   0.86954    0.012
 5919.00    0.76295   0.87075    0.012
 5920.00    0.75020   0.87095    0.012
 5921.00    0.74472   0.87083    0.012
 5922.00    0.75495   0.87133    0.012
 5923.00    0.76365   0.87276    0.012
 5924.00    0.76947   0.87288    0.012
 5925.00    0.77142   0.87117    0.012
 5926.00    0.76703   0.87204    0.012
 5927.00    0.76810   0.87456    0.012
 5928.00    0.77701   0.87378    0.012
 5929.00    0.78576   0.87104    0.012
 5930.00    0.79431   0.87235    0.012
 5931.00    0.81185   0.87514    0.012
 5932.00    0.83939   0.87306    0.012
 5933.00    0.83996   0.87086    0.012
 5934.00    0.81406   0.87388    0.012
 5935.00    0.80350   0.87539    0.012
 5936.00    0.80621   0.87099    0.012
 5937.00    0.82489   0.86994    0.012
 5938.00    0.85574   0.87450    0.012
 5939.00    0.86316   0.87452    0.012
 5940.00    0.85488   0.86981    0.012
 5941.00    0.84271   0.87044    0.012
 5942.00    0.82826   0.87462    0.012
 5943.00    0.81512   0.87219    0.012
 5944.00    0.80266   0.86810    0.012
 5945.00    0.78973   0.87130    0.012
 5946.00    0.77658   0.87465    0.012
 5947.00    0.76399   0.87045    0.012
 5948.00    0.75161   0.86766    0.012
 5949.00    0.80018   0.87201    0.013
 5950.00    0.86847   0.87386    0.014
 5951.00    0.91895   0.87003    0.014
 5952.00    0.96461   0.86962    0.014
 5953.00    0.95724   0.87353    0.014
 5954.00    0.93810   0.87337    0.014
 5955.00    0.91339   0.87081    0.013
 5956.00    0.88769   0.87251    0.012
 5957.00    0.88997   0.87559    0.012
 5958.00    0.89604   0.87469    0.012
 5959.00    0.84124   0.87346    0.012
 5960.00    0.78059   0.87511    0.012
 5961.00    0.79990   0.87655    0.012
 5962.00    0.82398   0.87632    0.012
 5963.00    0.85622   0.87619    0.012
 5964.00    0.88852   0.87679    0.012
 5965.00    0.89703   0.87728    0.012
 5966.00    0.90669   0.87756    0.012
 5967.00    0.94573   0.87706    0.012
 5968.00    0.97937   0.87649    0.012
 5969.00    0.94042   0.87689    0.012
 5970.00    0.90278   0.87701    0.012
 5971.00    0.87699   0.87522    0.012
 5972.00    0.85306   0.87400    0.012
 5973.00    0.84133   0.87482    0.012
 5974.00    0.82403   0.87453    0.012
 5975.00    0.77819   0.87216    0.012
 5976.00    0.73928   0.87154    0.012
 5977.00    0.72907   0.87285    0.012
 5978.00    0.72709   0.87138    0.012
 5979.00    0.75334   0.86815    0.012
 5980.00    0.78057   0.86872    0.012
 5981.00    0.81063   0.87064    0.012
 5982.00    0.82491   0.86833    0.012
 5983.00    0.80032   0.86575    0.012
 5984.00    0.77862   0.86771    0.012
 5985.00    0.76307   0.86928    0.012
 5986.00    0.75741   0.86617    0.012
 5987.00    0.77001   0.86469    0.012
 5988.00    0.78566   0.86771    0.012
 5989.00    0.80622   0.86811    0.012
 5990.00    0.81752   0.86470    0.012
 5991.00    0.81573   0.86462    0.012
 5992.00    0.82125   0.86690    0.012
 5993.00    0.83587   0.86561    0.012
 5994.00    0.86119   0.86332    0.012
 5995.00    0.89823   0.86461    0.012
 5996.00    0.88361   0.86573    0.012
 5997.00    0.81898   0.86304    0.012
 5998.00    0.78205   0.86128    0.012
 5999.00    0.76876   0.86264    0.012
 6000.00    0.77724   0.86242    0.012
 6001.00    0.80209   0.86055    0.012
 6002.00    0.78490   0.86020    0.012
 6003.00    0.73995   0.85929    0.012
 6004.00    0.73258   0.85736    0.012
 6005.00    0.74694   0.85783    0.012
 6006.00    0.78281   0.85915    0.012
 6007.00    0.82951   0.85703    0.012
 6008.00    0.81142   0.85427    0.012
 6009.00    0.76507   0.85594    0.012
 6010.00    0.75215   0.85748    0.012
 6011.00    0.75173   0.85439    0.012
 6012.00    0.75237   0.85359    0.012
 6013.00    0.75334   0.85707    0.012
 6014.00    0.78092   0.85654    0.012
 6015.00    0.81556   0.85287    0.012
 6016.00    0.82838   0.85529    0.012
 6017.00    0.83646   0.85978    0.012
 6018.00    0.82608   0.85790    0.012
 6019.00    0.81252   0.85508    0.012
 6020.00    0.83139   0.85939    0.012
 6021.00    0.85450   0.86335    0.012
 6022.00    0.85920   0.86050    0.012
 6023.00    0.86221   0.86038    0.012
 6024.00    0.83920   0.86576    0.012
 6025.00    0.81474   0.86757    0.012
 6026.00    0.80381   0.86494    0.012
 6027.00    0.79357   0.86720    0.012
 6028.00    0.82343   0.87199    0.012
 6029.00    0.85223   0.87206    0.012
 6030.00    0.85640   0.87074    0.012
 6031.00    0.85853   0.87394    0.012
 6032.00    0.83452   0.87708    0.012
 6033.00    0.81269   0.87591    0.012
 6034.00    0.80970   0.87609    0.012
 6035.00    0.81177   0.87913    0.012
 6036.00    0.84627   0.88024    0.012
 6037.00    0.87159   0.87873    0.012
 6038.00    0.85112   0.87985    0.012
 6039.00    0.83556   0.88210    0.012
 6040.00    0.83990   0.88157    0.012
 6041.00    0.84020   0.88051    0.012
 6042.00    0.82696   0.88180    0.012
 6043.00    0.81414   0.88266    0.012
 6044.00    0.80255   0.88113    0.011
 6045.00    0.80130   0.88062    0.012
 6046.00    0.82509   0.88179    0.012
 6047.00    0.83807   0.88143    0.012
 6048.00    0.82844   0.87947    0.012
 6049.00    0.81856   0.87923    0.012
 6050.00    0.80823   0.88022    0.012
 6051.00    0.80023   0.87914    0.012
 6052.00    0.79596   0.87738    0.012
 6053.00    0.78604   0.87728    0.012
 6054.00    0.76826   0.87797    0.012
 6055.00    0.75501   0.87696    0.012
 6056.00    0.74733   0.87530    0.012
 6057.00    0.76119   0.87537    0.012
 6058.00    0.79836   0.87619    0.012
 6059.00    0.82454   0.87546    0.012
 6060.00    0.84024   0.87362    0.012
 6061.00    0.83011   0.87395    0.012
 6062.00    0.79823   0.87520    0.012
 6063.00    0.78826   0.87481    0.012
 6064.00    0.79453   0.87359    0.012
 6065.00    0.80603   0.87387    0.012
 6066.00    0.82093   0.87457    0.012
 6067.00    0.84103   0.87425    0.012
 6068.00    0.86410   0.87360    0.012
 6069.00    0.85408   0.87318    0.012
 6070.00    0.82764   0.87311    0.011
 6071.00    0.82593   0.87307    0.011
 6072.00    0.83483   0.87236    0.012
 6073.00    0.80771   0.87053    0.012
 6074.00    0.76736   0.87019    0.012
 6075.00    0.72511   0.87146    0.012
 6076.00    0.68227   0.86975    0.011
 6077.00    0.66978   0.86605    0.011
 6078.00    0.66517   0.86637    0.011
 6079.00    0.71404   0.86837    0.012
 6080.00    0.77424   0.86538    0.012
 6081.00    0.83203   0.86132    0.012
 6082.00    0.88941   0.86268    0.012
 6083.00    0.89876   0.86435    0.012
 6084.00    0.90205   0.86038    0.012
 6085.00    0.84230   0.85722    0.012
 6086.00    0.77702   0.85982    0.012
 6087.00    0.77860   0.86055    0.012
 6088.00    0.78363   0.85625    0.012
 6089.00    0.79134   0.85470    0.012
 6090.00    0.79843   0.85755    0.012
 6091.00    0.75617   0.85760    0.012
 6092.00    0.71575   0.85437    0.012
 6093.00    0.71444   0.85328    0.012
 6094.00    0.71364   0.85480    0.012
 6095.00    0.71897   0.85541    0.011
 6096.00    0.72376   0.85415    0.011
 6097.00    0.72412   0.85280    0.011
 6098.00    0.72568   0.85255    0.012
 6099.00    0.73460   0.85347    0.011
 6100.00    0.74296   0.85400    0.011
 6101.00    0.74857   0.85331    0.012
 6102.00    0.75648   0.85227    0.012
 6103.00    0.77351   0.85268    0.012
 6104.00    0.78235   0.85358    0.012
 6105.00    0.76424   0.85305    0.012
 6106.00    0.74401   0.85225    0.012
 6107.00    0.71787   0.85280    0.012
 6108.00    0.71487   0.85304    0.012
 6109.00    0.76702   0.85170    0.011
 6110.00    0.80957   0.85122    0.011
 6111.00    0.83241   0.85232    0.012
 6112.00    0.84627   0.85228    0.012
 6113.00    0.84405   0.84968    0.012
 6114.00    0.84232   0.84877    0.012
 6115.00    0.84135   0.85070    0.012
 6116.00    0.83265   0.85026    0.012
 6117.00    0.81333   0.84643    0.011
 6118.00    0.79162   0.84574    0.011
 6119.00    0.76704   0.84787    0.011
 6120.00    0.74672   0.84641    0.012
 6121.00    0.73096   0.84316    0.012
 6122.00    0.71886   0.84345    0.011
 6123.00    0.71023   0.84426    0.011
 6124.00    0.72525   0.84136    0.011
 6125.00    0.75990   0.83964    0.012
 6126.00    0.79707   0.84177    0.012
 6127.00    0.83610   0.84119    0.012
 6128.00    0.83771   0.83626    0.011
 6129.00    0.81533   0.83598    0.011
 6130.00    0.80082   0.84035    0.011
 6131.00    0.79073   0.83917    0.012
 6132.00    0.78887   0.83325    0.012
 6133.00    0.79105   0.83364    0.012
 6134.00    0.78780   0.83867    0.012
 6135.00    0.78227   0.83766    0.012
 6136.00    0.76523   0.83287    0.012
 6137.00    0.74403   0.83368    0.012
 6138.00    0.72997   0.83749    0.012
 6139.00    0.71811   0.83610    0.012
 6140.00    0.72914   0.83292    0.012
 6141.00    0.74599   0.83429    0.012
 6142.00    0.75308   0.83651    0.012
 6143.00    0.75815   0.83441    0.012
 6144.00    0.75892   0.83214    0.012
 6145.00    0.75899   0.83301    0.011
 6146.00    0.79553   0.83398    0.012
 6147.00    0.83651   0.83225    0.012
 6148.00    0.84139   0.82945    0.012
 6149.00    0.84326   0.82802    0.012
 6150.00    0.79409   0.82856    0.011
 6151.00    0.74247   0.82823    0.011
 6152.00    0.70119   0.82371    0.011
 6153.00    0.66101   0.81923    0.011
 6154.00    0.67608   0.82033    0.011
 6155.00    0.69187   0.82161    0.011
 6156.00    0.72192   0.81548    0.011
 6157.00    0.74758   0.80957    0.012
 6158.00    0.72251   0.81254    0.012
 6159.00    0.69871   0.81468    0.012
 6160.00    0.68496   0.80690    0.012
 6161.00    0.67382   0.80191    0.012
 6162.00    0.67833   0.80780    0.012
 6163.00    0.67976   0.80962    0.012
 6164.00    0.66652   0.80115    0.011
 6165.00    0.65060   0.79939    0.011
 6166.00    0.62435   0.80722    0.011
 6167.00    0.61078   0.80715    0.011
 6168.00    0.63816   0.79977    0.011
 6169.00    0.66463   0.80220    0.011
 6170.00    0.68865   0.80996    0.012
 6171.00    0.70907   0.80760    0.012
 6172.00    0.72108   0.80279    0.011
 6173.00    0.72887   0.80807    0.011
 6174.00    0.72813   0.81345    0.011
 6175.00    0.72361   0.80960    0.011
 6176.00    0.71243   0.80819    0.011
 6177.00    0.70312   0.81403    0.011
 6178.00    0.69667   0.81540    0.011
 6179.00    0.70060   0.81122    0.011
 6180.00    0.71858   0.81319    0.011
 6181.00    0.73383   0.81779    0.011
 6182.00    0.74580   0.81489    0.011
 6183.00    0.75252   0.81174    0.011
 6184.00    0.75370   0.81664    0.011
 6185.00    0.76048   0.81910    0.011
 6186.00    0.77243   0.81358    0.011
 6187.00    0.75996   0.81223    0.012
 6188.00    0.72752   0.81822    0.012
 6189.00    0.70710   0.81870    0.012
 6190.00    0.69534   0.81277    0.012
 6191.00    0.71582   0.81313    0.012
 6192.00    0.75668   0.81871    0.012
 6193.00    0.82105   0.81783    0.012
 6194.00    0.89840   0.81311    0.012
 6195.00    0.92698   0.81478    0.012
 6196.00    0.93216   0.81896   -2.000
 6197.00    0.66440   0.81698   -2.000
 6198.00    0.28351   0.81348   -2.000
 6199.00   -0.10644   0.81575   -2.000
 6200.00   -0.49960   0.81848   -2.000
 6201.00   -0.41891   0.81568   -2.000
 6202.00   -0.19640   0.81275   -2.000
 6203.00    0.23284   0.81460   -2.000
 6204.00    0.71342   0.81579   -2.000
 6205.00    0.90381   0.81289   -2.000
 6206.00    1.03575   0.81006   -2.000
 6207.00    0.96619   0.81027   -2.000
 6208.00    0.86485   0.81074    0.012
 6209.00    0.83188   0.80855    0.012
 6210.00    0.80693   0.80534    0.012
 6211.00    0.79030   0.80397    0.012
 6212.00    0.77434   0.80403    0.011
 6213.00    0.74887   0.80271    0.011
 6214.00    0.72299   0.79982    0.011
 6215.00    0.71055   0.79788    0.011
 6216.00    0.69829   0.79775    0.011
 6217.00    0.68766   0.79659    0.011
 6218.00    0.67702   0.79403    0.011
 6219.00    0.66619   0.79304    0.011
 6220.00    0.65883   0.79312    0.011
 6221.00    0.68959   0.79144    0.011
 6222.00    0.71815   0.78918    0.011
 6223.00    0.72979   0.78932    0.012
 6224.00    0.73364   0.78970    0.012
 6225.00    0.69196   0.78812    0.011
 6226.00    0.66069   0.78625    0.011
 6227.00    0.67771   0.78686    0.011
 6228.00    0.69372   0.78754    0.011
 6229.00    0.70591   0.78607    0.012
 6230.00    0.71084   0.78418    0.012
 6231.00    0.69281   0.78451    0.012
 6232.00    0.68200   0.78545    0.011
 6233.00    0.69058   0.78431    0.011
 6234.00    0.69945   0.78238    0.011
 6235.00    0.70897   0.78264    0.011
 6236.00    0.71041   0.78342    0.011
 6237.00    0.69574   0.78188    0.011
 6238.00    0.68488   0.78041    0.011
 6239.00    0.68063   0.78088    0.011
 6240.00    0.68588   0.78106    0.011
 6241.00    0.70556   0.77919    0.011
 6242.00    0.72977   0.77822    0.011
 6243.00    0.76002   0.77883    0.011
 6244.00    0.76101   0.77843    0.011
 6245.00    0.72761   0.77641    0.011
 6246.00    0.70212   0.77633    0.011
 6247.00    0.68482   0.77753    0.011
 6248.00    0.69303   0.77612    0.011
 6249.00    0.72458   0.77398    0.012
 6250.00    0.75160   0.77546    0.012
 6251.00    0.77497   0.77727    0.012
 6252.00    0.76131   0.77485    0.011
 6253.00    0.72137   0.77355    0.011
 6254.00    0.70913   0.77700    0.011
 6255.00    0.71412   0.77856    0.011
 6256.00    0.73299   0.77544    0.011
 6257.00    0.75940   0.77578    0.012
 6258.00    0.74591   0.78059    0.012
 6259.00    0.71356   0.78148    0.012
 6260.00    0.60526   0.77866    0.013
 6261.00    0.46602   0.78049    0.013
 6262.00    0.39437   0.78552    0.014
 6263.00    0.34624   0.78565    0.014
 6264.00    0.45864   0.78351    0.014
 6265.00    0.61812   0.78640    0.014
 6266.00    0.79296   0.79104    0.013
 6267.00    0.97153   0.79040    0.013
 6268.00    0.95663   0.78877    0.012
 6269.00    0.90374   0.79208    0.012
 6270.00    0.82248   0.79589    0.011
 6271.00    0.73686   0.79484    0.012
 6272.00    0.75095   0.79364    0.011
 6273.00    0.77629   0.79669    0.011
 6274.00    0.78359   0.79943    0.011
 6275.00    0.78954   0.79844    0.012
 6276.00    0.76788   0.79751    0.011
 6277.00    0.74512   0.79980    0.011
 6278.00    0.73972   0.80170    0.011
 6279.00    0.73426   0.80093    0.011
 6280.00    0.72152   0.79994    0.000
 6281.00    0.70992   0.80143    0.000
 6282.00    0.71775   0.80303    0.000
 6283.00    0.72316   0.80224    0.000
 6284.00    0.70313   0.80073    0.000
 6285.00    0.68931   0.80160    0.000
 6286.00    0.72170   0.80329    0.000
 6287.00    0.75298   0.80237    0.000
 6288.00    0.77788   0.80013    0.000
 6289.00    0.79675   0.80044    0.000
 6290.00    0.78828   0.80230    0.000
 6291.00    0.78213   0.80138    0.000
 6292.00    0.78462   0.79868    0.000
 6293.00    0.78140   0.79856    0.000
 6294.00    0.76041   0.80051    0.000
 6295.00    0.74914   0.79980    0.000
 6296.00    0.76349   0.79718    0.000
 6297.00    0.78159   0.79677    0.000
 6298.00    0.80820   0.79837    0.000
 6299.00    0.82301   0.79819    0.000
 6300.00    0.81471   0.79634    0.000
 6301.00    0.80380   0.79551    0.000
 6302.00    0.78844   0.79637    0.000
 6303.00    0.76832   0.79717    0.000
 6304.00    0.74108   0.79633    0.000
 6305.00    0.72727   0.79462    0.000
 6306.00    0.73114   0.79488    0.000
 6307.00    0.74911   0.79694    0.000
 6308.00    0.78341   0.79683    0.000
 6309.00    0.79378   0.79418    0.000
 6310.00    0.77967   0.79412    0.000
 6311.00    0.77151   0.79748    0.000
 6312.00    0.76872   0.79773    0.000
 6313.00    0.77809   0.79419    0.000
 6314.00    0.79710   0.79414    0.000
 6315.00    0.79837   0.79862    0.000
 6316.00    0.78724   0.79914    0.000
 6317.00    0.77857   0.79507    0.000
 6318.00    0.77141   0.79503    0.000
 6319.00    0.77072   0.80004    0.000
 6320.00    0.77349   0.80096    0.000
 6321.00    0.78391   0.79698    0.011
 6322.00    0.79787   0.79656    0.011
 6323.00    0.80974   0.80124    0.011
 6324.00    0.82076   0.80267    0.011
 6325.00    0.81542   0.79911    0.011
 6326.00    0.80449   0.79796    0.011
 6327.00    0.78224   0.80184    0.011
 6328.00    0.75674   0.80383    0.011
 6329.00    0.75589   0.80067    0.011
 6330.00    0.76089   0.79854    0.011
 6331.00    0.76533   0.80151    0.011
 6332.00    0.76967   0.80407    0.011
 6333.00    0.77155   0.80110    0.011
 6334.00    0.77307   0.79805    0.011
 6335.00    0.73936   0.80061    0.011
 6336.00    0.70182   0.80364    0.011
 6337.00    0.70101   0.80040    0.011
 6338.00    0.70282   0.79673    0.011
 6339.00    0.73945   0.79947    0.011
 6340.00    0.77734   0.80264    0.011
 6341.00    0.81137   0.79875    0.011
 6342.00    0.84403   0.79491    0.011
 6343.00    0.82902   0.79818    0.011
 6344.00    0.81286   0.80095    0.011
 6345.00    0.77857   0.79625    0.011
 6346.00    0.74879   0.79274    0.011
 6347.00    0.76450   0.79654    0.011
 6348.00    0.77941   0.79848    0.011
 6349.00    0.78853   0.79308    0.011
 6350.00    0.79375   0.79030    0.011
 6351.00    0.77743   0.79456    0.011
 6352.00    0.75786   0.79552    0.011
 6353.00    0.72394   0.78984    0.011
 6354.00    0.70360   0.78822    0.011
 6355.00    0.73266   0.79290    0.011
 6356.00    0.75452   0.79310    0.011
 6357.00    0.75443   0.78778    0.012
 6358.00    0.74995   0.78759    0.012
 6359.00    0.73410   0.79261    0.012
 6360.00    0.72501   0.79248    0.011
 6361.00    0.73098   0.78810    0.012
 6362.00    0.72134   0.78927    0.012
 6363.00    0.68157   0.79438    0.011
 6364.00    0.65160   0.79419    0.011
 6365.00    0.63813   0.79104    0.011
 6366.00    0.64547   0.79322    0.011
 6367.00    0.68351   0.79787    0.011
 6368.00    0.71245   0.79760    0.011
 6369.00    0.72959   0.79562    0.011
 6370.00    0.75521   0.79817    0.011
 6371.00    0.79050   0.80177    0.011
 6372.00    0.80833   0.80118    0.011
 6373.00    0.80855   0.80015    0.011
 6374.00    0.79005   0.80256    0.011
 6375.00    0.75491   0.80457    0.011
 6376.00    0.75434   0.80353    0.011
 6377.00    0.78085   0.80338    0.011
 6378.00    0.79107   0.80524    0.011
 6379.00    0.79007   0.80535    0.011
 6380.00    0.77946   0.80403    0.011
 6381.00    0.76304   0.80483    0.011
 6382.00    0.76362   0.80590    0.011
 6383.00    0.77317   0.80421    0.011
 6384.00    0.77202   0.80303    0.011
 6385.00    0.76597   0.80483    0.011
 6386.00    0.75485   0.80488    0.011
 6387.00    0.74173   0.80172    0.011
 6388.00    0.73033   0.80137    0.011
 6389.00    0.71950   0.80410    0.011
 6390.00    0.71639   0.80286    0.011
 6391.00    0.71546   0.79883    0.011
 6392.00    0.70987   0.79994    0.011
 6393.00    0.70318   0.80330    0.011
 6394.00    0.70276   0.80059    0.011
 6395.00    0.70350   0.79642    0.012
 6396.00    0.70929   0.79926    0.012
 6397.00    0.71581   0.80269    0.012
 6398.00    0.73109   0.79862    0.012
 6399.00    0.74728   0.79498    0.011
 6400.00    0.75455   0.79930    0.012
 6401.00    0.76121   0.80221    0.012
 6402.00    0.72202   0.79724    0.012
 6403.00    0.68134   0.79462    0.012
 6404.00    0.69542   0.79967    0.012
 6405.00    0.71046   0.80167    0.012
 6406.00    0.75522   0.79659    0.012
 6407.00    0.79675   0.79508    0.012
 6408.00    0.78977   0.79996    0.012
 6409.00    0.78035   0.80102    0.011
 6410.00    0.74734   0.79666    0.011
 6411.00    0.71861   0.79612    0.011
 6412.00    0.71978   0.80010    0.011
 6413.00    0.72164   0.80045    0.011
 6414.00    0.72718   0.79735    0.011
 6415.00    0.72585   0.79755    0.011
 6416.00    0.69475   0.80034    0.011
 6417.00    0.66369   0.80017    0.011
 6418.00    0.63274   0.79838    0.011
 6419.00    0.61407   0.79924    0.011
 6420.00    0.63211   0.80097    0.011
 6421.00    0.65371   0.80021    0.011
 6422.00    0.68435   0.79941    0.011
 6423.00    0.70999   0.80100    0.011
 6424.00    0.72466   0.80199    0.011
 6425.00    0.72453   0.80042    0.011
 6426.00    0.69626   0.80018    0.011
 6427.00    0.67587   0.80263    0.011
 6428.00    0.66854   0.80312    0.012
 6429.00    0.69002   0.80059    0.012
 6430.00    0.75340   0.80066    0.012
 6431.00    0.79241   0.80391    0.012
 6432.00    0.80024   0.80396    0.012
 6433.00    0.79097   0.80057    0.012
 6434.00    0.76243   0.80094    0.012
 6435.00    0.75069   0.80466    0.012
 6436.00    0.75566   0.80411    0.011
 6437.00    0.74523   0.80024    0.011
 6438.00    0.72130   0.80099    0.012
 6439.00    0.69164   0.80469    0.012
 6440.00    0.65755   0.80344    0.011
 6441.00    0.66674   0.79952    0.011
 6442.00    0.70532   0.80068    0.011
 6443.00    0.72935   0.80401    0.011
 6444.00    0.74473   0.80215    0.011
 6445.00    0.74906   0.79848    0.011
 6446.00    0.74766   0.79996    0.011
 6447.00    0.72711   0.80292    0.011
 6448.00    0.69794   0.80082    0.012
 6449.00    0.70018   0.79745    0.012
 6450.00    0.71457   0.79902    0.012
 6451.00    0.75130   0.80195    0.012
 6452.00    0.79538   0.80006    0.012
 6453.00    0.81688   0.79682    0.012
 6454.00    0.83214   0.79825    0.012
 6455.00    0.80039   0.80146    0.012
 6456.00    0.75798   0.80009    0.011
 6457.00    0.72031   0.79674    0.011
 6458.00    0.68350   0.79784    0.011
 6459.00    0.66820   0.80144    0.012
 6460.00    0.65590   0.80062    0.012
 6461.00    0.68109   0.79701    0.012
 6462.00    0.71003   0.79766    0.012
 6463.00    0.69672   0.80148    0.011
 6464.00    0.68074   0.80103    0.011
 6465.00    0.68969   0.79710    0.011
 6466.00    0.69935   0.79726    0.011
 6467.00    0.70616   0.80100    0.012
 6468.00    0.71251   0.80057    0.012
 6469.00    0.70590   0.79629    0.011
 6470.00    0.69864   0.79603    0.011
 6471.00    0.68208   0.79942    0.011
 6472.00    0.66500   0.79860    0.011
 6473.00    0.64311   0.79389    0.011
 6474.00    0.62506   0.79331    0.011
 6475.00    0.63305   0.79624    0.011
 6476.00    0.64442   0.79467    0.011
 6477.00    0.67352   0.78944    0.012
 6478.00    0.70094   0.78867    0.012
 6479.00    0.72124   0.79115    0.012
 6480.00    0.74290   0.78874    0.012
 6481.00    0.76934   0.78302    0.012
 6482.00    0.78807   0.78217    0.012
 6483.00    0.78416   0.78436    0.012
 6484.00    0.77087   0.78144    0.012
 6485.00    0.73409   0.77556    0.012
 6486.00    0.70148   0.77475    0.012
 6487.00    0.67783   0.77692    0.012
 6488.00    0.66320   0.77423    0.011
 6489.00    0.66544   0.76885    0.011
 6490.00    0.67410   0.76826    0.011
 6491.00    0.69325   0.77066    0.011
 6492.00    0.70317   0.76904    0.011
 6493.00    0.69983   0.76494    0.011
 6494.00    0.69423   0.76475    0.011
 6495.00    0.68577   0.76748    0.011
 6496.00    0.69412   0.76741    0.011
 6497.00    0.72114   0.76506    0.012
 6498.00    0.72882   0.76532    0.012
 6499.00    0.71756   0.76818    0.012
 6500.00    0.70058   0.76955    0.011
 6501.00    0.67865   0.76883    0.011
 6502.00    0.66927   0.76934    0.011
 6503.00    0.66944   0.77202    0.012
 6504.00    0.68530   0.77418    0.012
 6505.00    0.71165   0.77441    0.012
 6506.00    0.71940   0.77486    0.012
 6507.00    0.71625   0.77714    0.012
 6508.00    0.71425   0.77939    0.012
 6509.00    0.71284   0.77970    0.012
 6510.00    0.70083   0.77984    0.012
 6511.00    0.68412   0.78177    0.012
 6512.00    0.67117   0.78366    0.012
 6513.00    0.65965   0.78346    0.012
 6514.00    0.67688   0.78322    0.012
 6515.00    0.70338   0.78499    0.012
 6516.00    0.72925   0.78641    0.012
 6517.00    0.75494   0.78554    0.011
 6518.00    0.77534   0.78505    0.011
 6519.00    0.79458   0.78675    0.011
 6520.00    0.75402   0.78773    0.011
 6521.00    0.70292   0.78640    0.011
 6522.00    0.71069   0.78586    0.011
 6523.00    0.72639   0.78739    0.011
 6524.00    0.73514   0.78783    0.011
 6525.00    0.74323   0.78630    0.011
 6526.00    0.74606   0.78593    0.012
 6527.00    0.74859   0.78708    0.012
 6528.00    0.75824   0.78670    0.000
 6529.00    0.76797   0.78501    0.000
 6530.00    0.76345   0.78492    0.000
 6531.00    0.75830   0.78556    0.000
 6532.00    0.73734   0.78403    0.000
 6533.00    0.71682   0.78183    0.000
 6534.00    0.70220   0.78193    0.000
 6535.00    0.69179   0.78217    0.000
 6536.00    0.71878   0.77926    0.000
 6537.00    0.74534   0.77591    0.000
 6538.00    0.76906   0.77589    0.000
 6539.00    0.78481   0.77599    0.000
 6540.00    0.75981   0.77170    0.000
 6541.00    0.73708   0.76653    0.000
 6542.00    0.72370   0.76599    0.000
 6543.00    0.72034   0.76637    0.000
 6544.00    0.75121   0.76096    0.000
 6545.00    0.77680   0.75356    0.000
 6546.00    0.78721   0.75230    0.000
 6547.00    0.79012   0.75349    0.000
 6548.00    0.77457   0.74751    0.000
 6549.00    0.77058   0.73796    0.000
 6550.00    0.79106   0.73616    0.000
 6551.00    0.79987   0.73883    0.000
 6552.00    0.78716   0.73313    0.000
 6553.00    0.76453   0.72216    0.000
 6554.00    0.72590   0.72042    0.000
 6555.00    0.67872   0.72518    0.000
 6556.00    0.61946   0.72079    0.000
 6557.00    0.59384   0.70979    0.000
 6558.00    0.61004   0.70885    0.000
 6559.00    0.65047   0.71581    0.000
 6560.00    0.71744   0.71361    0.000
 6561.00    0.77755   0.70424    0.000
 6562.00    0.83103   0.70465    0.000
 6563.00    0.86582   0.71314    0.000
 6564.00    0.88470   0.71336    0.000
 6565.00    0.89278   0.70690    0.000
 6566.00    0.89276   0.70875    0.000
 6567.00    0.87823   0.71745    0.000
 6568.00    0.85413   0.71948    0.000
 6569.00    0.81062   0.71633    0.000
 6570.00    0.75592   0.71927    0.000
 6571.00    0.69522   0.72673    0.000
 6572.00    0.63150   0.72941    0.000
 6573.00    0.63565   0.72906    0.000
 6574.00    0.66934   0.73251    0.000
 6575.00    0.67453   0.73776    0.000
 6576.00    0.66908   0.73994    0.000
 6577.00    0.65727   0.74139    0.000
 6578.00    0.64344   0.74485    0.000
 6579.00    0.66364   0.74763    0.000
 6580.00    0.69285   0.74859    0.000
 6581.00    0.74866   0.75090    0.000
 6582.00    0.81022   0.75415    0.000
 6583.00    0.86206   0.75479    0.000
 6584.00    0.91223   0.75436    0.000
 6585.00    0.87031   0.75690    0.000
 6586.00    0.81642   0.75996    0.000
 6587.00    0.81862   0.75913    0.000
 6588.00    0.82594   0.75758    0.000
 6589.00    0.81095   0.76006    0.000
 6590.00    0.79473   0.76303    0.000
 6591.00    0.76372   0.76148    0.000
 6592.00    0.73296   0.75926    0.000
 6593.00    0.75559   0.76162    0.000
 6594.00    0.77609   0.76460    0.000
 6595.00    0.74755   0.76283    0.000
 6596.00    0.72164   0.76040    0.000
 6597.00    0.72905   0.76273    0.000
 6598.00    0.73527   0.76572    0.000
 6599.00    0.73118   0.76395    0.000
 6600.00    0.72258   0.76157    0.000
 6601.00    0.68530   0.76398    0.000
 6602.00    0.65385   0.76697    0.000
 6603.00    0.65148   0.76520    0.000
 6604.00    0.65263   0.76292    0.000
 6605.00    0.66801   0.76542    0.000
 6606.00    0.68037   0.76839    0.000
 6607.00    0.68264   0.76661    0.000
 6608.00    0.68902   0.76432    0.000
 6609.00    0.70702   0.76676    0.012
 6610.00    0.70908   0.76960    0.012
 6611.00    0.67259   0.76780    0.012
 6612.00    0.65661   0.76546    0.012
 6613.00    0.68342   0.76756    0.012
 6614.00    0.70726   0.77005    0.012
 6615.00    0.72570   0.76825    0.012
 6616.00    0.73542   0.76588    0.012
 6617.00    0.73130   0.76741    0.012
 6618.00    0.74689   0.76933    0.012
 6619.00    0.78989   0.76759    0.012
 6620.00    0.78543   0.76530    0.012
 6621.00    0.72284   0.76613    0.012
 6622.00    0.67739   0.76740    0.012
 6623.00    0.65046   0.76592    0.012
 6624.00    0.67149   0.76387    0.012
 6625.00    0.73820   0.76397    0.012
 6626.00    0.74494   0.76462    0.012
 6627.00    0.70133   0.76374    0.012
 6628.00    0.69410   0.76223    0.012
 6629.00    0.71376   0.76158    0.012
 6630.00    0.73169   0.76162    0.013
 6631.00    0.74850   0.76162    0.013
 6632.00    0.73856   0.76102    0.013
 6633.00    0.71341   0.75975    0.013
 6634.00    0.71545   0.75905    0.013
 6635.00    0.73095   0.75990    0.013
 6636.00    0.72150   0.76049    0.012
 6637.00    0.70137   0.75887    0.012
 6638.00    0.69217   0.75729    0.012
 6639.00    0.68697   0.75859    0.012
 6640.00    0.66533   0.76034    0.012
 6641.00    0.63859   0.75875    0.012
 6642.00    0.64383   0.75635    0.012
 6643.00    0.65734   0.75754    0.012
 6644.00    0.67698   0.76001    0.012
 6645.00    0.69790   0.75871    0.012
 6646.00    0.69466   0.75581    0.012
 6647.00    0.68740   0.75652    0.012
 6648.00    0.72589   0.75909    0.013
 6649.00    0.77012   0.75813    0.013
 6650.00    0.74110   0.75516    0.013
 6651.00    0.70569   0.75531    0.013
 6652.00    0.68903   0.75747    0.013
 6653.00    0.67334   0.75675    0.013
 6654.00    0.67718   0.75408    0.013
 6655.00    0.68121   0.75381    0.013
 6656.00    0.67365   0.75534    0.013
 6657.00    0.66667   0.75482    0.012
 6658.00    0.67176   0.75268    0.013
 6659.00    0.67472   0.75213    0.013
 6660.00    0.65206   0.75297    0.013
 6661.00    0.62700   0.75275    0.013
 6662.00    0.58216   0.75137    0.012
 6663.00    0.54907   0.75060    0.012
 6664.00    0.58855   0.75070    0.012
 6665.00    0.62895   0.75083    0.012
 6666.00    0.67387   0.75045    0.012
 6667.00    0.70518   0.74961    0.012
 6668.00    0.68278   0.74885    0.013
 6669.00    0.66632   0.74918    0.013
 6670.00    0.66933   0.74992    0.013
 6671.00    0.66641   0.74933    0.013
 6672.00    0.64702   0.74777    0.013
 6673.00    0.64681   0.74789    0.013
 6674.00    0.69217   0.74953    0.013
 6675.00    0.71183   0.74958    0.013
 6676.00    0.67875   0.74759    0.013
 6677.00    0.66415   0.74715    0.013
 6678.00    0.68260   0.74914    0.013
 6679.00    0.67302   0.74998    0.013
 6680.00    0.61967   0.74814    0.013
 6681.00    0.59432   0.74709    0.013
 6682.00    0.60740   0.74870    0.013
 6683.00    0.62704   0.75003    0.013
 6684.00    0.65463   0.74886    0.013
 6685.00    0.68271   0.74750    0.013
 6686.00    0.71134   0.74824    0.013
 6687.00    0.71580   0.74948    0.013
 6688.00    0.69754   0.74908    0.013
 6689.00    0.69117   0.74787    0.013
 6690.00    0.69464   0.74767    0.013
 6691.00    0.68294   0.74824    0.013
 6692.00    0.66019   0.74838    0.013
 6693.00    0.65333   0.74768    0.013
 6694.00    0.65666   0.74681    0.013
 6695.00    0.64253   0.74640    0.013
 6696.00    0.61863   0.74665    0.000
 6697.00    0.62409   0.74664    0.000
 6698.00    0.64386   0.74554    0.000
 6699.00    0.64945   0.74413    0.000
 6700.00    0.64908   0.74407    0.000
 6701.00    0.67881   0.74474    0.000
 6702.00    0.71939   0.74388    0.000
 6703.00    0.71740   0.74168    0.000
 6704.00    0.70246   0.74098    0.000
 6705.00    0.68322   0.74220    0.000
 6706.00    0.66290   0.74199    0.000
 6707.00    0.61341   0.73939    0.000
 6708.00    0.55791   0.73788    0.000
 6709.00    0.58470   0.73942    0.000
 6710.00    0.62480   0.74019    0.000
 6711.00    0.63263   0.73768    0.000
 6712.00    0.63655   0.73541    0.000
 6713.00    0.58100   0.73696    0.000
 6714.00    0.52052   0.73884    0.000
 6715.00    0.59123   0.73692    0.000
 6716.00    0.66816   0.73408    0.000
 6717.00    0.67714   0.73527    0.000
 6718.00    0.68473   0.73813    0.000
 6719.00    0.66872   0.73718    0.000
 6720.00    0.65405   0.73402    0.000
 6721.00    0.66532   0.73448    0.000
 6722.00    0.67554   0.73788    0.000
 6723.00    0.67370   0.73801    0.000
 6724.00    0.66669   0.73481    0.000
 6725.00    0.61857   0.73432    0.000
 6726.00    0.57389   0.73768    0.000
 6727.00    0.54990   0.73871    0.000
 6728.00    0.54084   0.73569    0.000
 6729.00    0.60258   0.73430    0.000
 6730.00    0.66891   0.73706    0.000
 6731.00    0.75301   0.73860    0.000
 6732.00    0.80984   0.73603    0.000
 6733.00    0.77884   0.73405    0.000
 6734.00    0.74330   0.73589    0.000
 6735.00    0.69538   0.73754    0.000
 6736.00    0.66964   0.73569    0.000
 6737.00    0.69569   0.73356    0.000
 6738.00    0.73184   0.73444    0.000
 6739.00    0.78839   0.73593    0.000
 6740.00    0.81689   0.73494    0.000
 6741.00    0.79606   0.73312    0.000
 6742.00    0.73758   0.73333    0.000
 6743.00    0.62114   0.73455    0.000
 6744.00    0.58565   0.73425    0.000
 6745.00    0.65963   0.73302    0.000
 6746.00    0.67733   0.73310    0.000
 6747.00    0.62804   0.73410    0.000
 6748.00    0.61040   0.73411    0.000
 6749.00    0.62598   0.73338    0.000
 6750.00    0.63458   0.73373    0.000
 6751.00    0.63671   0.73479    0.000
 6752.00    0.61797   0.73477    0.000
 6753.00    0.58220   0.73414    0.015
 6754.00    0.56989   0.73482    0.015
 6755.00    0.57444   0.73617    0.016
 6756.00    0.54953   0.73603    0.016
 6757.00    0.50603   0.73516    0.016
 6758.00    0.53609   0.73589    0.016
 6759.00    0.60670   0.73753    0.016
 6760.00    0.68486   0.73742    0.016
 6761.00    0.76664   0.73625    0.017
 6762.00    0.81531   0.73663    0.017
 6763.00    0.85028   0.73830    0.017
 6764.00    0.86008   0.73848    0.017
 6765.00    0.86097   0.73720    0.017
 6766.00    0.81133   0.73691    0.017
 6767.00    0.74661   0.73830    0.017
 6768.00    0.80856   0.73891    0.017
 6769.00    0.90188   0.73778    0.017
 6770.00    0.84777   0.73683    0.016
 6771.00    0.76407   0.73763    0.016
 6772.00    0.75585   0.73850    0.016
 6773.00    0.75950   0.73778    0.015
 6774.00    0.72769   0.73663    0.015
 6775.00    0.69174   0.73669    0.015
 6776.00    0.71268   0.73732    0.015
 6777.00    0.73810   0.73708    0.015
 6778.00    0.77583   0.73616    0.015
 6779.00    0.81410   0.73561    0.016
 6780.00    0.76868   0.73575    0.016
 6781.00    0.72362   0.73582    0.016
 6782.00    0.73564   0.73538    0.016
 6783.00    0.74758   0.73471    0.016
 6784.00    0.75802   0.73431    0.016
 6785.00    0.76951   0.73435    0.016
 6786.00    0.79262   0.73452    0.016
 6787.00    0.81005   0.73419    0.016
 6788.00    0.78373   0.73342    0.016
 6789.00    0.73723   0.73316    0.016
 6790.00    0.57307   0.73377    0.016
 6791.00    0.45476   0.73405    0.016
 6792.00    0.54849   0.73315    0.016
 6793.00    0.64273   0.73246    0.016
 6794.00    0.73894   0.73337    0.016
 6795.00    0.80013   0.73425    0.016
 6796.00    0.75070   0.73334    0.016
 6797.00    0.72398   0.73227    0.016
 6798.00    0.75808   0.73328    0.016
 6799.00    0.78092   0.73471    0.016
 6800.00    0.77786   0.73390    0.016
 6801.00    0.74503   0.73239    0.016
 6802.00    0.65297   0.73320    0.016
 6803.00    0.59480   0.73510    0.016
 6804.00    0.59534   0.73473    0.016
 6805.00    0.59977   0.73286    0.016
 6806.00    0.61011   0.73298    0.016
 6807.00    0.60965   0.73512    0.016
 6808.00    0.59480   0.73562    0.015
 6809.00    0.64088   0.73369    0.015
 6810.00    0.75847   0.73279    0.016
 6811.00    0.75620   0.73483    0.016
 6812.00    0.62988   0.73638    0.016
 6813.00    0.60834   0.73474    0.016
 6814.00    0.68248   0.73272    0.017
 6815.00    0.72033   0.73417    0.017
 6816.00    0.72899   0.73662    0.017
 6817.00    0.71895   0.73575    0.016
 6818.00    0.69565   0.73294    0.016
 6819.00    0.67887   0.73323    0.016
 6820.00    0.66612   0.73600    0.016
 6821.00    0.65653   0.73623    0.016
 6822.00    0.64863   0.73334    0.015
 6823.00    0.60035   0.73214    0.015
 6824.00    0.53301   0.73439    0.015
 6825.00    0.60594   0.73567    0.015
 6826.00    0.73590   0.73341    0.015
 6827.00    0.66821   0.73094    0.015
 6828.00    0.53190   0.73195    0.016
 6829.00    0.60145   0.73381    0.016
 6830.00    0.73124   0.73282    0.016
 6831.00    0.77330   0.72981    0.016
 6832.00    0.79412   0.72924    0.016
 6833.00    0.76342   0.73098    0.016
 6834.00    0.72263   0.73133    0.016
 6835.00    0.74629   0.72882    0.016
 6836.00    0.77977   0.72703    0.017
 6837.00    0.70957   0.72793    0.017
 6838.00    0.62774   0.72912    0.017
 6839.00    0.68150   0.72773    0.017
 6840.00    0.74539   0.72541    0.018
 6841.00    0.70437   0.72519    0.017
 6842.00    0.65918   0.72664    0.017
 6843.00    0.63429   0.72660    0.016
 6844.00    0.61200   0.72441    0.016
 6845.00    0.68727   0.72321    0.016
 6846.00    0.75283   0.72433    0.016
 6847.00    0.65426   0.72511    0.016
 6848.00    0.56799   0.72354    0.016
 6849.00    0.61054   0.72204    0.016
 6850.00    0.65389   0.72255    0.016
 6851.00    0.70321   0.72349    0.016
 6852.00    0.74408   0.72267    0.016
 6853.00    0.73695   0.72115    0.016
 6854.00    0.72252   0.72105    0.016
 6855.00    0.67511   0.72211    0.016
 6856.00    0.63434   0.72223    0.016
 6857.00    0.61816   0.72067    0.016
 6858.00    0.61357   0.71972    0.016
 6859.00    0.64489   0.72084    0.016
 6860.00    0.66134   0.72190    0.016
 6861.00    0.63868   0.72054    0.016
 6862.00    0.61855   0.71906    0.016
 6863.00    0.60414   0.72012    0.016
 6864.00    0.58964   0.72170    0.016
 6865.00    0.57494   0.72082    0.016
 6866.00    0.57170   0.71942    0.016
 6867.00    0.58800   0.72017    0.016
 6868.00    0.58287   0.72162    0.016
 6869.00    0.54574   0.72154    0.016
 6870.00    0.57285   0.72086    0.016
 6871.00    0.68436   0.72111    0.016
 6872.00    0.75729   0.72191    0.016
 6873.00    0.78556   0.72259    0.016
 6874.00    0.79477   0.72277    0.016
 6875.00    0.78453   0.72274    0.016
 6876.00    0.81827   0.72310    0.016
 6877.00    0.89159   0.72424    0.016
 6878.00    0.83504   0.72488    0.016
 6879.00    0.67548   0.72487    0.016
 6880.00    0.61579   0.72526    0.016
 6881.00    0.62577   0.72617    0.016
 6882.00    0.66039   0.72672    0.016
 6883.00    0.71007   0.72737    0.016
 6884.00    0.73875   0.72832    0.016
 6885.00    0.75622   0.72837    0.016
 6886.00    0.69096   0.72821    0.016
 6887.00    0.58733   0.72960    0.016
 6888.00    0.60970   0.73141    0.016
 6889.00    0.68242   0.73095    0.016
 6890.00    0.63179   0.72980    0.016
 6891.00    0.53912   0.73110    0.015
 6892.00    0.60342   0.73360    0.016
 6893.00    0.71273   0.73349    0.016
 6894.00    0.72417   0.73175    0.016
 6895.00    0.71244   0.73200    0.016
 6896.00    0.69505   0.73438    0.016
 6897.00    0.67658   0.73539    0.016
 6898.00    0.32383   0.73370    0.015
 6899.00   -0.07831   0.73253    0.000
 6900.00    0.31234   0.73410    0.028
 6901.00    0.78852   0.73606    0.450
 6902.00    0.74199   0.73494   -1.000
 6903.00    0.65851   0.73270   -1.000
 6904.00    0.71316   0.73311   -1.000
 6905.00    0.77278   0.73545   -1.000
 6906.00    0.82739   0.73516   -1.000
 6907.00    0.87877   0.73254   -1.000
 6908.00    0.81891   0.73215   -1.000
 6909.00    0.75867   0.73415   -1.000
 6910.00    0.69224   0.73434   -1.000
 6911.00    0.62894   0.73210   -1.000
 6912.00    0.59700   0.73137   -1.000
 6913.00    0.57510   0.73273   -1.000
 6914.00    0.62538   0.73290   -1.000
 6915.00    0.68338   0.73109   -1.000
 6916.00    0.78401   0.73039   -1.000
 6917.00    0.84600   0.73152   -1.000
 6918.00    0.73760   0.73170   -1.000
 6919.00    0.65818   0.73011   -1.000
 6920.00    0.68381   0.72949   -1.000
 6921.00    0.69003   0.73070   -1.000
 6922.00    0.63721   0.73097   -1.000
 6923.00    0.61289   0.72927   -1.000
 6924.00    0.66221   0.72852   -1.000
 6925.00    0.70599   0.73021   -1.000
 6926.00    0.73745   0.73085   -1.000
 6927.00    0.73500   0.72901   -1.000
 6928.00    0.66723   0.72788   -1.000
 6929.00    0.62220   0.72966   -1.000
 6930.00    0.61538   0.73087   -1.000
 6931.00    0.62883   0.72920   -1.000
 6932.00    0.67212   0.72763   -1.000
 6933.00    0.70949   0.72899   -1.000
 6934.00    0.73918   0.73060   -1.000
 6935.00    0.73167   0.72935   -1.000
 6936.00    0.68173   0.72764   -1.000
 6937.00    0.65321   0.72853   -1.000
 6938.00    0.64625   0.73019   -1.000
 6939.00    0.64550   0.72955   -1.000
 6940.00    0.65025   0.72788   -1.000
 6941.00    0.66456   0.72809   -1.000
 6942.00    0.68635   0.72969   -1.000
 6943.00    0.67954   0.72968   -1.000
 6944.00    0.65308   0.72821   -1.000
 6945.00    0.64005   0.72805   -1.000
 6946.00    0.63513   0.72949   -1.000
 6947.00    0.60277   0.72990   -1.000
 6948.00    0.55597   0.72865   -1.000
 6949.00    0.56667   0.72854   -1.000
 6950.00    0.60360   0.72984   -1.000
 6951.00    0.64263   0.73026   -1.000
 6952.00    0.68248   0.72909   -1.000
 6953.00    0.75355   0.72917   -1.000
 6954.00    0.83505   0.73062   -1.000
 6955.00    0.76904   0.73089   -1.000
 6956.00    0.66160   0.72967   -1.000
 6957.00    0.57492   0.72962   -1.000
 6958.00    0.49303   0.73119   -1.000
 6959.00    0.50784   0.73164   -1.000
 6960.00    0.54059   0.73013   -1.000
 6961.00    0.64145   0.72923   -1.000
 6962.00    0.75205   0.73099   -1.000
 6963.00    0.69831   0.73216   -1.000
 6964.00    0.62755   0.73030   -1.000
 6965.00    0.60799   0.72825   -1.000
 6966.00    0.59186   0.72992   -1.000
 6967.00    0.63181   0.73182   -1.000
 6968.00    0.67354   0.72974   -1.000
 6969.00    0.59249   0.72680   -1.000
 6970.00    0.51538   0.72817   -1.000
 6971.00    0.55933   0.73077   -1.000
 6972.00    0.60419   0.72922   -1.000
 6973.00    0.66285   0.72599   -1.000
 6974.00    0.71025   0.72652   -1.000
 6975.00    0.64967   0.72925   -1.000
 6976.00    0.59941   0.72899   -1.000
 6977.00    0.62094   0.72632   -1.000
 6978.00    0.62949   0.72577   -1.000
 6979.00    0.56838   0.72794   -1.000
 6980.00    0.53535   0.72875   -1.000
 6981.00    0.62322   0.72692   -1.000
 6982.00    0.68776   0.72609   -1.000
 6983.00    0.66945   0.72786   -1.000
 6984.00    0.66485   0.72875   -1.000
 6985.00    0.70116   0.72720   -1.000
 6986.00    0.69552   0.72657   -1.000
 6987.00    0.58334   0.72838   -1.000
 6988.00    0.53827   0.72912   -1.000
 6989.00    0.63993   0.72758   -1.000
 6990.00    0.69128   0.72695   -1.000
 6991.00    0.64719   0.72858   -1.000
 6992.00    0.60331   0.72922   -1.000
 6993.00    0.55976   0.72742   -1.000
 6994.00    0.55517   0.72622   -1.000
 6995.00    0.60713   0.72774   -1.000
 6996.00    0.59698   0.72864   -1.000
 6997.00    0.50758   0.72674   -1.000
 6998.00    0.48564   0.72494   -1.000
 6999.00    0.53961   0.72628   -1.000
 7000.00    0.56493   0.72767   -1.000
 7001.00    0.56185   0.72576   -1.000
 7002.00    0.58026   0.72324   -1.000
 7003.00    0.61746   0.72424   -1.000
 7004.00    0.62068   0.72642   -1.000
 7005.00    0.59770   0.72499   -1.000
 7006.00    0.58560   0.72160   -1.000
 7007.00    0.58087   0.72181   -1.000
 7008.00    0.55176   0.72498   -1.000
 7009.00    0.50818   0.72454   -1.000
 7010.00    0.58680   0.72073   -1.000
 7011.00    0.72870   0.72018   -1.000
 7012.00    0.63093   0.72382   -1.000
 7013.00    0.42556   0.72439   -1.000
 7014.00    0.48889   0.72079   -1.000
 7015.00    0.65593   0.71951   -1.000
 7016.00    0.70811   0.72308   -1.000
 7017.00    0.72260   0.72498   -1.000
 7018.00    0.75201   0.72207   -1.000
 7019.00    0.78552   0.71968   -1.000
 7020.00    0.80645   0.72249   -1.000
 7021.00    0.82453   0.72601   -1.000
 7022.00    0.79495   0.72476   -1.000
 7023.00    0.75677   0.72158   -1.000
 7024.00    0.76373   0.72269   -1.000
 7025.00    0.77694   0.72673   -1.000
 7026.00    0.77129   0.72765   -1.000
 7027.00    0.76377   0.72533   -1.000
 7028.00    0.72302   0.72471   -1.000
 7029.00    0.68019   0.72754   -1.000
 7030.00    0.70428   0.72996   -1.000
 7031.00    0.72998   0.72902   -1.000
 7032.00    0.67834   0.72729   -1.000
 7033.00    0.63063   0.72866   -1.000
 7034.00    0.69098   0.73152   -1.000
 7035.00    0.73894   0.73193   -1.000
 7036.00    0.61307   0.73032   -1.000
 7037.00    0.49340   0.73018   -1.000
 7038.00    0.43092   0.73191   -1.000
 7039.00    0.40056   0.73282   -1.000
 7040.00    0.58671   0.73172   -1.000
 7041.00    0.73013   0.73048   -1.000
 7042.00    0.65021   0.73084   -1.000
 7043.00    0.61796   0.73175   -1.000
 7044.00    0.78640   0.73082   -1.000
 7045.00    0.89897   0.72881   -1.000
 7046.00    0.81720   0.72811   -1.000
 7047.00    0.72816   0.72833   -1.000
 7048.00    0.61786   0.72719   -1.000
 7049.00    0.39072   0.72499   -1.000
 7050.00   -0.12807   0.72394   -2.000
 7051.00   -0.33457   0.72376   -2.000
 7052.00    0.13061   0.72235   -2.000
 7053.00    0.52401   0.71965   -2.000
 7054.00    0.78332   0.71807   -2.000
 7055.00    0.84023   0.71805   -2.000
 7056.00    0.56701   0.71717   -2.000
 7057.00    0.43348   0.71449   -2.000
 7058.00    0.49974   0.71235   -2.000
 7059.00    0.57798   0.71221   -2.000
 7060.00    0.67126   0.71213   -2.000
 7061.00    0.76945   0.71025   -2.000
 7062.00    0.87306   0.70747   -2.000
 7063.00    0.77646   0.70697   -2.000
 7064.00    0.48402   0.70808   -2.000
 7065.00    0.36122   0.70724   -2.000
 7066.00    0.38474   0.70435   -2.000
 7067.00    0.49770   0.70334   -2.000
 7068.00    0.67862   0.70447   -2.000
 7069.00    0.65303   0.70408   -2.000
 7070.00    0.48954   0.70170   -2.000
 7071.00    0.52673   0.70048   -2.000
 7072.00    0.68128   0.70122   -2.000
 7073.00    0.63950   0.70093   -2.000
 7074.00    0.49764   0.69862   -2.000
 7075.00    0.48220   0.69687   -2.000
 7076.00    0.52258   0.69744   -2.000
 7077.00    0.61225   0.69743   -2.000
 7078.00    0.72062   0.69472   -2.000
 7079.00    0.61468   0.69218   -2.000
 7080.00    0.43974   0.69286   -2.000
 7081.00    0.48541   0.69320   -2.000
 7082.00    0.59051   0.69058   -2.000
 7083.00    0.59407   0.68738   -2.000
 7084.00    0.57521   0.68722   -2.000
 7085.00    0.73254   0.68832   -2.000
 7086.00    0.92085   0.68694   -2.000
 7087.00   -0.59032   0.68329   -2.000
 7088.00   -2.32916   0.68185   -2.000
 7089.00   -0.98938   0.68369   -2.000
 7090.00    0.64296   0.68390   -2.000
 7091.00    0.68977   0.68085   -2.000
 7092.00    0.64356   0.67803   -2.000
 7093.00    0.60714   0.67968   -2.000
 7094.00    0.57142   0.68149   -2.000
 7095.00    0.59674   0.68046   -2.000
 7096.00    0.62143   0.67728   -2.000
 7097.00    0.63070   0.67690   -2.000
 7098.00    0.63965   0.67938   -2.000
 7099.00    0.64425   0.68071   -2.000
 7100.00    0.64389   0.67840   -2.000
 7101.00    0.59959   0.67621   -2.000
 7102.00    0.56588   0.67805   -2.000
 7103.00    0.60136   0.68040   -2.000
 7104.00    0.62911   0.67985   -2.000
 7105.00    0.61749   0.67713   -2.000
 7106.00    0.60408   0.67729   -2.000
 7107.00    0.58332   0.67933   -2.000
 7108.00    0.57538   0.68039   -2.000
 7109.00    0.61115   0.67881   -2.000
 7110.00    0.64498   0.67747   -2.000
 7111.00    0.67319   0.67799   -2.000
 7112.00    0.69533   0.67908   -2.000
 7113.00    0.70253   0.67918   -2.000
 7114.00    0.69671   0.67806   -2.000
 7115.00    0.66332   0.67723   -2.000
 7116.00    0.63455   0.67675   -2.000
 7117.00    0.61427   0.67758   -2.000
 7118.00    0.61451   0.67832   -2.000
 7119.00    0.64772   0.67720   -2.000
 7120.00    0.66262   0.67485   -2.000
 7121.00    0.65170   0.67471   -2.000
 7122.00    0.69295   0.67710   -2.000
 7123.00    0.79891   0.67747   -2.000
 7124.00    0.84759   0.67441   -2.000
 7125.00    0.83362   0.67213   -2.000
 7126.00    0.79208   0.67454   -2.000
 7127.00    0.72393   0.67717   -2.000
 7128.00    0.73439   0.67532   -2.000
 7129.00    0.81168   0.67145   -2.000
 7130.00    0.77138   0.67224   -2.000
 7131.00    0.64301   0.67648   -2.000
 7132.00    0.55490   0.67646   -2.000
 7133.00    0.49327   0.67224   -2.000
 7134.00    0.49884   0.67132   -2.000
 7135.00    0.54312   0.67543   -2.000
 7136.00    0.57042   0.67717   -2.000
 7137.00    0.58920   0.67432   -2.000
 7138.00    0.60883   0.67230   -2.000
 7139.00    0.62883   0.67486   -2.000
 7140.00    0.61915   0.67777   -2.000
 7141.00    0.59842   0.67642   -2.000
 7142.00    0.58681   0.67374   -2.000
 7143.00    0.57808   0.67533   -2.000
 7144.00    0.57860   0.67855   -2.000
 7145.00    0.58156   0.67762   -2.000
 7146.00    0.58769   0.67538   -2.000
 7147.00    0.59451   0.67699   -2.000
 7148.00    0.61965   0.67974   -2.000
 7149.00    0.64793   0.67881   -2.000
 7150.00    0.67043   0.67659   -2.000
 7151.00    0.69218   0.67790   -2.000
 7152.00    0.63326   0.68087   -2.000
 7153.00    0.56703   0.68080   -2.000
 7154.00    0.59230   0.67787   -2.000
 7155.00    0.62257   0.67776   -2.000
 7156.00    0.64273   0.68157   -2.000
 7157.00    0.66415   0.68281   -2.000
 7158.00    0.81993   0.67946   -2.000
 7159.00    0.96360   0.67775   -2.000
 7160.00    0.83264   0.68107   -2.000
 7161.00    0.70882   0.68339   -2.000
 7162.00    0.67490   0.68145   -2.000
 7163.00    0.63750   0.67912   -2.000
 7164.00    0.57039   0.68040   -2.000
 7165.00    0.53186   0.68269   -2.000
 7166.00    0.67447   0.68218   -2.000
 7167.00    0.78361   0.68023   -2.000
 7168.00    0.72651   0.68029   -2.000
 7169.00    0.66361   0.68177   -2.000
 7170.00    0.57740   0.68126   -2.000
 7171.00    0.50314   0.68006   -2.000
 7172.00    0.46886   0.68045   -2.000
 7173.00    0.45666   0.68111   -2.000
 7174.00    0.50672   0.67981   -2.000
 7175.00    0.55462   0.67847   -2.000
 7176.00    0.59730   0.67950   -2.000
 7177.00    0.64060   0.68051   -2.000
 7178.00    0.68518   0.67887   -2.000
 7179.00    0.71659   0.67685   -2.000
 7180.00    0.72412   0.67795   -2.000
 7181.00    0.70609   0.67940   -2.000
 7182.00    0.64759   0.67770   -2.000
 7183.00    0.62451   0.67485   -2.000
 7184.00    0.65066   0.67536   -2.000
 7185.00    0.65067   0.67846   -2.000
 7186.00    0.61874   0.67802   -2.000
 7187.00    0.60660   0.67420   -2.000
 7188.00    0.61580   0.67323   -2.000
 7189.00    0.60399   0.67702   -2.000
 7190.00    0.57220   0.67846   -2.000
 7191.00    0.56359   0.67474   -2.000
 7192.00    0.57441   0.67224   -2.000
 7193.00    0.59641   0.67523   -2.000
 7194.00    0.62665   0.67864   -2.000
 7195.00    0.63725   0.67678   -2.000
 7196.00    0.63513   0.67303   -2.000
 7197.00    0.70511   0.67369   -2.000
 7198.00    0.81599   0.67829   -2.000
 7199.00    0.82167   0.67947   -2.000
 7200.00    0.77539   0.67578   -2.000
 7201.00    0.74379   0.67373   -2.000
 7202.00    0.71845   0.67719   -2.000
 7203.00    0.67109   0.68047   -2.000
 7204.00    0.61567   0.67892   -2.000
 7205.00    0.59573   0.67654   -2.000
 7206.00    0.58677   0.67769   -2.000
 7207.00    0.57106   0.68118   -2.000
 7208.00    0.55359   0.68210   -2.000
 7209.00    0.54550   0.68007   -2.000
 7210.00    0.53937   0.67925   -2.000
 7211.00    0.50361   0.68212   -2.000
 7212.00    0.46292   0.68487   -2.000
 7213.00    0.48833   0.68407   -2.000
 7214.00    0.52199   0.68281   -2.000
 7215.00    0.49580   0.68434   -2.000
 7216.00    0.46442   0.68703   -2.000
 7217.00    0.45550   0.68752   -2.000
 7218.00    0.44773   0.68686   -2.000
