###################################################################
## OUTPUT of StarlightChains_v04.for    [Cid@UFSC - 01/Apr/2007] ##
###################################################################

## Some input info
KUG0210-078._30_31.txt                   [arq_obs]
Base.CB07.vall.4m                        [arq_base]
Masks.EmLines.NEW.gm                     [arq_masks]
StCv04.C11.config                        [arq_config]
   66                                    [N_base]
    0                                    [N_YAV_components = # of components with extra extinction!]
    0                                    [i_FitPowerLaw (1/0 = Yes/No)]
-9.99                                    [alpha_PowerLaw]
CCM                                      [red_law_option]
 1.458241                                [q_norm = A(l_norm)/A(V)]

## (Re)Sampling Parameters
 3741.00                                 [l_ini (A)]
 7218.00                                 [l_fin (A)]
    1.00                                 [dl    (A)]     (OBS: dl_cushion =    50.00 A)

## Normalization info
 4020.00                                 [l_norm (A) - for base]
 4010.00                                 [llow_norm (A) - window for f_obs]
 4060.00                                 [lupp_norm (A) - window for f_obs]
7.378865E-17                             [fobs_norm (in input units)]

## S/N
 3691.00                                 [llow_SN (A) - window for S/N]
 7268.00                                 [lupp_SN (A) - window for S/N]
   5.220                                 [S/N in S/N window]
   4.402                                 [S/N in norm. window]
   0.130                                 [S/N_err in S/N window]
   0.109                                 [S/N_err in norm. window]
  1.0000                                 [fscale_chi2]

## etc...
    -2007432                             [idum_orig]
  2432                                   [NOl_eff]
  2397                                   [Nl_eff]
    35    NSIGMA                         [Ntot_cliped & clip_method]
 10495730                                [Nglobal_steps]
   7                                     [N_chains]
   7                                     [NEX0s_base = N_base in EX0s-fits]
 0   0   1       35   2.0   1.835E+04    [Clip-Bug, RC-Crash & Burn-In warning-flags, n_censored_weights, wei_nsig_threshold & wei_limit]
   131    131.145    130.439      0.706  [idt_all, wdt_TotTime, wdt_UsrTime & wdt_SysTime (sec)]

## Synthesis Results - Best model ##

 5.43829E-05                             [chi2/Nl_eff]
     3.97524                             [adev (%)]

   114.13403                             [sum-of-x (%)]
 2.93246E-17                             [Flux_tot (units of input spectrum!)]
 3.95768E-12                             [Mini_tot (???)]
 1.97200E-12                             [Mcor_tot (???)]

  21.42                                  [v0_min  (km/s)]
 209.76                                  [vd_min  (km/s)]
-0.7855                                  [AV_min  (mag)]
 0.0000                                  [YAV_min (mag)]

# j     x_j(%)      Mini_j(%)     Mcor_j(%)     age_j(yr)     Z_j      (L/M)_j    YAV?  Mstars   component_j        a/Fe...       SSP_chi2r SSP_adev(%)   SSP_AV   SSP_x(%)
  1      0.0000     0.0000E+00    0.0000E+00    1.000000E+06  0.00400  1.094E-02    0   1.0000   age020_m42            0.0000     6.4028E-04    11.9450   3.5802    92.0256
  2      0.0000     0.0000E+00    0.0000E+00    3.160000E+06  0.00400  4.007E-02    0   0.9999   age045_m42            0.0000     5.1969E-04    10.7460   2.8462    98.5890
  3      0.0000     0.0000E+00    0.0000E+00    5.010000E+06  0.00400  2.539E-02    0   0.9488   age055_m42            0.0000     5.7390E-04    11.3517   3.1716    96.0223
  4      0.0000     0.0000E+00    0.0000E+00    6.610000E+06  0.00400  2.620E-02    0   0.9220   age061_m42            0.0000     5.2323E-04    10.8236   2.7753    98.6914
  5      0.0000     0.0000E+00    0.0000E+00    1.000000E+07  0.00400  1.322E-02    0   0.8862   age070_m42            0.0000     5.9750E-04    12.2894   2.5204    99.7577
  6      0.0000     0.0000E+00    0.0000E+00    1.445000E+07  0.00400  7.883E-03    0   0.8571   age078_m42            0.0000     6.2204E-04    12.4165   2.8448    97.3419
  7      0.0000     0.0000E+00    0.0000E+00    2.512000E+07  0.00400  5.251E-03    0   0.8174   age090_m42            0.0000     6.0687E-04    12.5467   2.3939   100.1752
  8      0.0000     0.0000E+00    0.0000E+00    4.000000E+07  0.00400  3.649E-03    0   0.7851   age104_m42            0.0000     5.7156E-04    12.1819   2.1633   101.1662
  9      0.0000     0.0000E+00    0.0000E+00    5.500000E+07  0.00400  3.098E-03    0   0.7629   age110_m42            0.0000     5.2747E-04    11.3157   2.3022   101.7109
 10      0.0000     0.0000E+00    0.0000E+00    1.015200E+08  0.00400  2.228E-03    0   0.7207   age116_m42            0.0000     5.0106E-04    10.7675   2.3149   102.1722
 11      0.0000     0.0000E+00    0.0000E+00    2.861200E+08  0.00400  1.093E-03    0   0.6648   age125_m42            0.0000     4.9453E-04    10.8948   1.7494   104.9090
 12      0.0000     0.0000E+00    0.0000E+00    5.088000E+08  0.00400  6.597E-04    0   0.6365   age130_m42            0.0000     4.3842E-04    10.0210   1.7257   106.3844
 13      0.0000     0.0000E+00    0.0000E+00    1.434000E+09  0.00400  2.132E-04    0   0.5798   age139_m42            0.0000     3.1310E-04     8.8166   0.7492   108.8594
 14      0.0000     0.0000E+00    0.0000E+00    4.250000E+09  0.00400  5.895E-05    0   0.5377   age158_m42            0.0000     2.2842E-04     7.4587   0.2926   105.4280
 15      0.0000     0.0000E+00    0.0000E+00    7.500000E+09  0.00400  3.510E-05    0   0.5212   age171_m42            0.0000     1.9568E-04     6.7910   0.0947   105.1177
 16      0.0000     0.0000E+00    0.0000E+00    1.300000E+10  0.00400  2.005E-05    0   0.5034   age193_m42            0.0000     1.7424E-04     6.2524  -0.0791   104.8726
 17      0.0000     0.0000E+00    0.0000E+00    1.800000E+10  0.00400  1.525E-05    0   0.4967   age213_m42            0.0000     1.8070E-04     6.4352  -0.0995   104.3194
 18      0.0000     0.0000E+00    0.0000E+00    1.000000E+06  0.00800  1.238E-02    0   1.0000   age020_m52            0.0000     6.4002E-04    11.9466   3.5765    92.2151
 19      0.0000     0.0000E+00    0.0000E+00    3.160000E+06  0.00800  3.074E-02    0   0.9966   age045_m52            0.0000     6.2795E-04    11.8379   3.4989    93.1033
 20      0.0000     0.0000E+00    0.0000E+00    5.010000E+06  0.00800  2.668E-02    0   0.9443   age055_m52            0.0000     5.9011E-04    11.5478   3.2550    95.1518
 21      0.0000     0.0000E+00    0.0000E+00    6.610000E+06  0.00800  2.136E-02    0   0.9177   age061_m52            0.0000     5.4002E-04    11.9462   2.0199   101.0560
 22      0.0000     0.0000E+00    0.0000E+00    1.000000E+07  0.00800  1.215E-02    0   0.8827   age070_m52            0.0000     6.3967E-04    12.8729   2.7036    99.3402
 23      0.0000     0.0000E+00    0.0000E+00    1.445000E+07  0.00800  8.717E-03    0   0.8552   age078_m52            0.0000     6.1063E-04    12.3718   2.8101    98.7109
 24      0.0000     0.0000E+00    0.0000E+00    2.512000E+07  0.00800  5.592E-03    0   0.8162   age090_m52            0.0000     6.0268E-04    12.5733   2.4560   101.4018
 25      0.0000     0.0000E+00    0.0000E+00    4.000000E+07  0.00800  3.896E-03    0   0.7841   age104_m52            0.0000     5.6007E-04    12.0146   2.3615   102.4410
 26      0.0000     0.0000E+00    0.0000E+00    1.015200E+08  0.00800  2.148E-03    0   0.7226   age116_m52            0.0000     5.0333E-04    11.0655   2.2884   102.7320
 27      0.0000     0.0000E+00    0.0000E+00    2.861200E+08  0.00800  9.925E-04    0   0.6683   age125_m52            0.0000     4.3301E-04    10.1035   1.7915   107.3288
 28      0.0000     0.0000E+00    0.0000E+00    9.047900E+08  0.00800  3.141E-04    0   0.6138   age135_m52            0.0000     2.7072E-04     7.9947   0.9665   112.9966
 29      0.0000     0.0000E+00    0.0000E+00    1.434000E+09  0.00800  1.719E-04    0   0.5853   age139_m52            0.0000     2.2840E-04     7.5317   0.3867   110.7247
 30      0.0000     0.0000E+00    0.0000E+00    2.500000E+09  0.00800  7.872E-05    0   0.5600   age150_m52            0.0000     1.6233E-04     6.2103   0.1027   108.5764
 31      0.0000     0.0000E+00    0.0000E+00    4.250000E+09  0.00800  4.336E-05    0   0.5426   age158_m52            0.0000     1.5941E-04     6.1197   0.0860   107.6203
 32      0.0000     0.0000E+00    0.0000E+00    6.250000E+09  0.00800  3.159E-05    0   0.5319   age166_m52            0.0000     1.2469E-04     5.2696  -0.1304   108.1918
 33      0.0000     0.0000E+00    0.0000E+00    1.300000E+10  0.00800  1.361E-05    0   0.5073   age193_m52            0.0000     9.2648E-05     4.4757  -0.6168   108.2419
 34      0.0000     0.0000E+00    0.0000E+00    1.800000E+10  0.00800  9.886E-06    0   0.4990   age213_m52            0.0000     7.7610E-05     4.1776  -0.7424   108.4174
 35      0.0000     0.0000E+00    0.0000E+00    1.000000E+06  0.02000  1.544E-02    0   1.0000   age020_m62            0.0000     6.4391E-04    11.9758   3.5729    92.4297
 36      0.0000     0.0000E+00    0.0000E+00    3.160000E+06  0.02000  3.762E-02    0   0.9858   age045_m62            0.0000     6.4090E-04    11.9060   3.5085    93.3809
 37      0.0000     0.0000E+00    0.0000E+00    5.010000E+06  0.02000  3.296E-02    0   0.9342   age055_m62            0.0000     5.4613E-04    10.9591   3.1255    97.4312
 38      0.0000     0.0000E+00    0.0000E+00    8.710000E+06  0.02000  1.154E-02    0   0.8861   age067_m62            0.0000     9.0177E-04    16.4738   2.1952   100.3602
 39      0.0000     0.0000E+00    0.0000E+00    1.445000E+07  0.02000  7.663E-03    0   0.8472   age078_m62            0.0000     6.8573E-04    13.7334   2.3606   101.1223
 40      0.0000     0.0000E+00    0.0000E+00    2.512000E+07  0.02000  4.532E-03    0   0.8099   age090_m62            0.0000     6.9932E-04    13.8729   2.3533   100.7551
 41      0.0000     0.0000E+00    0.0000E+00    5.500000E+07  0.02000  2.733E-03    0   0.7595   age110_m62            0.0000     5.6415E-04    12.0451   2.3460   101.6518
 42      0.0000     0.0000E+00    0.0000E+00    1.609000E+08  0.02000  1.369E-03    0   0.6985   age120_m62            0.0000     4.8769E-04    10.7884   2.1669   105.1333
 43      0.0000     0.0000E+00    0.0000E+00    2.861200E+08  0.02000  9.013E-04    0   0.6714   age125_m62            0.0000     4.4152E-04    10.2099   1.9047   108.6653
 44      0.0000     0.0000E+00    0.0000E+00    5.088000E+08  0.02000  5.028E-04    0   0.6449   age130_m62            0.0000     3.3498E-04     8.6412   1.5013   112.7037
 45      0.0000     0.0000E+00    0.0000E+00    9.047900E+08  0.02000  2.428E-04    0   0.6179   age135_m62            0.0000     2.1541E-04     7.0358   0.9011   112.6917
 46      0.0000     0.0000E+00    0.0000E+00    1.434000E+09  0.02000  1.263E-04    0   0.5908   age139_m62            0.0000     1.6972E-04     6.3884   0.4525   111.2954
 47      0.0000     0.0000E+00    0.0000E+00    2.500000E+09  0.02000  5.985E-05    0   0.5673   age150_m62            0.0000     1.2205E-04     5.2962   0.0695   110.5608
 48      0.0000     0.0000E+00    0.0000E+00    4.250000E+09  0.02000  3.271E-05    0   0.5468   age158_m62            0.0000     8.5969E-05     4.4465  -0.2576   110.5156
 49      0.0000     0.0000E+00    0.0000E+00    1.000000E+10  0.02000  1.360E-05    0   0.5167   age181_m62            0.0000     6.2213E-05     4.1083  -0.6359   111.2986
 50     17.0364     1.5525E+01    1.5619E+01    1.800000E+10  0.02000  7.124E-06    0   0.5013   age213_m62            0.0000     6.2319E-05     4.2665  -0.8730   111.5101
 51      0.0000     0.0000E+00    0.0000E+00    1.000000E+06  0.05000  2.592E-02    0   0.9998   age020_m72            0.0000     6.5845E-04    12.1303   3.5661    92.4162
 52      0.0000     0.0000E+00    0.0000E+00    3.160000E+06  0.05000  4.845E-02    0   0.9577   age045_m72            0.0000     5.9884E-04    11.5031   3.3888    94.7268
 53      0.0000     0.0000E+00    0.0000E+00    5.010000E+06  0.05000  3.072E-02    0   0.9147   age055_m72            0.0000     6.6610E-04    12.7982   2.9261    97.9541
 54      0.0000     0.0000E+00    0.0000E+00    6.610000E+06  0.05000  1.455E-02    0   0.8877   age061_m72            0.0000     1.1114E-03    18.0822   2.2313   100.7997
 55      0.0000     0.0000E+00    0.0000E+00    1.000000E+07  0.05000  9.074E-03    0   0.8524   age070_m72            0.0000     7.0461E-04    12.6839   3.0912    97.8682
 56      0.0000     0.0000E+00    0.0000E+00    2.512000E+07  0.05000  4.250E-03    0   0.7902   age090_m72            0.0000     6.4424E-04    12.4793   2.8027    99.5584
 57      0.0000     0.0000E+00    0.0000E+00    4.000000E+07  0.05000  3.087E-03    0   0.7618   age104_m72            0.0000     6.4257E-04    12.5554   2.5780   101.0839
 58      0.0000     0.0000E+00    0.0000E+00    1.015200E+08  0.05000  1.700E-03    0   0.7096   age116_m72            0.0000     5.3123E-04    11.3617   2.3140   104.4072
 59      0.0000     0.0000E+00    0.0000E+00    2.861200E+08  0.05000  7.384E-04    0   0.6633   age125_m72            0.0000     3.8068E-04     9.4216   1.7581   110.7978
 60      0.0000     0.0000E+00    0.0000E+00    5.088000E+08  0.05000  3.819E-04    0   0.6372   age130_m72            0.0000     2.5525E-04     7.6625   1.2433   113.7154
 61     16.5021     6.3921E-01    7.8382E-01    9.047900E+08  0.05000  1.676E-04    0   0.6110   age135_m72            0.0000     1.3671E-04     5.5899   0.5216   112.9487
 62     21.5539     1.5834E+00    1.8667E+00    1.434000E+09  0.05000  8.837E-05    0   0.5874   age139_m72            0.0000     1.0956E-04     5.0816   0.0595   112.5724
 63      0.0000     0.0000E+00    0.0000E+00    2.500000E+09  0.05000  4.233E-05    0   0.5598   age150_m72            0.0000     7.3195E-05     4.2542  -0.2705   112.0281
 64      0.0000     0.0000E+00    0.0000E+00    6.250000E+09  0.05000  1.435E-05    0   0.5249   age166_m72            0.0000     5.8814E-05     4.1326  -0.7438   111.3147
 65      5.5265     5.5086E+00    5.5675E+00    1.300000E+10  0.05000  6.513E-06    0   0.5036   age193_m72            0.0000     7.2220E-05     4.6445  -1.0000   111.9370
 66     53.5152     7.6744E+01    7.6163E+01    1.800000E+10  0.05000  4.527E-06    0   0.4945   age213_m72            0.0000     1.3566E-04     6.3943  -1.0000   106.7813


## Synthesis Results - Average & Chains ##

# j      x_j: min, <> & last-chain-values for 1 ...  7 chains
  1      0.0000      0.1681      0.0022      0.0748      0.0199      0.0301      0.0433      0.0000      0.0279
  2      0.0000      0.1272      0.0000      0.0328      0.0000      0.0087      0.0323      0.0122      0.0057
  3      0.0000      0.2316      0.0020      0.0208      0.0000      0.0135      0.0122      0.0000      0.0254
  4      0.0000      0.1885      0.0030      0.0239      0.0042      0.0102      0.0111      0.0142      0.0197
  5      0.0000      0.2273      0.0013      0.0355      0.0000      0.0344      0.0155      0.0002      0.0228
  6      0.0000      0.1911      0.0023      0.0263      0.0134      0.0462      0.0000      0.0130      0.0557
  7      0.0000      0.2188      0.0000      0.0000      0.0000      0.0192      0.0064      0.0176      0.0000
  8      0.0000      0.2717      0.0024      0.0147      0.0019      0.0343      0.0304      0.0763      0.0075
  9      0.0000      0.1896      0.0031      0.0000      0.0000      0.0033      0.0000      0.0066      0.0156
 10      0.0000      0.1731      0.0003      0.0173      0.0000      0.0000      0.0033      0.0057      0.0030
 11      0.0000      0.2359      0.0000      0.0000      0.0000      0.0210      0.0655      0.0417      0.0180
 12      0.0000      0.2698      0.0007      0.0295      0.0017      0.0153      0.0001      0.0236      0.0064
 13      0.0000      0.2049      0.0000      0.0065      0.0021      0.0000      0.0324      0.0570      0.0145
 14      0.0000      0.1610      0.0000      0.0189      0.0032      0.0194      0.1186      0.0183      0.0178
 15      0.0000      0.2048      0.0000      0.0782      0.0111      0.0138      0.0000      0.0100      0.0574
 16      0.0000      0.2076      0.0007      0.0169      0.0000      0.0452      0.0089      0.0000      0.0363
 17      0.0000      0.1896      0.0027      0.0015      0.0008      0.0079      0.0101      0.0524      0.0349
 18      0.0000      0.1921      0.0000      0.0571      0.0005      0.0116      0.0181      0.0038      0.0212
 19      0.0000      0.2893      0.0000      0.0000      0.0034      0.0050      0.0505      0.0339      0.0272
 20      0.0000      0.2443      0.0039      0.0306      0.0066      0.0000      0.0140      0.0510      0.0639
 21      0.0000      0.1914      0.0011      0.0467      0.0005      0.0025      0.0019      0.0093      0.0074
 22      0.0000      0.1857      0.0062      0.0014      0.0000      0.0077      0.0275      0.0168      0.0000
 23      0.0000      0.2328      0.0001      0.0000      0.0081      0.0700      0.0139      0.0000      0.0041
 24      0.0000      0.2199      0.0041      0.0252      0.0023      0.0580      0.0394      0.0367      0.0000
 25      0.0000      0.1815      0.0000      0.0220      0.0101      0.0301      0.0141      0.0414      0.0317
 26      0.0000      0.1500      0.0006      0.0178      0.0028      0.0237      0.0283      0.0233      0.0294
 27      0.0000      0.1717      0.0042      0.0098      0.0027      0.0019      0.0047      0.0150      0.0302
 28      0.0000      0.1953      0.0122      0.0655      0.0032      0.0531      0.0148      0.0475      0.0125
 29      0.0000      0.1967      0.0021      0.0179      0.0000      0.0185      0.0565      0.0392      0.0000
 30      0.0000      0.1821      0.0025      0.0149      0.0011      0.0027      0.0303      0.0199      0.0207
 31      0.0000      0.1703      0.0002      0.0339      0.0029      0.0232      0.0270      0.0191      0.0353
 32      0.0000      0.1959      0.0019      0.0441      0.0042      0.0164      0.0194      0.0125      0.0084
 33      0.0000      0.1657      0.0113      0.0269      0.0005      0.0797      0.0231      0.0000      0.0089
 34      0.0000      0.2015      0.0000      0.0505      0.0017      0.0185      0.0346      0.0435      0.0000
 35      0.0000      0.2109      0.0000      0.0280      0.0231      0.0246      0.0159      0.0000      0.0000
 36      0.0000      0.1860      0.0000      0.0000      0.0007      0.0009      0.0319      0.0328      0.0224
 37      0.0000      0.1505      0.0059      0.0308      0.0000      0.0044      0.0000      0.0325      0.0050
 38      0.0000      0.2213      0.0000      0.0000      0.0018      0.0154      0.0343      0.0038      0.0086
 39      0.0000      0.2013      0.0003      0.0022      0.0000      0.0132      0.0087      0.0383      0.1245
 40      0.0000      0.2170      0.0188      0.1474      0.0130      0.0537      0.0872      0.0920      0.0840
 41      0.0000      0.2288      0.0015      0.0120      0.0021      0.0123      0.0085      0.0000      0.0140
 42      0.0000      0.2148      0.0000      0.0000      0.0059      0.0009      0.0000      0.0427      0.0000
 43      0.0000      0.1702      0.0028      0.0801      0.0082      0.0346      0.0223      0.0229      0.0144
 44      0.0000      0.2605      0.0236      0.0075      0.0012      0.0132      0.0389      0.0517      0.0354
 45      0.0000      0.1510      0.0028      0.0483      0.0000      0.0000      0.0190      0.0026      0.0416
 46      0.0000      0.1593      0.0000      0.0047      0.0090      0.0372      0.0218      0.0747      0.0209
 47      0.0000      0.1874      0.0034      0.0000      0.0050      0.0000      0.0149      0.0103      0.0044
 48      0.0000      0.2120      0.0021      0.0063      0.0028      0.0039      0.0310      0.0283      0.0191
 49      0.0000      0.1975      0.0059      0.0602      0.0259      0.1215      0.0768      0.1099      0.0860
 50     17.0364      1.0422      0.5940      0.9961      1.2696      0.9311      0.9750      0.9681      0.9959
 51      0.0000      0.1888      0.0032      0.0096      0.0024      0.0000      0.0599      0.0236      0.0323
 52      0.0000      0.1589      0.0025      0.0000      0.0053      0.0162      0.0244      0.0144      0.0183
 53      0.0000      0.1564      0.0000      0.0000      0.0051      0.0157      0.0000      0.0041      0.0116
 54      0.0000      0.1755      0.0031      0.0000      0.0030      0.0141      0.0200      0.0000      0.0087
 55      0.0000      0.2080      0.0019      0.0000      0.0000      0.0101      0.0063      0.0638      0.0261
 56      0.0000      0.2289      0.0002      0.0597      0.0025      0.0296      0.0247      0.0313      0.0225
 57      0.0000      0.2097      0.0002      0.0104      0.0023      0.0921      0.0219      0.0389      0.0147
 58      0.0000      0.1883      0.0003      0.0099      0.0170      0.0154      0.0315      0.0040      0.0295
 59      0.0000      0.2411      0.0176      0.0342      0.0026      0.0117      0.0000      0.0283      0.0599
 60      0.0000      0.2571      0.0265      0.0401      0.0150      0.0256      0.0227      0.0914      0.0799
 61     16.5021     54.0472     52.4458     67.3405     44.5884     67.4462     66.8939     67.4821     68.0931
 62     21.5539     26.4607     19.1257     28.2840     42.3827     28.2907     28.1965     28.0800     27.2120
 63      0.0000      1.2260      0.0080      1.8372      0.0179      1.8493      2.5094      1.8439      1.8336
 64      0.0000      0.4176      0.2196      0.4350      0.5006      0.4927      0.4395      0.3892      0.5416
 65      5.5265      4.8527      1.7375      4.4544     10.9658      4.4586      4.4305      4.4569      4.5132
 66     53.5152     17.9030     41.9927     13.3819     17.0058     13.3918     13.3203     13.3393     13.5458

# j      m_j: min, <> & last-chain-values for 1 ...  7 chains
  1  0.0000E+00  5.3623E-04  3.9521E-06  2.8960E-04  5.5678E-05  1.1656E-04  1.6780E-04  0.0000E+00  1.0723E-04
  2  0.0000E+00  1.1078E-04  0.0000E+00  3.4723E-05  0.0000E+00  9.1784E-06  3.4252E-05  1.2922E-05  5.9453E-06
  3  0.0000E+00  3.0206E-04  1.4890E-06  3.2950E-05  0.0000E+00  2.1382E-05  1.9411E-05  0.0000E+00  3.9802E-05
  4  0.0000E+00  2.3146E-04  2.0770E-06  3.5694E-05  4.5287E-06  1.5244E-05  1.6512E-05  2.1294E-05  2.9168E-05
  5  0.0000E+00  5.3175E-04  1.7112E-06  1.0084E-04  0.0000E+00  9.7677E-05  4.4236E-05  4.9503E-07  6.4322E-05
  6  0.0000E+00  7.2494E-04  4.8765E-06  1.2119E-04  4.4560E-05  2.1294E-04  0.0000E+00  6.0014E-05  2.5457E-04
  7  0.0000E+00  1.1884E-03  0.0000E+00  0.0000E+00  0.0000E+00  1.2682E-04  4.2338E-05  1.1648E-04  0.0000E+00
  8  0.0000E+00  2.0400E-03  9.9455E-06  1.3404E-04  1.2836E-05  3.1220E-04  2.7746E-04  6.9804E-04  6.8020E-05
  9  0.0000E+00  1.6295E-03  1.5226E-05  0.0000E+00  0.0000E+00  3.4453E-05  0.0000E+00  6.9435E-05  1.6107E-04
 10  0.0000E+00  1.9534E-03  2.1435E-06  2.3715E-04  0.0000E+00  0.0000E+00  4.4885E-05  7.8883E-05  4.0668E-05
 11  0.0000E+00  5.0070E-03  0.0000E+00  0.0000E+00  0.0000E+00  5.4141E-04  1.6902E-03  1.0796E-03  4.6114E-04
 12  0.0000E+00  9.0849E-03  1.3469E-05  1.2082E-03  5.1212E-05  6.2528E-04  4.3985E-06  9.6849E-04  2.5751E-04
 13  0.0000E+00  1.9446E-02  0.0000E+00  7.4443E-04  1.7181E-04  0.0000E+00  3.7381E-03  6.5893E-03  1.6544E-03
 14  0.0000E+00  5.1258E-02  0.0000E+00  7.3162E-03  9.0940E-04  7.4799E-03  4.5929E-02  7.0984E-03  6.8099E-03
 15  0.0000E+00  1.0613E-01  0.0000E+00  4.9207E-02  5.0720E-03  8.6758E-03  0.0000E+00  6.3223E-03  3.5797E-02
 16  0.0000E+00  1.8188E-01  3.6448E-04  1.7969E-02  0.0000E+00  4.8085E-02  9.5081E-03  0.0000E+00  3.8341E-02
 17  0.0000E+00  2.1553E-01  1.7027E-03  2.0164E-03  8.4590E-04  1.0860E-02  1.3982E-02  7.2628E-02  4.7723E-02
 18  0.0000E+00  5.4136E-04  0.0000E+00  1.9552E-04  1.2101E-06  3.9615E-05  6.2103E-05  1.2884E-05  7.1998E-05
 19  0.0000E+00  3.2733E-04  0.0000E+00  0.0000E+00  3.3872E-06  6.8456E-06  6.9459E-05  4.6773E-05  3.7056E-05
 20  0.0000E+00  3.0171E-04  2.6948E-06  4.5910E-05  7.2172E-06  0.0000E+00  2.1064E-05  7.6800E-05  9.5059E-05
 21  0.0000E+00  2.8689E-04  9.2339E-07  8.4996E-05  6.8714E-07  4.5319E-06  3.4323E-06  1.7011E-05  1.3312E-05
 22  0.0000E+00  4.7083E-04  8.8496E-06  4.2400E-06  0.0000E+00  2.3618E-05  8.4646E-05  5.1999E-05  0.0000E+00
 23  0.0000E+00  7.9696E-04  2.3737E-07  0.0000E+00  2.4300E-05  2.9099E-04  5.8027E-05  0.0000E+00  1.7019E-05
 24  0.0000E+00  1.1200E-03  1.1630E-05  1.5614E-04  1.0403E-05  3.5825E-04  2.4393E-04  2.2795E-04  0.0000E+00
 25  0.0000E+00  1.2747E-03  0.0000E+00  1.8764E-04  6.2535E-05  2.5615E-04  1.2026E-04  3.5396E-04  2.6792E-04
 26  0.0000E+00  1.7607E-03  4.1881E-06  2.5323E-04  2.9250E-05  3.3802E-04  4.0358E-04  3.3297E-04  4.1561E-04
 27  0.0000E+00  4.0334E-03  5.5709E-05  2.7968E-04  5.5530E-05  5.3192E-05  1.3524E-04  4.3088E-04  8.5562E-04
 28  0.0000E+00  1.3321E-02  4.6741E-04  5.4282E-03  1.9358E-04  4.3966E-03  1.2272E-03  3.9464E-03  1.0295E-03
 29  0.0000E+00  2.3377E-02  1.3853E-04  2.5897E-03  0.0000E+00  2.6631E-03  8.1711E-03  5.6788E-03  0.0000E+00
 30  0.0000E+00  4.5193E-02  3.5153E-04  4.4908E-03  2.2983E-04  8.1412E-04  9.1578E-03  6.0211E-03  6.1980E-03
 31  0.0000E+00  7.4363E-02  5.7374E-05  1.7997E-02  1.1325E-03  1.2300E-02  1.4334E-02  1.0178E-02  1.8576E-02
 32  0.0000E+00  1.1513E-01  6.3221E-04  3.1485E-02  2.1572E-03  1.1681E-02  1.3830E-02  8.9732E-03  5.9364E-03
 33  0.0000E+00  2.1555E-01  8.2966E-03  4.2518E-02  5.2172E-04  1.2589E-01  3.6554E-02  0.0000E+00  1.3918E-02
 34  0.0000E+00  3.5483E-01  0.0000E+00  1.0800E-01  2.6552E-03  3.9596E-02  7.4153E-02  9.3457E-02  0.0000E+00
 35  0.0000E+00  4.7669E-04  0.0000E+00  7.6796E-05  4.5832E-05  6.7556E-05  4.3705E-05  0.0000E+00  0.0000E+00
 36  0.0000E+00  1.7004E-04  0.0000E+00  0.0000E+00  5.3993E-07  1.0513E-06  3.5464E-05  3.6571E-05  2.4675E-05
 37  0.0000E+00  1.4888E-04  3.3113E-06  3.6972E-05  0.0000E+00  5.3201E-06  0.0000E+00  3.9197E-05  5.9943E-06
 38  0.0000E+00  5.9287E-04  0.0000E+00  0.0000E+00  4.2767E-06  5.0192E-05  1.1171E-04  1.2280E-05  2.7850E-05
 39  0.0000E+00  7.7667E-04  6.0583E-07  1.0215E-05  0.0000E+00  6.1741E-05  4.0652E-05  1.7999E-04  5.7808E-04
 40  0.0000E+00  1.3534E-03  6.6104E-05  1.1163E-03  7.1111E-05  4.0677E-04  6.6153E-04  6.9871E-04  6.3065E-04
 41  0.0000E+00  2.2188E-03  8.2265E-06  1.4098E-04  1.8311E-05  1.4497E-04  1.0045E-04  0.0000E+00  1.6288E-04
 42  0.0000E+00  3.8241E-03  0.0000E+00  0.0000E+00  9.1904E-05  1.9018E-05  0.0000E+00  9.2710E-04  0.0000E+00
 43  0.0000E+00  4.4237E-03  4.0249E-05  2.5275E-03  1.8839E-04  1.0914E-03  7.0512E-04  7.2488E-04  4.5156E-04
 44  0.0000E+00  1.1660E-02  5.9381E-04  4.0575E-04  4.6840E-05  7.1655E-04  2.1193E-03  2.8175E-03  1.9048E-03
 45  0.0000E+00  1.3412E-02  1.3976E-04  5.2121E-03  0.0000E+00  0.0000E+00  2.0572E-03  2.8403E-04  4.4493E-03
 46  0.0000E+00  2.5997E-02  0.0000E+00  9.3774E-04  1.2932E-03  7.3610E-03  4.3265E-03  1.4852E-02  4.1032E-03
 47  0.0000E+00  6.1972E-02  6.3115E-04  0.0000E+00  1.4421E-03  0.0000E+00  5.9858E-03  4.1517E-03  1.7408E-03
 48  0.0000E+00  1.2368E-01  6.9050E-04  4.4596E-03  1.4452E-03  2.7690E-03  2.1960E-02  2.0084E-02  1.3401E-02
 49  0.0000E+00  2.6181E-01  4.4262E-03  9.7007E-02  3.0162E-02  1.9558E-01  1.2388E-01  1.7753E-01  1.3730E-01
 50  1.5619E+01  2.5592E+00  8.2112E-01  2.9706E+00  2.7410E+00  2.7750E+00  2.9118E+00  2.8967E+00  2.9443E+00
 51  0.0000E+00  2.5406E-04  2.4184E-06  1.5663E-05  2.8094E-06  0.0000E+00  9.8041E-05  3.8689E-05  5.2418E-05
 52  0.0000E+00  1.0957E-04  9.6202E-07  0.0000E+00  3.2285E-06  1.3542E-05  2.0454E-05  1.2114E-05  1.5206E-05
 53  0.0000E+00  1.6247E-04  0.0000E+00  0.0000E+00  4.6963E-06  1.9839E-05  0.0000E+00  5.2337E-06  1.4562E-05
 54  0.0000E+00  3.7364E-04  3.7099E-06  0.0000E+00  5.6478E-06  3.6409E-05  5.1734E-05  0.0000E+00  2.2176E-05
 55  0.0000E+00  6.8187E-04  3.5556E-06  0.0000E+00  0.0000E+00  4.0016E-05  2.5209E-05  2.5473E-04  1.0285E-04
 56  0.0000E+00  1.4853E-03  5.5959E-07  4.7037E-04  1.4450E-05  2.3273E-04  1.9467E-04  2.4716E-04  1.7592E-04
 57  0.0000E+00  1.8057E-03  1.1437E-06  1.0899E-04  1.7563E-05  9.6244E-04  2.2945E-04  4.0824E-04  1.5260E-04
 58  0.0000E+00  2.7428E-03  2.6848E-06  1.7429E-04  2.1835E-04  2.7242E-04  5.5820E-04  7.0984E-05  5.1800E-04
 59  0.0000E+00  7.5571E-03  3.1023E-04  1.3033E-03  7.2815E-05  4.4497E-04  0.0000E+00  1.0811E-03  2.2590E-03
 60  0.0000E+00  1.4972E-02  8.6919E-04  2.8356E-03  7.6670E-04  1.8073E-03  1.6081E-03  6.4826E-03  5.5973E-03
 61  7.8382E-01  6.8756E+00  3.7558E+00  1.0404E+01  4.9873E+00  1.0414E+01  1.0350E+01  1.0460E+01  1.0429E+01
 62  1.8667E+00  6.1376E+00  2.4973E+00  7.9675E+00  8.6436E+00  7.9647E+00  7.9546E+00  7.9362E+00  7.5991E+00
 63  0.0000E+00  5.6579E-01  2.0791E-03  1.0297E+00  7.2796E-03  1.0359E+00  1.4085E+00  1.0368E+00  1.0187E+00
 64  0.0000E+00  5.3298E-01  1.5782E-01  6.7427E-01  5.6176E-01  7.6334E-01  6.8231E-01  6.0539E-01  8.3231E-01
 65  5.5675E+00  1.3094E+01  2.6392E+00  1.4596E+01  2.6015E+01  1.4602E+01  1.4540E+01  1.4653E+01  1.4661E+01
 66  7.6163E+01  6.8242E+01  9.0107E+01  6.1948E+01  5.6994E+01  6.1957E+01  6.1754E+01  6.1955E+01  6.2163E+01

# AV, chi2 & Mass for <> & i_chain = 1 ...  7 solutions
AV      -0.7855     -0.1760     -0.4271     -0.0668     -0.2514     -0.0687     -0.0705     -0.0644     -0.0683
chi2 5.4383E-05  1.4457E-04  7.0684E-05  1.1411E-04  8.9841E-05  1.1369E-04  1.1397E-04  1.1418E-04  1.1394E-04
Mass 1.9720E-12  1.6695E-12  2.1165E-12  1.5918E-12  1.7158E-12  1.5887E-12  1.5816E-12  1.5915E-12  1.6024E-12
  21.42                                  [v0_min (km/s) before EX0s...]
 209.76                                  [vd_min (km/s) before EX0s...]


## Synthetic spectrum (Best Model) ##l_obs f_obs f_syn wei
 3478    [Nl_obs]
 3741.00    0.47634   0.48123    0.000
 3742.00    0.51298   0.47931    0.000
 3743.00    0.50489   0.46375    0.000
 3744.00    0.48560   0.43911    0.000
 3745.00    0.45980   0.41133    0.224
 3746.00    0.45747   0.38628    0.218
 3747.00    0.46706   0.36911    0.207
 3748.00    0.46725   0.36405    0.211
 3749.00    0.46331   0.37390    0.221
 3750.00    0.46375   0.39899    0.220
 3751.00    0.46584   0.43627    0.213
 3752.00    0.48354   0.47929    0.215
 3753.00    0.50624   0.51950    0.219
 3754.00    0.52292   0.54863    0.218
 3755.00    0.53799   0.56131    0.215
 3756.00    0.50853   0.55709    0.209
 3757.00    0.46929   0.54064    0.202
 3758.00    0.48742   0.51968    0.203
 3759.00    0.51557   0.50162    0.205
 3760.00    0.55659   0.49080    0.209
 3761.00    0.59931   0.48747    0.213
 3762.00    0.57174   0.48926    0.209
 3763.00    0.53757   0.49338    0.204
 3764.00    0.53823   0.49817    0.204
 3765.00    0.54091   0.50363    0.205
 3766.00    0.56125   0.51114    0.198
 3767.00    0.58186   0.52244    0.192
 3768.00    0.58376   0.53845    0.189
 3769.00    0.58599   0.55866    0.187
 3770.00    0.59617   0.58129    0.189
 3771.00    0.60349   0.60377    0.191
 3772.00    0.57312   0.62364    0.191
 3773.00    0.54772   0.63939    0.192
 3774.00    0.56590   0.65107    0.194
 3775.00    0.58783   0.66023    0.196
 3776.00    0.63405   0.66904    0.198
 3777.00    0.67192   0.67928    0.201
 3778.00    0.66750   0.69155    0.203
 3779.00    0.66297   0.70497    0.206
 3780.00    0.65802   0.71724    0.206
 3781.00    0.64665   0.72517    0.207
 3782.00    0.61357   0.72552    0.211
 3783.00    0.59439   0.71586    0.216
 3784.00    0.61496   0.69531    0.224
 3785.00    0.61970   0.66534    0.228
 3786.00    0.58576   0.63006    0.219
 3787.00    0.55896   0.59517    0.213
 3788.00    0.54720   0.56581    0.209
 3789.00    0.53361   0.54475    0.206
 3790.00    0.51670   0.53163    0.203
 3791.00    0.50750   0.52346    0.202
 3792.00    0.51067   0.51636    0.204
 3793.00    0.52376   0.50732    0.205
 3794.00    0.55079   0.49548    0.206
 3795.00    0.55114   0.48245    0.204
 3796.00    0.51853   0.47143    0.200
 3797.00    0.48545   0.46613    0.198
 3798.00    0.45184   0.46978    0.195
 3799.00    0.44450   0.48403    0.195
 3800.00    0.46238   0.50795    0.196
 3801.00    0.49722   0.53784    0.199
 3802.00    0.54643   0.56826    0.204
 3803.00    0.58822   0.59385    0.208
 3804.00    0.62447   0.61142    0.211
 3805.00    0.64916   0.62079    0.210
 3806.00    0.66627   0.62431    0.206
 3807.00    0.67135   0.62533    0.202
 3808.00    0.66953   0.62581    0.199
 3809.00    0.64323   0.62507    0.194
 3810.00    0.60470   0.62046    0.189
 3811.00    0.55583   0.60904    0.191
 3812.00    0.50249   0.58980    0.196
 3813.00    0.46754   0.56475    0.191
 3814.00    0.43941   0.53778    0.181
 3815.00    0.42121   0.51270    0.179
 3816.00    0.40613   0.49189    0.179
 3817.00    0.44686   0.47576    0.185
 3818.00    0.50222   0.46334    0.193
 3819.00    0.49831   0.45306    0.192
 3820.00    0.48170   0.44364    0.190
 3821.00    0.45915   0.43440    0.188
 3822.00    0.43561   0.42490    0.187
 3823.00    0.41861   0.41481    0.189
 3824.00    0.40247   0.40442    0.191
 3825.00    0.41771   0.39479    0.196
 3826.00    0.43576   0.38725    0.200
 3827.00    0.45448   0.38247    0.199
 3828.00    0.47324   0.37981    0.198
 3829.00    0.45548   0.37767    0.198
 3830.00    0.43700   0.37442    0.199
 3831.00    0.41881   0.36939    0.202
 3832.00    0.40157   0.36327    0.204
 3833.00    0.40540   0.35761    0.194
 3834.00    0.40784   0.35384    0.186
 3835.00    0.39311   0.35271    0.190
 3836.00    0.38174   0.35424    0.194
 3837.00    0.39884   0.35841    0.194
 3838.00    0.41771   0.36593    0.193
 3839.00    0.44771   0.37800    0.191
 3840.00    0.46150   0.39547    0.189
 3841.00    0.39533   0.41800    0.185
 3842.00    0.35294   0.44371    0.183
 3843.00    0.40577   0.46964    0.185
 3844.00    0.45180   0.49258    0.187
 3845.00    0.47525   0.50999    0.187
 3846.00    0.49547   0.52070    0.188
 3847.00    0.50664   0.52547    0.000
 3848.00    0.52323   0.52623    0.000
 3849.00    0.55281   0.52498    0.000
 3850.00    0.56197   0.52314    0.000
 3851.00    0.52881   0.52126    0.000
 3852.00    0.50654   0.51874    0.000
 3853.00    0.50394   0.51442    0.000
 3854.00    0.50919   0.50734    0.000
 3855.00    0.52684   0.49717    0.000
 3856.00    0.51722   0.48488    0.000
 3857.00    0.46984   0.47301    0.000
 3858.00    0.43826   0.46485    0.000
 3859.00    0.42591   0.46315    0.000
 3860.00    0.44507   0.46898    0.000
 3861.00    0.49807   0.48130    0.000
 3862.00    0.53085   0.49725    0.000
 3863.00    0.54448   0.51315    0.000
 3864.00    0.54707   0.52575    0.000
 3865.00    0.54044   0.53306    0.000
 3866.00    0.56079   0.53454    0.000
 3867.00    0.60098   0.53075    0.000
 3868.00    0.60428   0.52305    0.000
 3869.00    0.58375   0.51352    0.000
 3870.00    0.55461   0.50501    0.000
 3871.00    0.52061   0.50036    0.000
 3872.00    0.49371   0.50102    0.000
 3873.00    0.47029   0.50620    0.000
 3874.00    0.46996   0.51323    0.000
 3875.00    0.47945   0.51883    0.000
 3876.00    0.50428   0.52100    0.000
 3877.00    0.53469   0.51924    0.000
 3878.00    0.52962   0.51433    0.000
 3879.00    0.51361   0.50861    0.000
 3880.00    0.50199   0.50473    0.000
 3881.00    0.49149   0.50335    0.184
 3882.00    0.50189   0.50272    0.183
 3883.00    0.51665   0.50100    0.182
 3884.00    0.56955   0.49768    0.187
 3885.00    0.62875   0.49348    0.194
 3886.00    0.57203   0.49092    0.193
 3887.00    0.50095   0.49388    0.192
 3888.00    0.49860   0.50548    0.190
 3889.00    0.50213   0.52624    0.188
 3890.00    0.54818   0.55358    0.190
 3891.00    0.59635   0.58282    0.192
 3892.00    0.63862   0.60894    0.192
 3893.00    0.67990   0.62883    0.193
 3894.00    0.66367   0.64149    0.199
 3895.00    0.64839   0.64726    0.205
 3896.00    0.65242   0.64814    0.197
 3897.00    0.65789   0.64707    0.190
 3898.00    0.68041   0.64643    0.187
 3899.00    0.69977   0.64652    0.185
 3900.00    0.69347   0.64676    0.183
 3901.00    0.68168   0.64678    0.181
 3902.00    0.63641   0.64554    0.176
 3903.00    0.59437   0.64335    0.170
 3904.00    0.56787   0.64280    0.166
 3905.00    0.55480   0.64668    0.163
 3906.00    0.59432   0.65687    0.169
 3907.00    0.62680   0.67376    0.174
 3908.00    0.63634   0.69598    0.176
 3909.00    0.64245   0.72043    0.178
 3910.00    0.63913   0.74299    0.179
 3911.00    0.64902   0.76025    0.180
 3912.00    0.69012   0.77016    0.185
 3913.00    0.72045   0.77162    0.189
 3914.00    0.72880   0.76493    0.194
 3915.00    0.72441   0.75116    0.199
 3916.00    0.69738   0.73124    0.200
 3917.00    0.69448   0.70649    0.202
 3918.00    0.72909   0.67914    0.204
 3919.00    0.72137   0.65197    0.203
 3920.00    0.65591   0.62754    0.201
 3921.00    0.61494   0.60749    0.200
 3922.00    0.60339   0.59145    0.199
 3923.00    0.59817   0.57708    0.198
 3924.00    0.59965   0.56097    0.195
 3925.00    0.59020   0.53962    0.195
 3926.00    0.57054   0.51087    0.197
 3927.00    0.53486   0.47456    0.194
 3928.00    0.48597   0.43254    0.188
 3929.00    0.41708   0.38818    0.184
 3930.00    0.33367   0.34556    0.183
 3931.00    0.29456   0.30869    0.183
 3932.00    0.28363   0.28103    0.183
 3933.00    0.29790   0.26539    0.183
 3934.00    0.32619   0.26353    0.182
 3935.00    0.29973   0.27573    0.179
 3936.00    0.24679   0.30062    0.174
 3937.00    0.27052   0.33501    0.177
 3938.00    0.32632   0.37426    0.182
 3939.00    0.38746   0.41366    0.184
 3940.00    0.45052   0.44942    0.184
 3941.00    0.47419   0.47988    0.186
 3942.00    0.48594   0.50642    0.188
 3943.00    0.52796   0.53182    0.190
 3944.00    0.57759   0.55769    0.192
 3945.00    0.60905   0.58448    0.195
 3946.00    0.63680   0.61240    0.197
 3947.00    0.66363   0.64106    0.196
 3948.00    0.69030   0.66885    0.195
 3949.00    0.69364   0.69348    0.196
 3950.00    0.69419   0.71398    0.196
 3951.00    0.72726   0.73074    0.202
 3952.00    0.76299   0.74328    0.208
 3953.00    0.75375   0.75005    0.205
 3954.00    0.74245   0.75055    0.202
 3955.00    0.70244   0.74537    0.202
 3956.00    0.66430   0.73465    0.201
 3957.00    0.74317   0.71728    0.205
 3958.00    0.81106   0.69170    0.208
 3959.00    0.67069   0.65776    0.200
 3960.00    0.53833   0.61724    0.000
 3961.00    0.49616   0.57234    0.000
 3962.00    0.45725   0.52497    0.000
 3963.00    0.44394   0.47688    0.000
 3964.00    0.42844   0.42996    0.000
 3965.00    0.39995   0.38639    0.000
 3966.00    0.37878   0.34870    0.000
 3967.00    0.39197   0.31996    0.000
 3968.00    0.39045   0.30332    0.000
 3969.00    0.33252   0.30119    0.000
 3970.00    0.30098   0.31450    0.000
 3971.00    0.35377   0.34259    0.000
 3972.00    0.38962   0.38344    0.000
 3973.00    0.37957   0.43382    0.000
 3974.00    0.39938   0.48990    0.000
 3975.00    0.48853   0.54846    0.000
 3976.00    0.57407   0.60684    0.000
 3977.00    0.65236   0.66231    0.000
 3978.00    0.70638   0.71195    0.000
 3979.00    0.71794   0.75317    0.000
 3980.00    0.72653   0.78527    0.000
 3981.00    0.73057   0.80939    0.202
 3982.00    0.72385   0.82776    0.203
 3983.00    0.70267   0.84292    0.203
 3984.00    0.73232   0.85704    0.204
 3985.00    0.82218   0.87172    0.207
 3986.00    0.87240   0.88696    0.208
 3987.00    0.88124   0.90115    0.205
 3988.00    0.88035   0.91362    0.201
 3989.00    0.87049   0.92471    0.195
 3990.00    0.88465   0.93421    0.194
 3991.00    0.91832   0.94144    0.196
 3992.00    0.92962   0.94560    0.198
 3993.00    0.92495   0.94630    0.201
 3994.00    0.92607   0.94390    0.202
 3995.00    0.93084   0.94025    0.201
 3996.00    0.91838   0.93890    0.199
 3997.00    0.89649   0.94315    0.197
 3998.00    0.89154   0.95331    0.196
 3999.00    0.89466   0.96739    0.196
 4000.00    0.89183   0.98248    0.196
 4001.00    0.88655   0.99383    0.197
 4002.00    0.87361   0.99628    0.195
 4003.00    0.85797   0.98913    0.192
 4004.00    0.86863   0.97734    0.194
 4005.00    0.88709   0.96714    0.197
 4006.00    0.86704   0.96268    0.195
 4007.00    0.83753   0.96593    0.193
 4008.00    0.89168   0.97691    0.197
 4009.00    0.96246   0.99350    0.201
 4010.00    0.98498   1.01247    0.201
 4011.00    1.00000   1.03094    0.201
 4012.00    1.00255   1.04722    0.203
 4013.00    1.00367   1.06080    0.206
 4014.00    1.03147   1.07109    0.213
 4015.00    1.06133   1.07807    0.222
 4016.00    1.01671   1.08359    0.214
 4017.00    0.96894   1.08863    0.207
 4018.00    1.04721   1.09188    0.211
 4019.00    1.12422   1.09246    0.215
 4020.00    1.09636   1.09069    0.216
 4021.00    1.07071   1.08675    0.217
 4022.00    1.08401   1.08119    0.216
 4023.00    1.09494   1.07625    0.214
 4024.00    1.08042   1.07383    0.212
 4025.00    1.06508   1.07313    0.210
 4026.00    1.04349   1.07077    0.208
 4027.00    1.01646   1.06133    0.208
 4028.00    0.95798   1.04058    0.210
 4029.00    0.91547   1.00961    0.211
 4030.00    0.94614   0.97320    0.211
 4031.00    0.95127   0.93772    0.210
 4032.00    0.86063   0.91162    0.208
 4033.00    0.79612   0.90231    0.213
 4034.00    0.81350   0.91302    0.243
 4035.00    0.88884   0.94117    0.270
 4036.00    1.11839   0.97896    0.271
 4037.00    1.25275   1.01683    0.271
 4038.00    1.16972   1.04655    0.273
 4039.00    1.10369   1.06314    0.261
 4040.00    1.07126   1.06463    0.229
 4041.00    1.02584   1.04933    0.210
 4042.00    0.95803   1.01790    0.205
 4043.00    0.90528   0.97708    0.202
 4044.00    0.87524   0.93882    0.203
 4045.00    0.87663   0.91428    0.203
 4046.00    0.91966   0.90803    0.200
 4047.00    0.96395   0.91946    0.200
 4048.00    1.00971   0.94503    0.203
 4049.00    1.03472   0.97721    0.203
 4050.00    1.03837   1.00701    0.200
 4051.00    1.02034   1.02776    0.200
 4052.00    0.98263   1.03585    0.204
 4053.00    0.97510   1.03178    0.205
 4054.00    0.99173   1.01906    0.205
 4055.00    0.95185   1.00129    0.200
 4056.00    0.87218   0.98315    0.193
 4057.00    0.84099   0.96926    0.191
 4058.00    0.83975   0.96013    0.191
 4059.00    0.87963   0.95203    0.193
 4060.00    0.94169   0.94020    0.195
 4061.00    0.91373   0.92389    0.195
 4062.00    0.84358   0.90814    0.194
 4063.00    0.82312   0.89817    0.193
 4064.00    0.82273   0.89468    0.193
 4065.00    0.87032   0.89818    0.194
 4066.00    0.93445   0.91012    0.196
 4067.00    0.95834   0.92784    0.195
 4068.00    0.97053   0.94384    0.195
 4069.00    0.93548   0.95273    0.196
 4070.00    0.88907   0.95619    0.198
 4071.00    0.91147   0.95775    0.199
 4072.00    0.94720   0.95637    0.200
 4073.00    0.99405   0.95053    0.201
 4074.00    1.04259   0.94090    0.203
 4075.00    1.03761   0.93060    0.203
 4076.00    1.02671   0.92504    0.202
 4077.00    0.94226   0.92872    0.199
 4078.00    0.85243   0.94322    0.196
 4079.00    0.87945   0.96649    0.196
 4080.00    0.91095   0.99303    0.196
 4081.00    0.89099   1.01823    0.196
 4082.00    0.87336   1.04040    0.196
 4083.00    0.95482   1.05898    0.200
 4084.00    1.02987   1.07530    0.204
 4085.00    0.99910   1.09197    0.203
 4086.00    0.97344   1.10995    0.202
 4087.00    1.00041   1.12761    0.202
 4088.00    1.02724   1.14232    0.202
 4089.00    1.05301   1.15192    0.206
 4090.00    1.07774   1.15441    0.209
 4091.00    1.09661   1.14940    0.207
 4092.00    1.10822   1.13634    0.000
 4093.00    1.08739   1.11365    0.000
 4094.00    1.05455   1.08353    0.000
 4095.00    0.97764   1.05043    0.000
 4096.00    0.92592   1.01701    0.000
 4097.00    0.95167   0.98430    0.000
 4098.00    0.96230   0.95239    0.000
 4099.00    0.93344   0.92320    0.000
 4100.00    0.92442   0.90179    0.000
 4101.00    0.95994   0.89193    0.000
 4102.00    0.96778   0.89411    0.000
 4103.00    0.92173   0.90766    0.000
 4104.00    0.89301   0.93001    0.000
 4105.00    0.89369   0.95578    0.000
 4106.00    0.89770   0.97979    0.000
 4107.00    0.90666   0.99837    0.000
 4108.00    0.93776   1.00988    0.000
 4109.00    0.99781   1.01533    0.000
 4110.00    1.03745   1.01791    0.000
 4111.00    1.05363   1.02134    0.000
 4112.00    1.06916   1.02708    0.000
 4113.00    1.08403   1.03480    0.198
 4114.00    1.08016   1.04346    0.197
 4115.00    1.05951   1.05010    0.193
 4116.00    1.03457   1.05110    0.191
 4117.00    1.00624   1.04674    0.192
 4118.00    1.03204   1.04031    0.195
 4119.00    1.09541   1.03310    0.202
 4120.00    1.06322   1.02588    0.298
 4121.00    0.97290   1.02098    1.157
 4122.00    0.90771   1.02049   -1.000
 4123.00    0.85587   1.02332   -1.000
 4124.00    0.88936   1.02586   -1.000
 4125.00    0.96221   1.02520   -1.000
 4126.00    1.00605   1.01979   -1.000
 4127.00    1.03837   1.00947   -1.000
 4128.00    1.01338   0.99482    0.498
 4129.00    0.96900   0.97646    0.213
 4130.00    0.92596   0.95638    0.187
 4131.00    0.88330   0.93944    0.185
 4132.00    0.89074   0.93047    0.183
 4133.00    0.90994   0.93257    0.182
 4134.00    0.93926   0.94530    0.184
 4135.00    0.97048   0.96424    0.187
 4136.00    0.96769   0.98550    0.187
 4137.00    0.95993   1.00525    0.187
 4138.00    0.96227   1.01854    0.190
 4139.00    0.96567   1.02070    0.195
 4140.00    0.95691   1.00864    0.193
 4141.00    0.94730   0.98463    0.192
 4142.00    0.96755   0.95768    0.194
 4143.00    0.98883   0.93696    0.196
 4144.00    0.99380   0.92552    0.195
 4145.00    0.99726   0.92238    0.195
 4146.00    0.95216   0.92548    0.193
 4147.00    0.90788   0.93139    0.191
 4148.00    0.87613   0.93722    0.190
 4149.00    0.85137   0.94141    0.189
 4150.00    0.89548   0.94218    0.189
 4151.00    0.93281   0.93889    0.189
 4152.00    0.92190   0.93305    0.192
 4153.00    0.91882   0.92784    0.195
 4154.00    0.95845   0.92568    0.195
 4155.00    0.99132   0.92842    0.196
 4156.00    0.99463   0.93788    0.196
 4157.00    0.99953   0.95345    0.196
 4158.00    1.01016   0.97248    0.196
 4159.00    1.00092   0.99264    0.196
 4160.00    0.93171   1.01299    0.194
 4161.00    0.90334   1.03086    0.193
 4162.00    0.97984   1.04237    0.196
 4163.00    1.03081   1.04647    0.198
 4164.00    1.02542   1.04360    0.196
 4165.00    1.03274   1.03465    0.195
 4166.00    1.06445   1.02287    0.195
 4167.00    1.06278   1.01128    0.195
 4168.00    1.00533   0.99897    0.193
 4169.00    0.96615   0.98334    0.193
 4170.00    0.95372   0.96362    0.194
 4171.00    0.91248   0.94232    0.193
 4172.00    0.83410   0.92347    0.189
 4173.00    0.83966   0.90931    0.188
 4174.00    0.94044   0.89980    0.193
 4175.00    0.95702   0.89434    0.194
 4176.00    0.88933   0.89368    0.193
 4177.00    0.87428   0.89906    0.191
 4178.00    0.90569   0.90934    0.188
 4179.00    0.93847   0.92100    0.187
 4180.00    0.97231   0.93185    0.189
 4181.00    0.96747   0.94277    0.190
 4182.00    0.93619   0.95478    0.189
 4183.00    0.91099   0.96713    0.188
 4184.00    0.88945   0.97631    0.187
 4185.00    0.90084   0.97969    0.188
 4186.00    0.92947   0.98076    0.190
 4187.00    0.95920   0.98420    0.187
 4188.00    0.98942   0.98954    0.183
 4189.00    1.02794   0.99447    0.182
 4190.00    1.06970   0.99990    0.182
 4191.00    1.04680   1.00642    0.182
 4192.00    1.00242   1.01038    0.183
 4193.00    0.98833   1.00743    0.184
 4194.00    0.98268   0.99589    0.185
 4195.00    1.01483   0.97732    0.186
 4196.00    1.05564   0.95519    0.187
 4197.00    1.04336   0.93397    0.185
 4198.00    1.02132   0.91720    0.183
 4199.00    1.01890   0.90531    0.182
 4200.00    1.01926   0.89972    0.181
 4201.00    1.01290   0.90372    0.178
 4202.00    1.00585   0.91720    0.175
 4203.00    1.01457   0.93708    0.177
 4204.00    1.02432   0.96136    0.179
 4205.00    1.03053   0.98777    0.178
 4206.00    1.03656   1.01284    0.178
 4207.00    1.00374   1.03361    0.178
 4208.00    0.97399   1.04808    0.178
 4209.00    1.03468   1.05633    0.179
 4210.00    1.09255   1.05954    0.180
 4211.00    1.10927   1.05742    0.181
 4212.00    1.11945   1.04955    0.182
 4213.00    1.06769   1.03839    0.179
 4214.00    1.02184   1.03066    0.176
 4215.00    1.01657   1.03360    0.174
 4216.00    1.01737   1.04722    0.173
 4217.00    1.05037   1.06534    0.174
 4218.00    1.07891   1.08249    0.175
 4219.00    1.08843   1.09415    0.174
 4220.00    1.09636   1.09393    0.174
 4221.00    1.09872   1.07671    0.175
 4222.00    1.08676   1.04105    0.176
 4223.00    1.03243   0.98956    0.178
 4224.00    0.97412   0.93054    0.178
 4225.00    0.90576   0.87777    0.174
 4226.00    0.86938   0.84540    0.172
 4227.00    0.90245   0.83953    0.173
 4228.00    0.92818   0.85705    0.173
 4229.00    0.94004   0.89061    0.171
 4230.00    0.96719   0.93009    0.170
 4231.00    1.01950   0.96615    0.173
 4232.00    1.07129   0.99484    0.174
 4233.00    1.12233   1.01376    0.174
 4234.00    1.14262   1.02124    0.173
 4235.00    1.12387   1.02211    0.171
 4236.00    1.10151   1.02327    0.170
 4237.00    1.07511   1.02810    0.168
 4238.00    1.07538   1.03954    0.167
 4239.00    1.10197   1.05916    0.167
 4240.00    1.10493   1.08387    0.166
 4241.00    1.08732   1.11018    0.165
 4242.00    1.09461   1.13648    0.168
 4243.00    1.12098   1.15833    0.175
 4244.00    1.10733   1.16936    0.178
 4245.00    1.06670   1.16661    0.176
 4246.00    1.07725   1.15148    0.178
 4247.00    1.11800   1.12698    0.182
 4248.00    1.13527   1.09623    0.183
 4249.00    1.14044   1.06455    0.183
 4250.00    1.10969   1.03852    0.183
 4251.00    1.06290   1.02003    0.182
 4252.00    1.05623   1.00717    0.181
 4253.00    1.06495   1.00078    0.180
 4254.00    1.02826   1.00360    0.179
 4255.00    0.97678   1.01414    0.178
 4256.00    0.96884   1.02513    0.175
 4257.00    0.97280   1.03040    0.171
 4258.00    1.00847   1.03131    0.173
 4259.00    1.05125   1.03494    0.176
 4260.00    1.04848   1.04784    0.178
 4261.00    1.03756   1.07000    0.180
 4262.00    1.06227   1.09635    0.182
 4263.00    1.09185   1.12308    0.184
 4264.00    1.13654   1.14725    0.186
 4265.00    1.18271   1.16263    0.187
 4266.00    1.15509   1.16264    0.185
 4267.00    1.12296   1.14448    0.183
 4268.00    1.12470   1.10855    0.207
 4269.00    1.12705   1.05901    0.238
 4270.00    1.07219   1.00593    0.237
 4271.00    1.01553   0.96139    0.236
 4272.00    0.91167   0.93155    0.233
 4273.00    0.81838   0.91843    0.227
 4274.00    0.87053   0.92488    0.197
 4275.00    0.92698   0.95026    0.176
 4276.00    1.02254   0.98796    0.177
 4277.00    1.10463   1.02777    0.178
 4278.00    1.09689   1.05977    0.181
 4279.00    1.08809   1.08154    0.182
 4280.00    1.07375   1.09556    0.179
 4281.00    1.05807   1.10167    0.176
 4282.00    1.03676   1.09929   -2.000
 4283.00    1.02342   1.08918   -2.000
 4284.00    1.03756   1.07368   -2.000
 4285.00    1.04643   1.05685   -2.000
 4286.00    1.04001   1.03870   -2.000
 4287.00    1.04289   1.01614   -2.000
 4288.00    1.06879   0.99127   -2.000
 4289.00    1.08300   0.97173   -2.000
 4290.00    1.07218   0.96335   -2.000
 4291.00    1.04787   0.96452   -2.000
 4292.00    0.99851   0.96821   -2.000
 4293.00    0.98422   0.97063   -2.000
 4294.00    1.02680   0.97229   -2.000
 4295.00    1.03422   0.96968   -2.000
 4296.00    0.99163   0.95649   -2.000
 4297.00    0.94512   0.93027   -2.000
 4298.00    0.89370   0.89566    0.172
 4299.00    0.86667   0.86245    0.169
 4300.00    0.86654   0.83512    0.168
 4301.00    0.87722   0.81248    0.168
 4302.00    0.89841   0.79541    0.170
 4303.00    0.88062   0.78404    0.169
 4304.00    0.82937   0.77615    0.165
 4305.00    0.79957   0.76972    0.164
 4306.00    0.78596   0.76359    0.165
 4307.00    0.77949   0.76109    0.163
 4308.00    0.77776   0.76839    0.160
 4309.00    0.77563   0.78824    0.159
 4310.00    0.77327   0.82094    0.159
 4311.00    0.83068   0.86606    0.159
 4312.00    0.91838   0.92196    0.160
 4313.00    0.99960   0.98735    0.162
 4314.00    1.07798   1.06060    0.165
 4315.00    1.12378   1.13449    0.168
 4316.00    1.15729   1.19780    0.171
 4317.00    1.19684   1.24395    0.174
 4318.00    1.23831   1.27100    0.176
 4319.00    1.26917   1.27826    0.179
 4320.00    1.29718   1.26638    0.181
 4321.00    1.28146   1.23567    0.178
 4322.00    1.25618   1.18915    0.174
 4323.00    1.20141   1.13667    0.171
 4324.00    1.14151   1.09180    0.169
 4325.00    1.11223   1.06792    0.168
 4326.00    1.08700   1.07097    0.168
 4327.00    1.09985   1.09444    0.167
 4328.00    1.11627   1.12861    0.166
 4329.00    1.19227   1.16872    0.167
 4330.00    1.27168   1.21230    0.000
 4331.00    1.25970   1.25288    0.000
 4332.00    1.24564   1.28073    0.000
 4333.00    1.23750   1.29104    0.000
 4334.00    1.23068   1.28345    0.000
 4335.00    1.25540   1.25784    0.000
 4336.00    1.27291   1.21722    0.000
 4337.00    1.19654   1.17000    0.000
 4338.00    1.12492   1.12436    0.000
 4339.00    1.09477   1.08735    0.000
 4340.00    1.07221   1.06642    0.000
 4341.00    1.09869   1.06440    0.000
 4342.00    1.12665   1.07930    0.000
 4343.00    1.16205   1.10810    0.000
 4344.00    1.19764   1.14530    0.000
 4345.00    1.23402   1.18311    0.000
 4346.00    1.25598   1.21598    0.000
 4347.00    1.22918   1.24070    0.000
 4348.00    1.20829   1.25324    0.000
 4349.00    1.20428   1.24947    0.000
 4350.00    1.19392   1.23179    0.000
 4351.00    1.16804   1.21278   -1.000
 4352.00    1.14894   1.20218   -1.000
 4353.00    1.14410   1.19840   -1.000
 4354.00    1.14987   1.19926   -1.000
 4355.00    1.17507   1.20794   -1.000
 4356.00    1.21426   1.22478   -1.000
 4357.00    1.27579   1.24413   -1.000
 4358.00    1.32307   1.26247   -1.000
 4359.00    1.35036   1.28219   -1.000
 4360.00    1.38244   1.30366   -1.000
 4361.00    1.42044   1.32229   -1.000
 4362.00    1.42837   1.33683    0.705
 4363.00    1.40358   1.35045    0.228
 4364.00    1.37299   1.36124    0.172
 4365.00    1.33683   1.36186    0.174
 4366.00    1.32190   1.35049    0.174
 4367.00    1.32495   1.33338    0.173
 4368.00    1.30830   1.31547    0.173
 4369.00    1.27700   1.29574    0.173
 4370.00    1.25992   1.27389    0.173
 4371.00    1.25215   1.25194    0.173
 4372.00    1.24329   1.23084    0.173
 4373.00    1.23381   1.21153    0.171
 4374.00    1.22341   1.19750    0.171
 4375.00    1.21255   1.19243    0.171
 4376.00    1.19107   1.19322    0.171
 4377.00    1.16501   1.19116    0.172
 4378.00    1.15260   1.18156    0.171
 4379.00    1.14524   1.16490    0.170
 4380.00    1.17015   1.13970    0.171
 4381.00    1.20517   1.10134    0.172
 4382.00    1.16136   1.05329    0.172
 4383.00    1.09694   1.01158    0.172
 4384.00    1.08676   0.98997    0.168
 4385.00    1.08816   0.98791    0.164
 4386.00    1.10592   0.99737    0.165
 4387.00    1.12645   1.01555    0.167
 4388.00    1.12153   1.04331    0.166
 4389.00    1.11336   1.07657    0.165
 4390.00    1.13453   1.10872    0.167
 4391.00    1.15833   1.13549    0.169
 4392.00    1.17309   1.15642    0.169
 4393.00    1.18737   1.17370    0.169
 4394.00    1.21338   1.19163    0.171
 4395.00    1.23904   1.21361    0.172
 4396.00    1.21792   1.23454    0.170
 4397.00    1.19792   1.24509    0.168
 4398.00    1.20264   1.24263    0.168
 4399.00    1.20978   1.23213    0.167
 4400.00    1.24701   1.21975    0.171
 4401.00    1.27278   1.20233    0.174
 4402.00    1.20222   1.17170    0.173
 4403.00    1.14469   1.13371    0.172
 4404.00    1.16887   1.10553    0.171
 4405.00    1.18582   1.09539    0.170
 4406.00    1.16720   1.09676    0.169
 4407.00    1.15589   1.10462    0.168
 4408.00    1.17372   1.12471    0.166
 4409.00    1.19288   1.15887    0.164
 4410.00    1.21645   1.19650    0.166
 4411.00    1.24233   1.22592    0.168
 4412.00    1.27471   1.24245    0.170
 4413.00    1.30120   1.24667    0.172
 4414.00    1.31358   1.24425    0.172
 4415.00    1.32050   1.24279    0.172
 4416.00    1.31613   1.24497    0.174
 4417.00    1.31397   1.25068    0.174
 4418.00    1.31578   1.25964    0.171
 4419.00    1.31652   1.27035    0.170
 4420.00    1.31557   1.27913    0.170
 4421.00    1.32922   1.28253    0.171
 4422.00    1.36305   1.28311    0.172
 4423.00    1.36074   1.28249    0.171
 4424.00    1.31449   1.27786    0.169
 4425.00    1.29369   1.27099    0.168
 4426.00    1.30019   1.26753    0.170
 4427.00    1.30281   1.26870    0.170
 4428.00    1.30176   1.26796    0.168
 4429.00    1.28316   1.26155    0.167
 4430.00    1.24992   1.25554    0.165
 4431.00    1.25074   1.25148    0.167
 4432.00    1.27657   1.24393    0.170
 4433.00    1.29886   1.23258    0.173
 4434.00    1.31888   1.22545    0.176
 4435.00    1.29908   1.23088    0.175
 4436.00    1.25684   1.24593    0.172
 4437.00    1.25926   1.26245    0.171
 4438.00    1.28360   1.27727    0.169
 4439.00    1.29829   1.28872    0.168
 4440.00    1.30889   1.29536    0.168
 4441.00    1.29566   1.29768    0.168
 4442.00    1.27377   1.29931    0.169
 4443.00    1.27471   1.30505    0.170
 4444.00    1.28269   1.31548    0.171
 4445.00    1.30993   1.32748    0.172
 4446.00    1.34212   1.34060    0.173
 4447.00    1.40906   1.35592    0.173
 4448.00    1.48326   1.36734    0.173
 4449.00    1.46980   1.36767    0.173
 4450.00    1.44194   1.35771    0.173
 4451.00    1.42473   1.33981    0.170
 4452.00    1.40883   1.31344    0.168
 4453.00    1.35203   1.27872    0.167
 4454.00    1.29175   1.24229    0.166
 4455.00    1.22976   1.21222    0.164
 4456.00    1.16768   1.18741    0.163
 4457.00    1.20653   1.16542    0.164
 4458.00    1.24578   1.14974    0.166
 4459.00    1.20961   1.14349    0.163
 4460.00    1.17547   1.14514    0.161
 4461.00    1.18243   1.15452    0.000
 4462.00    1.19045   1.17267    0.000
 4463.00    1.21092   1.19379    0.000
 4464.00    1.23300   1.21267    0.000
 4465.00    1.26810   1.23080    0.000
 4466.00    1.30248   1.24997    0.000
 4467.00    1.33254   1.26714    0.000
 4468.00    1.35587   1.27938    0.000
 4469.00    1.34689   1.29190    0.000
 4470.00    1.34845   1.30986    0.000
 4471.00    1.39116   1.33287    0.000
 4472.00    1.41706   1.35826    0.000
 4473.00    1.38831   1.38253    0.000
 4474.00    1.36584   1.40368    0.000
 4475.00    1.36064   1.42181    0.000
 4476.00    1.37352   1.43481    0.000
 4477.00    1.42896   1.43716    0.000
 4478.00    1.45233   1.42625    0.000
 4479.00    1.41036   1.40800    0.000
 4480.00    1.37657   1.39143    0.000
 4481.00    1.35729   1.38119    0.000
 4482.00    1.35450   1.37826    0.160
 4483.00    1.37729   1.38144    0.161
 4484.00    1.40199   1.38939    0.162
 4485.00    1.42931   1.39997    0.162
 4486.00    1.43700   1.40762    0.163
 4487.00    1.42118   1.40689    0.163
 4488.00    1.40892   1.39730    0.164
 4489.00    1.40042   1.38417    0.164
 4490.00    1.39646   1.37207    0.163
 4491.00    1.39672   1.36026    0.162
 4492.00    1.40366   1.34691    0.162
 4493.00    1.41608   1.33477    0.163
 4494.00    1.41704   1.33042    0.163
 4495.00    1.40973   1.33497    0.162
 4496.00    1.41077   1.34544    0.162
 4497.00    1.41712   1.36091    0.161
 4498.00    1.41073   1.38128    0.160
 4499.00    1.39725   1.40499    0.159
 4500.00    1.44563   1.42978    0.161
 4501.00    1.52389   1.45812    0.166
 4502.00    1.54660   1.48923    0.165
 4503.00    1.54612   1.51510    0.163
 4504.00    1.54756   1.53208    0.162
 4505.00    1.54967   1.54322    0.161
 4506.00    1.52336   1.55105    0.161
 4507.00    1.48848   1.55392    0.162
 4508.00    1.49505   1.55036    0.160
 4509.00    1.51202   1.54201    0.159
 4510.00    1.50882   1.52982    0.158
 4511.00    1.50153   1.51388    0.158
 4512.00    1.45809   1.49646    0.158
 4513.00    1.40889   1.48050    0.158
 4514.00    1.41890   1.46782    0.159
 4515.00    1.43594   1.45821    0.160
 4516.00    1.46602   1.44989    0.160
 4517.00    1.49715   1.44496    0.160
 4518.00    1.45483   1.44697    0.159
 4519.00    1.40917   1.45224    0.157
 4520.00    1.43887   1.45292    0.159
 4521.00    1.46874   1.44364    0.160
 4522.00    1.46076   1.42735    0.159
 4523.00    1.45226   1.40719    0.159
 4524.00    1.43390   1.37910    0.159
 4525.00    1.41413   1.34242    0.159
 4526.00    1.37861   1.30397    0.158
 4527.00    1.34209   1.27103    0.158
 4528.00    1.29765   1.24614    0.155
 4529.00    1.26328   1.22920    0.153
 4530.00    1.28842   1.22165    0.154
 4531.00    1.31056   1.22508    0.155
 4532.00    1.31872   1.23474    0.156
 4533.00    1.32261   1.24670    0.156
 4534.00    1.31020   1.26312    0.156
 4535.00    1.31412   1.28825    0.157
 4536.00    1.37008   1.31892    0.159
 4537.00    1.41202   1.34440    0.159
 4538.00    1.41604   1.36204    0.156
 4539.00    1.42484   1.37637    0.154
 4540.00    1.44469   1.38956    0.154
 4541.00    1.45691   1.39912    0.154
 4542.00    1.45385   1.40091    0.155
 4543.00    1.44290   1.39432    0.156
 4544.00    1.41818   1.38579    0.157
 4545.00    1.41013   1.38200    0.157
 4546.00    1.42754   1.37953    0.156
 4547.00    1.43296   1.37184    0.156
 4548.00    1.42228   1.36075    0.157
 4549.00    1.40337   1.35503    0.157
 4550.00    1.37471   1.35507    0.000
 4551.00    1.36629   1.35362    0.000
 4552.00    1.37896   1.35139    0.000
 4553.00    1.39787   1.35417    0.000
 4554.00    1.42251   1.36423    0.000
 4555.00    1.44611   1.38067    0.000
 4556.00    1.46887   1.40163    0.000
 4557.00    1.47935   1.42323    0.000
 4558.00    1.48107   1.44233    0.000
 4559.00    1.49922   1.45811    0.000
 4560.00    1.52766   1.47024    0.000
 4561.00    1.52707   1.47562    0.000
 4562.00    1.51060   1.47097    0.000
 4563.00    1.48770   1.46058    0.000
 4564.00    1.46174   1.45282    0.000
 4565.00    1.47603   1.45139    0.000
 4566.00    1.50683   1.45402    0.000
 4567.00    1.50533   1.45751    0.000
 4568.00    1.49252   1.46242    0.000
 4569.00    1.49121   1.46777    0.000
 4570.00    1.49330   1.47016    0.000
 4571.00    1.49925   1.47265    0.000
 4572.00    1.50613   1.47778    0.000
 4573.00    1.48342   1.47840    0.000
 4574.00    1.45484   1.47213    0.000
 4575.00    1.47214   1.46617    0.000
 4576.00    1.49654   1.46167    0.000
 4577.00    1.48821   1.45090    0.000
 4578.00    1.47613   1.43137    0.000
 4579.00    1.46755   1.41053    0.000
 4580.00    1.45924   1.39517    0.000
 4581.00    1.46083   1.38528    0.000
 4582.00    1.46283   1.37780    0.000
 4583.00    1.45239   1.37407    0.000
 4584.00    1.44164   1.37729    0.000
 4585.00    1.42236   1.38632    0.000
 4586.00    1.40613   1.39894    0.000
 4587.00    1.44319   1.41246    0.000
 4588.00    1.47628   1.42340    0.000
 4589.00    1.46678   1.42859    0.000
 4590.00    1.45925   1.42786    0.000
 4591.00    1.46660   1.42340    0.000
 4592.00    1.46714   1.41614    0.000
 4593.00    1.42852   1.40515    0.000
 4594.00    1.40439   1.39198    0.000
 4595.00    1.44650   1.38174    0.000
 4596.00    1.47441   1.37661    0.000
 4597.00    1.44921   1.37526    0.000
 4598.00    1.42714   1.37579    0.000
 4599.00    1.41484   1.37582    0.000
 4600.00    1.41635   1.37761    0.000
 4601.00    1.45456   1.38360    0.000
 4602.00    1.47904   1.39127    0.000
 4603.00    1.47224   1.39906    0.000
 4604.00    1.47310   1.40919    0.000
 4605.00    1.48907   1.42533    0.000
 4606.00    1.50159   1.44678    0.000
 4607.00    1.50818   1.47047    0.000
 4608.00    1.51238   1.49190    0.000
 4609.00    1.51297   1.50818    0.000
 4610.00    1.51549   1.52017    0.000
 4611.00    1.52056   1.52856    0.000
 4612.00    1.52462   1.53207    0.000
 4613.00    1.52752   1.53238    0.000
 4614.00    1.52328   1.53200    0.000
 4615.00    1.51171   1.53151    0.000
 4616.00    1.51319   1.53324    0.000
 4617.00    1.52649   1.53583    0.000
 4618.00    1.53203   1.53632    0.000
 4619.00    1.53136   1.53756    0.000
 4620.00    1.55833   1.54092    0.000
 4621.00    1.60471   1.54094    0.000
 4622.00    1.61297   1.53820    0.000
 4623.00    1.59772   1.53707    0.000
 4624.00    1.56319   1.53480    0.000
 4625.00    1.51827   1.52993    0.000
 4626.00    1.52743   1.52686    0.000
 4627.00    1.56188   1.52404    0.000
 4628.00    1.58197   1.51727    0.000
 4629.00    1.59627   1.51172    0.000
 4630.00    1.57488   1.51060    0.000
 4631.00    1.54120   1.50521    0.000
 4632.00    1.54517   1.49183    0.000
 4633.00    1.56004   1.47866    0.000
 4634.00    1.52157   1.46811    0.000
 4635.00    1.47033   1.45399    0.000
 4636.00    1.47589   1.43580    0.000
 4637.00    1.49243   1.42019    0.000
 4638.00    1.47870   1.40854    0.000
 4639.00    1.46043   1.39834    0.000
 4640.00    1.44368   1.39096    0.000
 4641.00    1.42709   1.38459    0.000
 4642.00    1.40984   1.37509    0.000
 4643.00    1.39254   1.36363    0.000
 4644.00    1.37750   1.35242    0.000
 4645.00    1.36256   1.33918    0.000
 4646.00    1.37355   1.32678    0.000
 4647.00    1.38436   1.32181    0.000
 4648.00    1.38342   1.32486    0.000
 4649.00    1.38405   1.33279    0.000
 4650.00    1.41033   1.34526    0.000
 4651.00    1.43267   1.36229    0.000
 4652.00    1.41457   1.38009    0.000
 4653.00    1.40089   1.39373    0.000
 4654.00    1.41944   1.40462    0.000
 4655.00    1.43678   1.41645    0.000
 4656.00    1.44735   1.43003    0.000
 4657.00    1.45154   1.44452    0.000
 4658.00    1.42725   1.45827    0.000
 4659.00    1.41987   1.46838    0.000
 4660.00    1.47445   1.47096    0.000
 4661.00    1.51519   1.46348    0.000
 4662.00    1.51346   1.44556    0.000
 4663.00    1.50201   1.42083    0.000
 4664.00    1.46526   1.39126    0.000
 4665.00    1.43051   1.35656    0.000
 4666.00    1.40024   1.32354    0.000
 4667.00    1.37698   1.30405    0.000
 4668.00    1.36730   1.29977    0.000
 4669.00    1.36665   1.30372    0.000
 4670.00    1.38127   1.31456    0.000
 4671.00    1.39104   1.33347    0.000
 4672.00    1.39361   1.35598    0.000
 4673.00    1.40915   1.37601    0.000
 4674.00    1.44161   1.39213    0.000
 4675.00    1.45170   1.40399    0.000
 4676.00    1.43609   1.40801    0.000
 4677.00    1.41831   1.40456    0.000
 4678.00    1.39834   1.39936    0.000
 4679.00    1.39791   1.39444    0.000
 4680.00    1.41495   1.38758    0.000
 4681.00    1.42208   1.38163    0.000
 4682.00    1.42140   1.38124    0.000
 4683.00    1.41479   1.38388    0.000
 4684.00    1.40406   1.38671    0.000
 4685.00    1.41745   1.39071    0.000
 4686.00    1.44549   1.39415    0.000
 4687.00    1.44870   1.39528    0.000
 4688.00    1.43875   1.39592    0.000
 4689.00    1.44133   1.39598    0.000
 4690.00    1.44966   1.39463    0.000
 4691.00    1.43312   1.39529    0.000
 4692.00    1.40672   1.39861    0.000
 4693.00    1.41551   1.40096    0.000
 4694.00    1.43619   1.40253    0.000
 4695.00    1.45054   1.40391    0.000
 4696.00    1.46309   1.40002    0.000
 4697.00    1.44418   1.38844    0.000
 4698.00    1.41791   1.37565    0.000
 4699.00    1.40735   1.36554    0.000
 4700.00    1.39974   1.35344    0.000
 4701.00    1.37807   1.33862    0.000
 4702.00    1.35434   1.32821    0.000
 4703.00    1.39985   1.32687    0.000
 4704.00    1.45269   1.32846    0.000
 4705.00    1.40394   1.32799    0.000
 4706.00    1.34821   1.32853    0.000
 4707.00    1.35746   1.33371    0.000
 4708.00    1.36892   1.34013    0.000
 4709.00    1.38448   1.34610    0.000
 4710.00    1.39945   1.35471    0.000
 4711.00    1.39542   1.36500    0.000
 4712.00    1.39255   1.37394    0.000
 4713.00    1.40748   1.38282    0.000
 4714.00    1.42256   1.39708    0.000
 4715.00    1.43915   1.41639    0.000
 4716.00    1.45926   1.43469    0.000
 4717.00    1.50436   1.45125    0.000
 4718.00    1.54079   1.47134    0.000
 4719.00    1.53006   1.49328    0.000
 4720.00    1.52098   1.50845    0.000
 4721.00    1.51905   1.51413    0.000
 4722.00    1.51220   1.51444    0.000
 4723.00    1.48770   1.51105    0.000
 4724.00    1.47269   1.50075    0.000
 4725.00    1.48624   1.48082    0.000
 4726.00    1.48775   1.45374    0.000
 4727.00    1.45837   1.42754    0.000
 4728.00    1.43485   1.40611    0.000
 4729.00    1.42426   1.38755    0.000
 4730.00    1.41563   1.37328    0.000
 4731.00    1.41076   1.36818    0.000
 4732.00    1.41664   1.37194    0.000
 4733.00    1.44044   1.38166    0.000
 4734.00    1.43728   1.39495    0.000
 4735.00    1.39468   1.40597    0.000
 4736.00    1.39450   1.41550    0.000
 4737.00    1.44885   1.43006    0.000
 4738.00    1.49467   1.44458    0.000
 4739.00    1.53084   1.45058    0.000
 4740.00    1.54476   1.45495    0.000
 4741.00    1.53645   1.46616    0.000
 4742.00    1.54343   1.47750    0.000
 4743.00    1.56388   1.48183    0.000
 4744.00    1.58472   1.48492    0.000
 4745.00    1.60585   1.49372    0.000
 4746.00    1.61364   1.50270    0.000
 4747.00    1.61234   1.50457    0.000
 4748.00    1.58391   1.50351    0.000
 4749.00    1.53927   1.50388    0.000
 4750.00    1.53023   1.50051    0.000
 4751.00    1.53978   1.49028    0.000
 4752.00    1.53869   1.47894    0.000
 4753.00    1.53280   1.46888    0.000
 4754.00    1.52143   1.45924    0.000
 4755.00    1.50793   1.45045    0.000
 4756.00    1.49840   1.44353    0.000
 4757.00    1.49019   1.43752    0.000
 4758.00    1.50015   1.43297    0.000
 4759.00    1.51515   1.42820    0.000
 4760.00    1.50101   1.41783    0.000
 4761.00    1.48021   1.40258    0.140
 4762.00    1.47058   1.38925    0.140
 4763.00    1.46300   1.37749    0.139
 4764.00    1.45619   1.36375    0.140
 4765.00    1.44948   1.35363    0.141
 4766.00    1.43386   1.35371    0.140
 4767.00    1.41734   1.36078    0.139
 4768.00    1.44225   1.37197    0.140
 4769.00    1.46985   1.38787    0.140
 4770.00    1.48466   1.40459    0.141
 4771.00    1.49908   1.42033    0.142
 4772.00    1.51482   1.43855    0.141
 4773.00    1.52994   1.45767    0.140
 4774.00    1.52708   1.47008    0.138
 4775.00    1.52419   1.47748    0.136
 4776.00    1.52083   1.48728    0.137
 4777.00    1.51832   1.49473    0.137
 4778.00    1.52385   1.49176    0.137
 4779.00    1.52883   1.48388    0.136
 4780.00    1.53007   1.47726    0.138
 4781.00    1.52908   1.46529    0.138
 4782.00    1.51626   1.44727    0.136
 4783.00    1.50101   1.43432    0.134
 4784.00    1.47536   1.42604    0.133
 4785.00    1.45612   1.41420    0.133
 4786.00    1.45940   1.40610    0.135
 4787.00    1.46813   1.40848    0.136
 4788.00    1.49293   1.41342    0.136
 4789.00    1.50809   1.41921    0.135
 4790.00    1.49900   1.43243    0.134
 4791.00    1.49469   1.45007    0.133
 4792.00    1.50073   1.46734    0.134
 4793.00    1.51049   1.48519    0.134
 4794.00    1.52724   1.50036    0.135
 4795.00    1.53502   1.50828    0.136
 4796.00    1.52806   1.51158    0.136
 4797.00    1.51942   1.51156    0.137
 4798.00    1.50835   1.50646    0.137
 4799.00    1.51368   1.49895    0.138
 4800.00    1.53980   1.49433    0.139
 4801.00    1.55394   1.49270    0.139
 4802.00    1.55471   1.48992    0.137
 4803.00    1.54396   1.48469    0.137
 4804.00    1.52187   1.47957    0.137
 4805.00    1.50117   1.47636    0.136
 4806.00    1.48168   1.47031    0.136
 4807.00    1.47519   1.46149    0.135
 4808.00    1.47866   1.45708    0.134
 4809.00    1.48517   1.45858    0.134
 4810.00    1.49372   1.46068    0.134
 4811.00    1.50865   1.46412    0.135
 4812.00    1.52732   1.47221    0.136
 4813.00    1.53718   1.48275    0.137
 4814.00    1.54252   1.49282    0.137
 4815.00    1.54001   1.50307    0.136
 4816.00    1.53401   1.51335    0.135
 4817.00    1.53948   1.52131    0.136
 4818.00    1.54935   1.52527    0.138
 4819.00    1.54711   1.52462    0.138
 4820.00    1.54093   1.52046    0.138
 4821.00    1.54527   1.51194    0.137
 4822.00    1.55247   1.49714    0.136
 4823.00    1.54427   1.48225    0.136
 4824.00    1.53263   1.47362    0.135
 4825.00    1.51079   1.46694    0.134
 4826.00    1.48713   1.45780    0.134
 4827.00    1.49413   1.45074    0.135
 4828.00    1.50529   1.44989    0.136
 4829.00    1.50967   1.45133    0.136
 4830.00    1.51338   1.44821    0.136
 4831.00    1.49529   1.44269    0.136
 4832.00    1.47588   1.44367    0.137
 4833.00    1.47739   1.44880    0.137
 4834.00    1.47943   1.44891    0.137
 4835.00    1.47488   1.44609    0.136
 4836.00    1.47023   1.44799    0.134
 4837.00    1.46310   1.44916    0.134
 4838.00    1.45833   1.44280    0.134
 4839.00    1.48597   1.43540    0.135
 4840.00    1.50780   1.43405    0.136
 4841.00    1.47721   1.43318    0.134
 4842.00    1.45425   1.42859    0.132
 4843.00    1.48192   1.42808    0.134
 4844.00    1.50283   1.43439    0.136
 4845.00    1.48888   1.43972    0.136
 4846.00    1.47866   1.43991    0.136
 4847.00    1.48403   1.43800    0.137
 4848.00    1.49014   1.43774    0.000
 4849.00    1.49882   1.43707    0.000
 4850.00    1.50086   1.42892    0.000
 4851.00    1.48369   1.41565    0.000
 4852.00    1.47105   1.40470    0.000
 4853.00    1.46967   1.39016    0.000
 4854.00    1.45488   1.36561    0.000
 4855.00    1.41151   1.34044    0.000
 4856.00    1.37289   1.31855    0.000
 4857.00    1.34307   1.29190    0.000
 4858.00    1.31141   1.26240    0.000
 4859.00    1.27679   1.23689    0.000
 4860.00    1.26485   1.21662    0.000
 4861.00    1.28513   1.20625    0.000
 4862.00    1.30986   1.20650    0.000
 4863.00    1.34013   1.21026    0.000
 4864.00    1.34085   1.22118    0.000
 4865.00    1.30904   1.24204    0.000
 4866.00    1.30174   1.26057    0.000
 4867.00    1.31825   1.27082    0.000
 4868.00    1.32004   1.28124    0.000
 4869.00    1.30923   1.28768    0.000
 4870.00    1.32472   1.28280    0.000
 4871.00    1.36005   1.27985    0.000
 4872.00    1.37719   1.28781    0.000
 4873.00    1.38226   1.29570    0.000
 4874.00    1.38332   1.30267    0.000
 4875.00    1.38204   1.32031    0.138
 4876.00    1.38845   1.34308    0.137
 4877.00    1.39876   1.36008    0.137
 4878.00    1.41857   1.37705    0.138
 4879.00    1.44254   1.39182    0.138
 4880.00    1.45492   1.39396    0.138
 4881.00    1.46295   1.39012    0.138
 4882.00    1.44350   1.38790    0.138
 4883.00    1.41530   1.37783    0.138
 4884.00    1.38678   1.35838    0.137
 4885.00    1.35819   1.34144    0.136
 4886.00    1.37969   1.32936    0.137
 4887.00    1.41213   1.31805    0.140
 4888.00    1.38524   1.31069    0.138
 4889.00    1.34807   1.30929    0.135
 4890.00    1.37836   1.31424    0.134
 4891.00    1.41753   1.33264    0.134
 4892.00    1.41593   1.36122    0.134
 4893.00    1.41054   1.39088    0.134
 4894.00    1.43959   1.42201    0.135
 4895.00    1.47060   1.45415    0.135
 4896.00    1.46226   1.48078    0.136
 4897.00    1.45354   1.49867    0.136
 4898.00    1.50037   1.50562    0.137
 4899.00    1.54363   1.50339    0.139
 4900.00    1.50226   1.50048    0.135
 4901.00    1.46569   1.49599    0.132
 4902.00    1.49115   1.48549    0.134
 4903.00    1.51280   1.47687    0.135
 4904.00    1.50135   1.47557    0.135
 4905.00    1.48996   1.47327    0.135
 4906.00    1.47895   1.46518    0.135
 4907.00    1.46739   1.45746    0.134
 4908.00    1.45304   1.45091    0.133
 4909.00    1.44373   1.44154    0.132
 4910.00    1.45495   1.43290    0.132
 4911.00    1.46384   1.42874    0.132
 4912.00    1.46488   1.42523    0.133
 4913.00    1.46852   1.42017    0.133
 4914.00    1.47957   1.41514    0.132
 4915.00    1.47935   1.40614    0.131
 4916.00    1.45168   1.38861    0.131
 4917.00    1.42118   1.36455    0.130
 4918.00    1.38476   1.33857    0.129
 4919.00    1.35197   1.31349    0.128
 4920.00    1.32579   1.29510    0.129
 4921.00    1.31844   1.28941    0.128
 4922.00    1.34113   1.29390    0.126
 4923.00    1.36903   1.30566    0.126
 4924.00    1.40424   1.32924    0.127
 4925.00    1.43214   1.36330    0.129
 4926.00    1.45103   1.39536    0.129
 4927.00    1.46242   1.42302    0.129
 4928.00    1.46567   1.45003    0.128
 4929.00    1.48091   1.46912    0.128
 4930.00    1.50763   1.47794    0.128
 4931.00    1.51369   1.47988    0.129
 4932.00    1.50231   1.47078    0.129
 4933.00    1.46388   1.45363    0.128
 4934.00    1.40533   1.43831    0.127
 4935.00    1.38184   1.42202    0.126
 4936.00    1.38125   1.40220    0.126
 4937.00    1.38946   1.38718    0.126
 4938.00    1.40272   1.38278    0.125
 4939.00    1.40130   1.38825    0.125
 4940.00    1.39257   1.39966    0.000
 4941.00    1.41499   1.41372    0.000
 4942.00    1.45083   1.43458    0.000
 4943.00    1.47076   1.46062    0.000
 4944.00    1.48483   1.48082    0.000
 4945.00    1.49620   1.49530    0.000
 4946.00    1.50673   1.51178    0.000
 4947.00    1.52331   1.52512    0.000
 4948.00    1.54146   1.52930    0.000
 4949.00    1.54828   1.52993    0.000
 4950.00    1.55268   1.53009    0.000
 4951.00    1.55431   1.52286    0.000
 4952.00    1.55548   1.50526    0.000
 4953.00    1.55393   1.48302    0.000
 4954.00    1.55204   1.46137    0.000
 4955.00    1.49867   1.43708    0.000
 4956.00    1.44074   1.40730    0.000
 4957.00    1.43202   1.38660    0.000
 4958.00    1.42589   1.38335    0.000
 4959.00    1.42826   1.38423    0.000
 4960.00    1.43075   1.38377    0.000
 4961.00    1.42941   1.39101    0.000
 4962.00    1.42838   1.40468    0.000
 4963.00    1.43406   1.41089    0.000
 4964.00    1.43836   1.40782    0.000
 4965.00    1.42573   1.40546    0.000
 4966.00    1.41485   1.40509    0.000
 4967.00    1.41867   1.40187    0.000
 4968.00    1.42128   1.40026    0.000
 4969.00    1.41633   1.40481    0.000
 4970.00    1.41452   1.41334    0.000
 4971.00    1.42808   1.42298    0.000
 4972.00    1.44168   1.43234    0.000
 4973.00    1.45539   1.43995    0.000
 4974.00    1.46855   1.44201    0.000
 4975.00    1.47987   1.43779    0.000
 4976.00    1.48348   1.42782    0.000
 4977.00    1.46554   1.40910    0.000
 4978.00    1.44475   1.38392    0.000
 4979.00    1.41712   1.35908    0.000
 4980.00    1.39651   1.33347    0.000
 4981.00    1.39037   1.30524    0.000
 4982.00    1.37467   1.28466    0.000
 4983.00    1.34178   1.27713    0.000
 4984.00    1.32888   1.27486    0.000
 4985.00    1.34739   1.27829    0.000
 4986.00    1.36674   1.29285    0.000
 4987.00    1.38725   1.31167    0.000
 4988.00    1.40121   1.32849    0.000
 4989.00    1.40722   1.34389    0.000
 4990.00    1.41695   1.35717    0.000
 4991.00    1.43065   1.36861    0.000
 4992.00    1.42061   1.37509    0.000
 4993.00    1.38813   1.37583    0.000
 4994.00    1.38770   1.37682    0.000
 4995.00    1.41393   1.37546    0.000
 4996.00    1.42029   1.36768    0.000
 4997.00    1.41209   1.35745    0.000
 4998.00    1.40698   1.34459    0.000
 4999.00    1.40385   1.32767    0.000
 5000.00    1.38142   1.31029    0.000
 5001.00    1.34812   1.29275    0.000
 5002.00    1.35282   1.27536    0.000
 5003.00    1.37613   1.26242    0.000
 5004.00    1.39158   1.25256    0.000
 5005.00    1.40370   1.24353    0.000
 5006.00    1.39787   1.24102    0.000
 5007.00    1.38553   1.24447    0.000
 5008.00    1.38061   1.24484    0.000
 5009.00    1.37796   1.24291    0.000
 5010.00    1.35267   1.24240    0.000
 5011.00    1.32161   1.23832    0.000
 5012.00    1.32077   1.22958    0.000
 5013.00    1.32620   1.22015    0.000
 5014.00    1.30829   1.21382    0.000
 5015.00    1.28656   1.21120    0.000
 5016.00    1.27980   1.20950    0.000
 5017.00    1.27489   1.20999    0.000
 5018.00    1.27839   1.21657    0.000
 5019.00    1.28260   1.22658    0.000
 5020.00    1.29450   1.23462    0.000
 5021.00    1.30678   1.24230    0.000
 5022.00    1.30969   1.25389    0.000
 5023.00    1.31205   1.26547    0.000
 5024.00    1.28894   1.27453    0.000
 5025.00    1.26771   1.28574    0.000
 5026.00    1.28413   1.29680    0.000
 5027.00    1.30242   1.30737    0.000
 5028.00    1.34256   1.32175    0.000
 5029.00    1.37755   1.33581    0.123
 5030.00    1.37096   1.34624    0.123
 5031.00    1.36628   1.35571    0.122
 5032.00    1.37321   1.36298    0.123
 5033.00    1.37839   1.36287    0.123
 5034.00    1.37513   1.35272    0.122
 5035.00    1.36725   1.33626    0.122
 5036.00    1.34137   1.31819    0.122
 5037.00    1.32172   1.29584    0.122
 5038.00    1.32227   1.27184    0.122
 5039.00    1.31523   1.25397    0.122
 5040.00    1.28732   1.24294    0.122
 5041.00    1.27463   1.24267    0.122
 5042.00    1.29771   1.25405    0.123
 5043.00    1.31842   1.26937    0.123
 5044.00    1.33432   1.28761    0.123
 5045.00    1.34048   1.30980    0.122
 5046.00    1.32940   1.32626    0.122
 5047.00    1.33394   1.33157    0.121
 5048.00    1.36268   1.33343    0.122
 5049.00    1.37083   1.33502    0.122
 5050.00    1.35099   1.33271    0.123
 5051.00    1.33790   1.33021    0.124
 5052.00    1.33290   1.33462    0.124
 5053.00    1.33943   1.34530    0.124
 5054.00    1.35815   1.35833    0.123
 5055.00    1.37138   1.37276    0.124
 5056.00    1.37951   1.38939    0.125
 5057.00    1.40155   1.40576    0.126
 5058.00    1.43502   1.41706    0.127
 5059.00    1.43988   1.42313    0.126
 5060.00    1.42407   1.42461    0.125
 5061.00    1.40882   1.42034    0.124
 5062.00    1.39392   1.41094    0.125
 5063.00    1.37976   1.39490    0.125
 5064.00    1.36603   1.37536    0.125
 5065.00    1.36027   1.36031    0.125
 5066.00    1.35835   1.34687    0.125
 5067.00    1.35359   1.33113    0.125
 5068.00    1.34764   1.32132    0.125
 5069.00    1.33814   1.32109    0.124
 5070.00    1.32737   1.31956    0.123
 5071.00    1.32662   1.31403    0.124
 5072.00    1.32888   1.31444    0.125
 5073.00    1.31266   1.31742    0.126
 5074.00    1.29181   1.31136    0.126
 5075.00    1.29258   1.30010    0.125
 5076.00    1.29773   1.29300    0.124
 5077.00    1.28053   1.28382    0.123
 5078.00    1.25979   1.26576    0.121
 5079.00    1.26700   1.25016    0.121
 5080.00    1.27751   1.24448    0.121
 5081.00    1.27644   1.24077    0.122
 5082.00    1.27443   1.23800    0.123
 5083.00    1.26848   1.24498    0.121
 5084.00    1.26234   1.26033    0.119
 5085.00    1.28290   1.27584    0.119
 5086.00    1.30378   1.29157    0.119
 5087.00    1.32527   1.31005    0.120
 5088.00    1.34545   1.32858    0.121
 5089.00    1.34108   1.34328    0.119
 5090.00    1.33883   1.35379    0.118
 5091.00    1.36008   1.36195    0.118
 5092.00    1.37769   1.36680    0.119
 5093.00    1.36702   1.36504    0.120
 5094.00    1.35700   1.35680    0.120
 5095.00    1.35082   1.34533    0.118
 5096.00    1.34137   1.33263    0.117
 5097.00    1.31664   1.31758    0.117
 5098.00    1.29770   1.30221    0.118
 5099.00    1.30083   1.29276    0.117
 5100.00    1.30407   1.28840    0.116
 5101.00    1.30769   1.28505    0.117
 5102.00    1.30516   1.28361    0.117
 5103.00    1.28607   1.28384    0.117
 5104.00    1.27182   1.28379    0.117
 5105.00    1.26875   1.28175    0.117
 5106.00    1.26827   1.27652    0.117
 5107.00    1.27301   1.27323    0.117
 5108.00    1.28125   1.27322    0.117
 5109.00    1.29560   1.27200    0.117
 5110.00    1.30321   1.27590    0.117
 5111.00    1.30057   1.28705    0.118
 5112.00    1.30285   1.29812    0.119
 5113.00    1.31171   1.31164    0.120
 5114.00    1.32438   1.32823    0.120
 5115.00    1.34154   1.34105    0.120
 5116.00    1.35047   1.35016    0.120
 5117.00    1.35081   1.35592    0.120
 5118.00    1.34761   1.35439    0.120
 5119.00    1.34116   1.34485    0.120
 5120.00    1.33347   1.33036    0.121
 5121.00    1.32477   1.31261    0.122
 5122.00    1.31982   1.29035    0.122
 5123.00    1.31754   1.26735    0.122
 5124.00    1.30348   1.24957    0.122
 5125.00    1.28207   1.23538    0.122
 5126.00    1.27939   1.22419    0.122
 5127.00    1.28692   1.22086    0.123
 5128.00    1.27695   1.22377    0.122
 5129.00    1.25866   1.22886    0.120
 5130.00    1.27104   1.23850    0.120
 5131.00    1.29596   1.25181    0.122
 5132.00    1.30063   1.26219    0.121
 5133.00    1.29822   1.27079    0.121
 5134.00    1.29357   1.27988    0.120
 5135.00    1.28825   1.28185    0.120
 5136.00    1.29567   1.27911    0.121
 5137.00    1.30619   1.27693    0.122
 5138.00    1.31424   1.26786    0.123
 5139.00    1.32180   1.25821    0.123
 5140.00    1.30856   1.25418    0.122
 5141.00    1.29211   1.24458    0.120
 5142.00    1.27845   1.23507    0.121
 5143.00    1.26511   1.23410    0.121
 5144.00    1.25653   1.23016    0.120
 5145.00    1.24831   1.22349    0.120
 5146.00    1.25170   1.22195    0.120
 5147.00    1.25557   1.22063    0.119
 5148.00    1.23969   1.21819    0.118
 5149.00    1.22409   1.21746    0.118
 5150.00    1.22735   1.21787    0.118
 5151.00    1.23130   1.22105    0.119
 5152.00    1.24731   1.22686    0.119
 5153.00    1.26016   1.23466    0.120
 5154.00    1.23941   1.24638    0.118
 5155.00    1.22472   1.25997    0.117
 5156.00    1.25560   1.27416    0.118
 5157.00    1.28229   1.28734    0.119
 5158.00    1.28496   1.29403    0.118
 5159.00    1.28413   1.29536    0.117
 5160.00    1.26737   1.28983    0.116
 5161.00    1.25138   1.27032    0.116
 5162.00    1.23828   1.24112    0.116
 5163.00    1.22043   1.20587    0.116
 5164.00    1.18780   1.16126    0.115
 5165.00    1.14489   1.11288    0.113
 5166.00    1.07475   1.06783    0.113
 5167.00    1.02327   1.02571    0.112
 5168.00    1.01421   0.98990    0.112
 5169.00    1.00509   0.96728    0.111
 5170.00    0.99582   0.95640    0.111
 5171.00    0.99319   0.95346    0.111
 5172.00    1.00196   0.96239    0.111
 5173.00    1.01672   0.98466    0.111
 5174.00    1.04048   1.01157    0.112
 5175.00    1.06420   1.03800    0.113
 5176.00    1.08785   1.06593    0.112
 5177.00    1.11328   1.09066    0.112
 5178.00    1.14079   1.10294    0.113
 5179.00    1.14805   1.10309    0.112
 5180.00    1.13454   1.09806    0.112
 5181.00    1.11473   1.08883    0.111
 5182.00    1.08924   1.07459    0.111
 5183.00    1.07636   1.06567    0.111
 5184.00    1.07356   1.06855    0.112
 5185.00    1.08398   1.07910    0.112
 5186.00    1.10368   1.09760    0.111
 5187.00    1.13271   1.12073    0.111
 5188.00    1.16747   1.14366    0.114
 5189.00    1.19161   1.16761    0.114
 5190.00    1.21005   1.18418    0.000
 5191.00    1.21417   1.19017    0.000
 5192.00    1.21161   1.19865    0.000
 5193.00    1.20603   1.20745    0.000
 5194.00    1.19925   1.20927    0.000
 5195.00    1.21640   1.21621    0.000
 5196.00    1.24178   1.23034    0.000
 5197.00    1.24604   1.24005    0.000
 5198.00    1.24420   1.24760    0.000
 5199.00    1.25425   1.25619    0.000
 5200.00    1.26715   1.25656    0.000
 5201.00    1.27742   1.24645    0.000
 5202.00    1.28720   1.23354    0.000
 5203.00    1.26107   1.21556    0.000
 5204.00    1.22958   1.18896    0.000
 5205.00    1.21043   1.16615    0.000
 5206.00    1.19262   1.15153    0.000
 5207.00    1.15810   1.13843    0.000
 5208.00    1.12237   1.13533    0.000
 5209.00    1.18176   1.14684    0.000
 5210.00    1.24471   1.16320    0.000
 5211.00    1.22484   1.18371    0.120
 5212.00    1.20587   1.21018    0.119
 5213.00    1.23394   1.23601    0.118
 5214.00    1.26192   1.25791    0.117
 5215.00    1.28829   1.27736    0.118
 5216.00    1.31260   1.29353    0.119
 5217.00    1.31578   1.30588    0.119
 5218.00    1.31768   1.31465    0.120
 5219.00    1.31026   1.31846    0.119
 5220.00    1.30632   1.31746    0.118
 5221.00    1.32179   1.31177    0.119
 5222.00    1.32873   1.29861    0.119
 5223.00    1.29780   1.28001    0.118
 5224.00    1.26654   1.26312    0.117
 5225.00    1.23414   1.24635    0.115
 5226.00    1.21754   1.23025    0.114
 5227.00    1.24930   1.22619    0.116
 5228.00    1.27531   1.22975    0.117
 5229.00    1.28636   1.23404    0.116
 5230.00    1.28628   1.24805    0.116
 5231.00    1.26130   1.26592    0.115
 5232.00    1.25870   1.27924    0.115
 5233.00    1.29946   1.29576    0.116
 5234.00    1.32868   1.31333    0.116
 5235.00    1.33842   1.32731    0.115
 5236.00    1.34327   1.34280    0.114
 5237.00    1.34089   1.35902    0.114
 5238.00    1.34785   1.37208    0.114
 5239.00    1.36698   1.38259    0.114
 5240.00    1.38405   1.39159    0.114
 5241.00    1.39876   1.39679    0.114
 5242.00    1.39667   1.39507    0.114
 5243.00    1.37759   1.38937    0.113
 5244.00    1.35994   1.38288    0.113
 5245.00    1.34356   1.37044    0.114
 5246.00    1.33146   1.35231    0.113
 5247.00    1.32272   1.33823    0.112
 5248.00    1.31728   1.32605    0.112
 5249.00    1.31414   1.31124    0.113
 5250.00    1.31409   1.30284    0.114
 5251.00    1.31592   1.30200    0.115
 5252.00    1.32345   1.30351    0.115
 5253.00    1.33400   1.30932    0.115
 5254.00    1.33300   1.31858    0.115
 5255.00    1.32669   1.32952    0.116
 5256.00    1.33022   1.33956    0.117
 5257.00    1.33764   1.34382    0.117
 5258.00    1.34172   1.34196    0.118
 5259.00    1.34468   1.33249    0.118
 5260.00    1.31733   1.31324    0.118
 5261.00    1.28141   1.28494    0.118
 5262.00    1.24464   1.24906    0.118
 5263.00    1.20767   1.21241    0.119
 5264.00    1.16776   1.17726    0.118
 5265.00    1.12731   1.14077    0.117
 5266.00    1.12657   1.11408    0.119
 5267.00    1.13158   1.10141    0.120
 5268.00    1.14378   1.09064    0.119
 5269.00    1.15673   1.08918    0.119
 5270.00    1.14667   1.10628    0.119
 5271.00    1.13504   1.12605    0.119
 5272.00    1.16168   1.14748    0.119
 5273.00    1.18961   1.18172    0.119
 5274.00    1.25581   1.21602    0.119
 5275.00    1.31982   1.24427    0.120
 5276.00    1.31213   1.27496    0.119
 5277.00    1.30672   1.30099    0.119
 5278.00    1.33594   1.31835    0.119
 5279.00    1.36181   1.33252    0.119
 5280.00    1.35507   1.34173    0.119
 5281.00    1.34864   1.34792    0.118
 5282.00    1.34432   1.35466    0.117
 5283.00    1.34172   1.36148    0.116
 5284.00    1.34847   1.37259    0.116
 5285.00    1.35785   1.38836    0.117
 5286.00    1.37871   1.40439    0.117
 5287.00    1.39734   1.42139    0.116
 5288.00    1.40804   1.43803    0.115
 5289.00    1.41946   1.44954    0.115
 5290.00    1.43304   1.45501    0.115
 5291.00    1.44065   1.45449    0.115
 5292.00    1.43298   1.44683    0.115
 5293.00    1.42219   1.43254    0.115
 5294.00    1.40452   1.41373    0.115
 5295.00    1.39004   1.39323    0.115
 5296.00    1.38162   1.37244    0.115
 5297.00    1.36548   1.35379    0.115
 5298.00    1.33646   1.34296    0.113
 5299.00    1.31957   1.33983    0.112
 5300.00    1.32040   1.34183    0.112
 5301.00    1.32786   1.35315    0.112
 5302.00    1.34384   1.37192    0.112
 5303.00    1.35829   1.39127    0.112
 5304.00    1.37102   1.41235    0.112
 5305.00    1.38755   1.43437    0.112
 5306.00    1.40786   1.45183    0.112
 5307.00    1.42507   1.46559    0.112
 5308.00    1.43956   1.47698    0.111
 5309.00    1.44344   1.48286    0.112
 5310.00    1.43911   1.48466    0.115
 5311.00    1.43547   1.48470    0.115
 5312.00    1.43232   1.48041    0.114
 5313.00    1.42418   1.47351    0.114
 5314.00    1.41306   1.46677    0.115
 5315.00    1.41092   1.45740    0.115
 5316.00    1.41347   1.44694    0.114
 5317.00    1.42054   1.43779    0.114
 5318.00    1.42966   1.42678    0.114
 5319.00    1.41636   1.41401    0.113
 5320.00    1.39436   1.39984    0.113
 5321.00    1.37251   1.38288    0.113
 5322.00    1.35070   1.36371    0.113
 5323.00    1.35703   1.34039    0.114
 5324.00    1.37115   1.31502    0.115
 5325.00    1.34078   1.29320    0.115
 5326.00    1.30028   1.27253    0.114
 5327.00    1.27063   1.25459    0.114
 5328.00    1.24296   1.24841    0.114
 5329.00    1.23852   1.25179    0.113
 5330.00    1.23734   1.26050    0.111
 5331.00    1.27306   1.27854    0.112
 5332.00    1.31250   1.30235    0.113
 5333.00    1.32066   1.32543    0.113
 5334.00    1.32680   1.34711    0.112
 5335.00    1.35150   1.36414    0.112
 5336.00    1.37667   1.37379    0.112
 5337.00    1.37158   1.37885    0.113
 5338.00    1.36642   1.37927    0.113
 5339.00    1.35953   1.37362    0.112
 5340.00    1.35286   1.36857    0.110
 5341.00    1.34953   1.36632    0.110
 5342.00    1.34638   1.36184    0.110
 5343.00    1.34498   1.36074    0.110
 5344.00    1.34435   1.36392    0.110
 5345.00    1.34907   1.36485    0.110
 5346.00    1.35069   1.36894    0.110
 5347.00    1.33598   1.37607    0.109
 5348.00    1.32666   1.38186    0.108
 5349.00    1.34024   1.39228    0.108
 5350.00    1.35428   1.40711    0.108
 5351.00    1.36995   1.42247    0.109
 5352.00    1.38624   1.44008    0.109
 5353.00    1.40433   1.46009    0.110
 5354.00    1.42125   1.47882    0.110
 5355.00    1.43526   1.49333    0.109
 5356.00    1.45233   1.50519    0.109
 5357.00    1.47605   1.51279    0.109
 5358.00    1.48805   1.51277    0.109
 5359.00    1.47805   1.50854    0.109
 5360.00    1.46393   1.49985    0.109
 5361.00    1.44305   1.48491    0.110
 5362.00    1.42265   1.46868    0.110
 5363.00    1.40294   1.45036    0.110
 5364.00    1.38779   1.42845    0.109
 5365.00    1.37843   1.40867    0.108
 5366.00    1.35988   1.38912    0.108
 5367.00    1.33110   1.36866    0.109
 5368.00    1.31081   1.35364   -2.000
 5369.00    1.29887   1.34266   -2.000
 5370.00    1.29499   1.33483   -2.000
 5371.00    1.29811   1.33604   -2.000
 5372.00    1.30285   1.34469   -2.000
 5373.00    1.30881   1.35604   -2.000
 5374.00    1.31938   1.37314   -2.000
 5375.00    1.33303   1.39347   -2.000
 5376.00    1.35421   1.40927   -2.000
 5377.00    1.37981   1.42347   -2.000
 5378.00    1.39294   1.43583   -2.000
 5379.00    1.39967   1.44044   -2.000
 5380.00    1.38502   1.44228   -2.000
 5381.00    1.36086   1.44368   -2.000
 5382.00    1.38326   1.43985   -2.000
 5383.00    1.42343   1.43524    0.111
 5384.00    1.40685   1.43233    0.110
 5385.00    1.37187   1.42557    0.110
 5386.00    1.37120   1.41739    0.109
 5387.00    1.37985   1.40999    0.108
 5388.00    1.36214   1.39889    0.108
 5389.00    1.33855   1.38567    0.108
 5390.00    1.32968   1.37261    0.108
 5391.00    1.32343   1.35862    0.107
 5392.00    1.32067   1.34448    0.107
 5393.00    1.31839   1.33063    0.107
 5394.00    1.32537   1.31998    0.106
 5395.00    1.33324   1.31209    0.105
 5396.00    1.31908   1.30335    0.106
 5397.00    1.30359   1.29984    0.107
 5398.00    1.29379   1.30037    0.106
 5399.00    1.28415   1.29670    0.105
 5400.00    1.27647   1.29459    0.106
 5401.00    1.26906   1.29429    0.106
 5402.00    1.26867   1.28740    0.105
 5403.00    1.26712   1.27856    0.104
 5404.00    1.24987   1.27199    0.103
 5405.00    1.23440   1.26373    0.102
 5406.00    1.23488   1.25758    0.103
 5407.00    1.23667   1.25818    0.103
 5408.00    1.24712   1.26276    0.103
 5409.00    1.25881   1.27206    0.103
 5410.00    1.27691   1.28847    0.103
 5411.00    1.29344   1.30743    0.103
 5412.00    1.30345   1.32730    0.103
 5413.00    1.31291   1.34944    0.103
 5414.00    1.32050   1.36952    0.104
 5415.00    1.33025   1.38643    0.105
 5416.00    1.34624   1.40079    0.105
 5417.00    1.36127   1.41000    0.105
 5418.00    1.37394   1.41607    0.106
 5419.00    1.37761   1.41861    0.106
 5420.00    1.36211   1.41616    0.105
 5421.00    1.35001   1.41409    0.105
 5422.00    1.34419   1.41039    0.106
 5423.00    1.34447   1.40294    0.106
 5424.00    1.35458   1.39866    0.106
 5425.00    1.35884   1.39271    0.106
 5426.00    1.35481   1.38248    0.107
 5427.00    1.33852   1.37558    0.107
 5428.00    1.30696   1.36497    0.106
 5429.00    1.29003   1.35123    0.105
 5430.00    1.28917   1.34321    0.105
 5431.00    1.28858   1.33263    0.105
 5432.00    1.28825   1.32359    0.105
 5433.00    1.28737   1.32430    0.105
 5434.00    1.28604   1.32663    0.106
 5435.00    1.29520   1.33343    0.106
 5436.00    1.31228   1.34861    0.105
 5437.00    1.32515   1.36602    0.105
 5438.00    1.33524   1.38430    0.104
 5439.00    1.34914   1.40245    0.104
 5440.00    1.36526   1.41686    0.104
 5441.00    1.37840   1.42536    0.104
 5442.00    1.39003   1.42717    0.105
 5443.00    1.37102   1.42203    0.104
 5444.00    1.33862   1.41235    0.103
 5445.00    1.32737   1.39960    0.102
 5446.00    1.32405   1.38511    0.102
 5447.00    1.31784   1.37428    0.102
 5448.00    1.31071   1.36559    0.103
 5449.00    1.31500   1.35791    0.102
 5450.00    1.32233   1.35528    0.102
 5451.00    1.32766   1.35272    0.101
 5452.00    1.33256   1.34864    0.101
 5453.00    1.33393   1.34703    0.101
 5454.00    1.33469   1.34411    0.101
 5455.00    1.31527   1.34144    0.101
 5456.00    1.29320   1.34244    0.101
 5457.00    1.29761   1.34304    0.101
 5458.00    1.30447   1.34535    0.101
 5459.00    1.32578   1.34970    0.101
 5460.00    1.34791   1.35246    0.101
 5461.00    1.35359   1.35542    0.101
 5462.00    1.35870   1.35689    0.101
 5463.00    1.34168   1.35807    0.102
 5464.00    1.32519   1.36053    0.102
 5465.00    1.32115   1.36007    0.101
 5466.00    1.31818   1.36029    0.101
 5467.00    1.32877   1.36198    0.102
 5468.00    1.33669   1.35972    0.103
 5469.00    1.32146   1.35515    0.103
 5470.00    1.30882   1.35031    0.103
 5471.00    1.31277   1.34315    0.103
 5472.00    1.31565   1.33167    0.103
 5473.00    1.31320   1.32025    0.103
 5474.00    1.31036   1.31204    0.104
 5475.00    1.30596   1.30117    0.104
 5476.00    1.30046   1.29221    0.105
 5477.00    1.29123   1.29102    0.105
 5478.00    1.27991   1.28992   -2.000
 5479.00    1.26266   1.29045   -2.000
 5480.00    1.25539   1.29733   -2.000
 5481.00    1.27234   1.30576   -2.000
 5482.00    1.29131   1.31378   -2.000
 5483.00    1.31451   1.32242   -2.000
 5484.00    1.32518   1.33242   -2.000
 5485.00    1.31303   1.34118   -2.000
 5486.00    1.28528   1.34587   -2.000
 5487.00    1.23270   1.35078   -2.000
 5488.00    1.19724   1.35622   -2.000
 5489.00    1.18567   1.35704   -2.000
 5490.00    1.21782   1.35807   -2.000
 5491.00    1.30373   1.36159   -2.000
 5492.00    1.36864   1.36115   -2.000
 5493.00    1.41081   1.36055   -2.000
 5494.00    1.42179   1.36307   -2.000
 5495.00    1.40296   1.36280   -2.000
 5496.00    1.37727   1.36067   -2.000
 5497.00    1.34579   1.36059   -2.000
 5498.00    1.33231   1.35981   -2.000
 5499.00    1.33219   1.35561   -2.000
 5500.00    1.33088   1.35133   -2.000
 5501.00    1.32879   1.34882   -2.000
 5502.00    1.32907   1.34337    0.147
 5503.00    1.33069   1.33636    0.589
 5504.00    1.31829   1.33294   -1.000
 5505.00    1.29891   1.32836   -1.000
 5506.00    1.28493   1.32290   -1.000
 5507.00    1.27329   1.32121   -1.000
 5508.00    1.26773   1.31729   -1.000
 5509.00    1.26441   1.31351   -1.000
 5510.00    1.27120   1.31342    0.255
 5511.00    1.28115   1.31031    0.110
 5512.00    1.27135   1.30910    0.099
 5513.00    1.25641   1.31252    0.099
 5514.00    1.25977   1.31581    0.099
 5515.00    1.26702   1.32287    0.100
 5516.00    1.27049   1.33318    0.100
 5517.00    1.27333   1.34432    0.099
 5518.00    1.26931   1.35650    0.099
 5519.00    1.26442   1.36669    0.099
 5520.00    1.29281   1.37543    0.100
 5521.00    1.32414   1.38092    0.101
 5522.00    1.32905   1.38104    0.101
 5523.00    1.33258   1.37886    0.102
 5524.00    1.31580   1.37356    0.101
 5525.00    1.29879   1.36561    0.100
 5526.00    1.29290   1.35809    0.100
 5527.00    1.28742   1.35036    0.101
 5528.00    1.29042   1.34489    0.101
 5529.00    1.29383   1.34271    0.101
 5530.00    1.30218   1.34116    0.100
 5531.00    1.31024   1.34234    0.100
 5532.00    1.31582   1.34655    0.099
 5533.00    1.32099   1.35029    0.099
 5534.00    1.32351   1.35342    0.099
 5535.00    1.32419   1.35875    0.098
 5536.00    1.31581   1.36428    0.098
 5537.00    1.31125   1.36750    0.098
 5538.00    1.32183   1.37302    0.098
 5539.00    1.33072   1.37898    0.098
 5540.00    1.33399   1.38229    0.099
 5541.00    1.33812   1.38690    0.100
 5542.00    1.34464   1.39091    0.102
 5543.00    1.34909   1.39364    0.104
 5544.00    1.34860   1.39735    0.105
 5545.00    1.34860   1.39988    0.105
 5546.00    1.34963   1.40327    0.105
 5547.00    1.35249   1.40849    0.104
 5548.00    1.35864   1.41126    0.101
 5549.00    1.36127   1.41379    0.098
 5550.00    1.35836   1.41719    0.098
 5551.00    1.36194   1.41705    0.097
 5552.00    1.37445   1.41500    0.098
 5553.00    1.37703   1.41261    0.098
 5554.00    1.36757   1.40826    0.096
 5555.00    1.35693   1.40343    0.096
 5556.00    1.34503   1.39798    0.097
 5557.00    1.33858   1.39234    0.098
 5558.00    1.33726   1.38802    0.098
 5559.00    1.33546   1.38220    0.098
 5560.00    1.33325   1.37592    0.097
 5561.00    1.32700   1.37097    0.097
 5562.00    1.31778   1.36448    0.098
 5563.00    1.30534   1.35805    0.098
 5564.00    1.29081   1.35243    0.097
 5565.00    1.28069   1.34637    0.097
 5566.00    1.27303   1.34205    0.097
 5567.00    1.27288   1.33916    0.098
 5568.00    1.27639   1.33628    0.097
 5569.00    1.27799   1.33498    0.097
 5570.00    1.27878   1.33711    0.097
 5571.00    1.29054   1.33865    0.097
 5572.00    1.30627   1.33970    0.098
 5573.00    1.30198   1.34624    0.098
 5574.00    1.29156   1.35116    0.097
 5575.00    1.28640   1.35261    0.097
 5576.00    1.28259   1.35950    0.097
 5577.00    1.29239   1.36427    0.096
 5578.00    1.30502   1.36299    0.096
 5579.00    1.30769   1.36415    0.096
 5580.00    1.30874   1.36200    0.096
 5581.00    1.29948   1.35320    0.095
 5582.00    1.28896   1.34486    0.094
 5583.00    1.27816   1.33269    0.094
 5584.00    1.26734   1.31630    0.094
 5585.00    1.24665   1.30154    0.094
 5586.00    1.22549   1.28623    0.094
 5587.00    1.21374   1.27288    0.094
 5588.00    1.20228   1.26335    0.093
 5589.00    1.19929   1.25724    0.094
 5590.00    1.19708   1.25735    0.094
 5591.00    1.21028   1.26042    0.094
 5592.00    1.22368   1.26662    0.095
 5593.00    1.23943   1.27582    0.096
 5594.00    1.25243   1.28355    0.097
 5595.00    1.24343   1.29165    0.097
 5596.00    1.23809   1.29736    0.097
 5597.00    1.25488   1.29939    0.098
 5598.00    1.26902   1.30311    0.098
 5599.00    1.27060   1.30449    0.097
 5600.00    1.26804   1.30347    0.097
 5601.00    1.24939   1.30747    0.098
 5602.00    1.23911   1.31396    0.099
 5603.00    1.25592   1.32208    0.098
 5604.00    1.27258   1.33396    0.098
 5605.00    1.28886   1.34722    0.098
 5606.00    1.30051   1.36155    0.098
 5607.00    1.30131   1.37451    0.098
 5608.00    1.30701   1.38373    0.097
 5609.00    1.32263   1.38873    0.097
 5610.00    1.33592   1.38927    0.097
 5611.00    1.34505   1.38505    0.097
 5612.00    1.34218   1.37609    0.097
 5613.00    1.32077   1.36479    0.097
 5614.00    1.30238   1.35133    0.096
 5615.00    1.28812   1.33874    0.096
 5616.00    1.27680   1.32874    0.096
 5617.00    1.26900   1.31795    0.096
 5618.00    1.25872   1.31139    0.096
 5619.00    1.24585   1.31045    0.095
 5620.00    1.24513   1.30890    0.094
 5621.00    1.25571   1.30752    0.093
 5622.00    1.25823   1.30811    0.093
 5623.00    1.25417   1.30922    0.092
 5624.00    1.25211   1.31098    0.092
 5625.00    1.25149   1.31458    0.092
 5626.00    1.25366   1.31838    0.092
 5627.00    1.25758   1.32372    0.092
 5628.00    1.26255   1.33283    0.091
 5629.00    1.26811   1.34116    0.091
 5630.00    1.27320   1.34715    0.091
 5631.00    1.27807   1.35291    0.091
 5632.00    1.28001   1.35608    0.091
 5633.00    1.28075   1.35545    0.091
 5634.00    1.27718   1.35249    0.091
 5635.00    1.27207   1.34752    0.090
 5636.00    1.27081   1.34124    0.148
 5637.00    1.27071   1.33507    0.891
 5638.00    1.27034   1.32942   -1.000
 5639.00    1.26991   1.32481   -1.000
 5640.00    1.26314   1.32153   -1.000
 5641.00    1.25507   1.32097   -1.000
 5642.00    1.26502   1.32210   -1.000
 5643.00    1.27782   1.32274   -1.000
 5644.00    1.28073   1.32605   -1.000
 5645.00    1.28248   1.33088   -1.000
 5646.00    1.27759   1.33454   -1.000
 5647.00    1.27217   1.33905   -1.000
 5648.00    1.27651   1.34263   -1.000
 5649.00    1.28129   1.34489   -1.000
 5650.00    1.28686   1.34712    0.187
 5651.00    1.29243   1.34625    0.094
 5652.00    1.29730   1.34259    0.094
 5653.00    1.30184   1.33859    0.094
 5654.00    1.30020   1.33227    0.094
 5655.00    1.29679   1.32401    0.094
 5656.00    1.27376   1.31479    0.093
 5657.00    1.25036   1.30457    0.093
 5658.00    1.22405   1.29823    0.092
 5659.00    1.20204   1.29475    0.092
 5660.00    1.20525   1.28952    0.091
 5661.00    1.21069   1.28876    0.090
 5662.00    1.22646   1.29460    0.091
 5663.00    1.24206   1.29998    0.091
 5664.00    1.25701   1.30470    0.092
 5665.00    1.26731   1.31202    0.091
 5666.00    1.26281   1.32027    0.091
 5667.00    1.25735   1.32798    0.090
 5668.00    1.24927   1.33542    0.090
 5669.00    1.24486   1.34218    0.090
 5670.00    1.24889   1.34987    0.089
 5671.00    1.25214   1.35858    0.089
 5672.00    1.25383   1.36650    0.089
 5673.00    1.26147   1.37335    0.090
 5674.00    1.27948   1.37965    0.090
 5675.00    1.29235   1.38492    0.091
 5676.00    1.29741   1.38696    0.093
 5677.00    1.29474   1.38548    0.094
 5678.00    1.28174   1.38290    0.093
 5679.00    1.27500   1.37875    0.093
 5680.00    1.27562   1.37178    0.094
 5681.00    1.27304   1.36331    0.094
 5682.00    1.26713   1.35592    0.094
 5683.00    1.26305   1.34976    0.093
 5684.00    1.26065   1.34324    0.093
 5685.00    1.25968   1.33844    0.093
 5686.00    1.25987   1.33754    0.093
 5687.00    1.25765   1.33888    0.093
 5688.00    1.25373   1.34112    0.093
 5689.00    1.25046   1.34533    0.092
 5690.00    1.24761   1.35119    0.091
 5691.00    1.25375   1.35779    0.092
 5692.00    1.26479   1.36366    0.093
 5693.00    1.28061   1.36722    0.093
 5694.00    1.29869   1.36927    0.092
 5695.00    1.30162   1.36814    0.092
 5696.00    1.29837   1.36384    0.093
 5697.00    1.28901   1.35707    0.093
 5698.00    1.27751   1.34896    0.092
 5699.00    1.26634   1.34029    0.092
 5700.00    1.25527   1.32882    0.092
 5701.00    1.25180   1.31871    0.091
 5702.00    1.25017   1.31026    0.089
 5703.00    1.24589   1.29984    0.089
 5704.00    1.24108   1.29115    0.090
 5705.00    1.23062   1.28330    0.089
 5706.00    1.21930   1.27579    0.088
 5707.00    1.20569   1.27093    0.088
 5708.00    1.19183   1.26568    0.088
 5709.00    1.19094   1.26414    0.087
 5710.00    1.19104   1.26752    0.087
 5711.00    1.20382   1.27170    0.087
 5712.00    1.21711   1.28218    0.087
 5713.00    1.22865   1.29582    0.087
 5714.00    1.24032   1.30845    0.088
 5715.00    1.25790   1.32561    0.088
 5716.00    1.27497   1.34255    0.088
 5717.00    1.28321   1.35638    0.089
 5718.00    1.29082   1.37084    0.090
 5719.00    1.29180   1.38286    0.089
 5720.00    1.29451   1.39180    0.089
 5721.00    1.31016   1.39957    0.091
 5722.00    1.32446   1.40464    0.092
 5723.00    1.33108   1.40714    0.092
 5724.00    1.33424   1.40786    0.091
 5725.00    1.32172   1.40621    0.092
 5726.00    1.31021   1.40292    0.092
 5727.00    1.30241   1.40010    0.092
 5728.00    1.29745   1.39664    0.092
 5729.00    1.30128   1.39241    0.092
 5730.00    1.30376   1.39010    0.092
 5731.00    1.30264   1.38997    0.092
 5732.00    1.30158   1.39046    0.091
 5733.00    1.30063   1.38995    0.091
 5734.00    1.30182   1.39061    0.090
 5735.00    1.30721   1.39322    0.090
 5736.00    1.31303   1.39440    0.090
 5737.00    1.31959   1.39486    0.089
 5738.00    1.32276   1.39526    0.089
 5739.00    1.32086   1.39490    0.089
 5740.00    1.32359   1.39482    0.000
 5741.00    1.33243   1.39428    0.000
 5742.00    1.33794   1.39315    0.000
 5743.00    1.33960   1.39297    0.000
 5744.00    1.34281   1.39226    0.000
 5745.00    1.34763   1.39015    0.000
 5746.00    1.34756   1.38822    0.000
 5747.00    1.34307   1.38577    0.000
 5748.00    1.33653   1.38269    0.000
 5749.00    1.32836   1.37892    0.000
 5750.00    1.32256   1.37370    0.000
 5751.00    1.31841   1.36970    0.000
 5752.00    1.31350   1.36764    0.000
 5753.00    1.30814   1.36536    0.000
 5754.00    1.30571   1.36354    0.000
 5755.00    1.30486   1.36284    0.000
 5756.00    1.30265   1.36218    0.000
 5757.00    1.29980   1.36303    0.000
 5758.00    1.30265   1.36446    0.000
 5759.00    1.30778   1.36408    0.000
 5760.00    1.31161   1.36384    0.000
 5761.00    1.31500   1.36459    0.000
 5762.00    1.31419   1.36583    0.000
 5763.00    1.31216   1.36899    0.000
 5764.00    1.31608   1.37344    0.000
 5765.00    1.32142   1.37846    0.000
 5766.00    1.33436   1.38547    0.000
 5767.00    1.34876   1.39195    0.000
 5768.00    1.36075   1.39575    0.000
 5769.00    1.37239   1.39824    0.000
 5770.00    1.36379   1.39956    0.000
 5771.00    1.35298   1.39816    0.000
 5772.00    1.34793   1.39547    0.000
 5773.00    1.34329   1.39175    0.000
 5774.00    1.33941   1.38542    0.000
 5775.00    1.33555   1.37873    0.000
 5776.00    1.32633   1.37064    0.000
 5777.00    1.31705   1.35992    0.000
 5778.00    1.30619   1.34847    0.000
 5779.00    1.29520   1.33529    0.000
 5780.00    1.28212   1.32168    0.000
 5781.00    1.26909   1.30983    0.000
 5782.00    1.25656   1.29834    0.000
 5783.00    1.24485   1.28959    0.000
 5784.00    1.23907   1.28558    0.000
 5785.00    1.23587   1.28601    0.000
 5786.00    1.24705   1.29094    0.000
 5787.00    1.25909   1.29664    0.000
 5788.00    1.27493   1.30557    0.000
 5789.00    1.28654   1.31821    0.000
 5790.00    1.28272   1.32897    0.000
 5791.00    1.27990   1.34037   -2.000
 5792.00    1.28017   1.35075   -2.000
 5793.00    1.27886   1.35891   -2.000
 5794.00    1.27346   1.36816   -2.000
 5795.00    1.27339   1.37533   -2.000
 5796.00    1.28523   1.38146   -2.000
 5797.00    1.29735   1.38766   -2.000
 5798.00    1.31002   1.39241   -2.000
 5799.00    1.31789   1.39642   -2.000
 5800.00    1.31768   1.39898   -2.000
 5801.00    1.31707   1.40168   -2.000
 5802.00    1.31590   1.40376   -2.000
 5803.00    1.32523   1.40300   -2.000
 5804.00    1.34820   1.40206   -2.000
 5805.00    1.35989   1.40064   -2.000
 5806.00    1.35864   1.39785   -2.000
 5807.00    1.35111   1.39643   -2.000
 5808.00    1.33722   1.39537   -2.000
 5809.00    1.33082   1.39437   -2.000
 5810.00    1.33109   1.39408   -2.000
 5811.00    1.32983   1.39324    0.000
 5812.00    1.32737   1.39289    0.000
 5813.00    1.32659   1.39270    0.000
 5814.00    1.32697   1.39219    0.000
 5815.00    1.32421   1.39290    0.000
 5816.00    1.31955   1.39427    0.000
 5817.00    1.32053   1.39648    0.000
 5818.00    1.32450   1.39936    0.000
 5819.00    1.32731   1.40318    0.000
 5820.00    1.32959   1.40822    0.000
 5821.00    1.33411   1.41242    0.000
 5822.00    1.33950   1.41595    0.000
 5823.00    1.33983   1.41895    0.000
 5824.00    1.33845   1.42103    0.000
 5825.00    1.34793   1.42246    0.000
 5826.00    1.36048   1.42340    0.000
 5827.00    1.36297   1.42393    0.000
 5828.00    1.36312   1.42358    0.000
 5829.00    1.36138   1.42272    0.000
 5830.00    1.35928   1.42141    0.000
 5831.00    1.35929   1.41973    0.000
 5832.00    1.35960   1.41765    0.000
 5833.00    1.35746   1.41531    0.000
 5834.00    1.35508   1.41330    0.000
 5835.00    1.34651   1.41180    0.000
 5836.00    1.33752   1.41072    0.000
 5837.00    1.33647   1.41012    0.000
 5838.00    1.33568   1.41118    0.000
 5839.00    1.34446   1.41274    0.000
 5840.00    1.35297   1.41331    0.000
 5841.00    1.35278   1.41376    0.000
 5842.00    1.35185   1.41379    0.000
 5843.00    1.33974   1.41249    0.000
 5844.00    1.32868   1.40920    0.000
 5845.00    1.32784   1.40431    0.000
 5846.00    1.32518   1.39789    0.000
 5847.00    1.30972   1.39037    0.000
 5848.00    1.29621   1.38232    0.000
 5849.00    1.29319   1.37306    0.000
 5850.00    1.28988   1.36340    0.000
 5851.00    1.28534   1.35406    0.000
 5852.00    1.28012   1.34484    0.000
 5853.00    1.27242   1.33623    0.000
 5854.00    1.26684   1.32749    0.000
 5855.00    1.26759   1.31948    0.000
 5856.00    1.26630   1.31397    0.000
 5857.00    1.25982   1.31076    0.000
 5858.00    1.25557   1.30976    0.000
 5859.00    1.25618   1.30901    0.000
 5860.00    1.25298   1.31036    0.000
 5861.00    1.24252   1.31478    0.000
 5862.00    1.24041   1.31996    0.000
 5863.00    1.25216   1.32573    0.000
 5864.00    1.26043   1.33047    0.000
 5865.00    1.26363   1.33542    0.000
 5866.00    1.26326   1.34132    0.000
 5867.00    1.25830   1.34706    0.000
 5868.00    1.25976   1.35156    0.000
 5869.00    1.26845   1.35508    0.000
 5870.00    1.27334   1.35847    0.000
 5871.00    1.27446   1.36127    0.000
 5872.00    1.27679   1.36268    0.000
 5873.00    1.28019   1.36201    0.000
 5874.00    1.27731   1.35976    0.000
 5875.00    1.26958   1.35586    0.000
 5876.00    1.26203   1.35106    0.000
 5877.00    1.25462   1.34464    0.000
 5878.00    1.24681   1.33648    0.000
 5879.00    1.23875   1.32738    0.000
 5880.00    1.23122   1.31653    0.000
 5881.00    1.22395   1.30374    0.000
 5882.00    1.21468   1.28789    0.000
 5883.00    1.20451   1.26876    0.000
 5884.00    1.18840   1.24634    0.000
 5885.00    1.17000   1.21960    0.000
 5886.00    1.14813   1.18737    0.000
 5887.00    1.12512   1.15226    0.000
 5888.00    1.09432   1.11886    0.000
 5889.00    1.06137   1.08712    0.000
 5890.00    1.03617   1.05937    0.000
 5891.00    1.01275   1.03714    0.000
 5892.00    0.99888   1.01992    0.000
 5893.00    0.98676   1.01443    0.000
 5894.00    0.99407   1.01971    0.000
 5895.00    1.00410   1.03052    0.000
 5896.00    1.01474   1.04879    0.000
 5897.00    1.02545   1.07094    0.000
 5898.00    1.04737   1.09667    0.000
 5899.00    1.07000   1.12929    0.000
 5900.00    1.10198   1.16242    0.000
 5901.00    1.13422   1.19253    0.085
 5902.00    1.15958   1.22008    0.085
 5903.00    1.18456   1.24386    0.086
 5904.00    1.19872   1.26456    0.085
 5905.00    1.21330   1.28167    0.085
 5906.00    1.23386   1.29407    0.085
 5907.00    1.25229   1.30257    0.085
 5908.00    1.25092   1.30845    0.085
 5909.00    1.24948   1.31238    0.085
 5910.00    1.24763   1.31409    0.084
 5911.00    1.24598   1.31382    0.084
 5912.00    1.24535   1.31256    0.084
 5913.00    1.24334   1.31049    0.084
 5914.00    1.23546   1.30924    0.083
 5915.00    1.23023   1.30807    0.083
 5916.00    1.23425   1.30687    0.082
 5917.00    1.24031   1.30803    0.082
 5918.00    1.25241   1.30970    0.082
 5919.00    1.26281   1.31254    0.082
 5920.00    1.26897   1.31625    0.082
 5921.00    1.27272   1.31911    0.082
 5922.00    1.27129   1.32244    0.082
 5923.00    1.27073   1.32532    0.082
 5924.00    1.27181   1.32660    0.084
 5925.00    1.27048   1.32773    0.084
 5926.00    1.26522   1.32780    0.084
 5927.00    1.26202   1.32655    0.083
 5928.00    1.26178   1.32613    0.084
 5929.00    1.25728   1.32481    0.084
 5930.00    1.24740   1.32362    0.084
 5931.00    1.24224   1.32265    0.084
 5932.00    1.24233   1.32107    0.084
 5933.00    1.24178   1.32177    0.084
 5934.00    1.24060   1.32268    0.084
 5935.00    1.24164   1.32346    0.084
 5936.00    1.24462   1.32464    0.084
 5937.00    1.25189   1.32506    0.084
 5938.00    1.26243   1.32655    0.084
 5939.00    1.26714   1.32800    0.085
 5940.00    1.26795   1.32861    0.086
 5941.00    1.26762   1.32967    0.085
 5942.00    1.26662   1.33034    0.084
 5943.00    1.26633   1.33051    0.084
 5944.00    1.26640   1.33086    0.083
 5945.00    1.26138   1.33042    0.083
 5946.00    1.25409   1.32949    0.083
 5947.00    1.25193   1.32858    0.083
 5948.00    1.25172   1.32698    0.082
 5949.00    1.25059   1.32454    0.082
 5950.00    1.24916   1.32135    0.081
 5951.00    1.24915   1.31860    0.081
 5952.00    1.24952   1.31686    0.081
 5953.00    1.24936   1.31578    0.081
 5954.00    1.24907   1.31480    0.081
 5955.00    1.24876   1.31426    0.081
 5956.00    1.24844   1.31590    0.082
 5957.00    1.25244   1.31894    0.082
 5958.00    1.25703   1.32247    0.082
 5959.00    1.26322   1.32652    0.083
 5960.00    1.26957   1.33079    0.083
 5961.00    1.27286   1.33595    0.084
 5962.00    1.27597   1.34074    0.084
 5963.00    1.27774   1.34478    0.085
 5964.00    1.27944   1.34880    0.085
 5965.00    1.27785   1.35180    0.085
 5966.00    1.27625   1.35484    0.085
 5967.00    1.27432   1.35720    0.085
 5968.00    1.27270   1.35860    0.085
 5969.00    1.27511   1.36005    0.084
 5970.00    1.27765   1.36032    0.083
 5971.00    1.28140   1.35944    0.083
 5972.00    1.28413   1.35729    0.083
 5973.00    1.28018   1.35352    0.083
 5974.00    1.27581   1.34888    0.083
 5975.00    1.26928   1.34357    0.083
 5976.00    1.26251   1.33779    0.083
 5977.00    1.25468   1.33250    0.082
 5978.00    1.24853   1.32713    0.081
 5979.00    1.24812   1.32245    0.082
 5980.00    1.24899   1.31838    0.082
 5981.00    1.25353   1.31428    0.081
 5982.00    1.25672   1.31204    0.081
 5983.00    1.25660   1.31042    0.081
 5984.00    1.25457   1.30922    0.081
 5985.00    1.24847   1.30949    0.080
 5986.00    1.24474   1.31006    0.080
 5987.00    1.24538   1.31272    0.080
 5988.00    1.24892   1.31630    0.081
 5989.00    1.25714   1.31960    0.082
 5990.00    1.26112   1.32390    0.083
 5991.00    1.25911   1.32741    0.083
 5992.00    1.25826   1.33048    0.083
 5993.00    1.25885   1.33222    0.083
 5994.00    1.25949   1.33199    0.083
 5995.00    1.26017   1.33152    0.084
 5996.00    1.25576   1.33016    0.084
 5997.00    1.24642   1.32797    0.084
 5998.00    1.24299   1.32534    0.084
 5999.00    1.24461   1.32145    0.083
 6000.00    1.25260   1.31742    0.083
 6001.00    1.26538   1.31468    0.083
 6002.00    1.27001   1.31165    0.083
 6003.00    1.26924   1.30875    0.083
 6004.00    1.26234   1.30546    0.083
 6005.00    1.25189   1.30112    0.083
 6006.00    1.24428   1.29920    0.082
 6007.00    1.23812   1.29787    0.082
 6008.00    1.23525   1.29631    0.081
 6009.00    1.23383   1.29531    0.081
 6010.00    1.23187   1.29325    0.081
 6011.00    1.22971   1.29290    0.081
 6012.00    1.23167   1.29336    0.081
 6013.00    1.23493   1.29250    0.080
 6014.00    1.23544   1.29154    0.080
 6015.00    1.23522   1.29004    0.080
 6016.00    1.23558   1.28857    0.081
 6017.00    1.23606   1.28786    0.081
 6018.00    1.23748   1.28719    0.081
 6019.00    1.23907   1.28706    0.082
 6020.00    1.23121   1.28859    0.082
 6021.00    1.22211   1.29049    0.082
 6022.00    1.21835   1.29407    0.082
 6023.00    1.21507   1.29891    0.083
 6024.00    1.22328   1.30412    0.083
 6025.00    1.23214   1.31128    0.083
 6026.00    1.24407   1.31823    0.083
 6027.00    1.25606   1.32577    0.083
 6028.00    1.26817   1.33308    0.083
 6029.00    1.27986   1.33966    0.084
 6030.00    1.28175   1.34641    0.084
 6031.00    1.28387   1.35197    0.084
 6032.00    1.28883   1.35667    0.083
 6033.00    1.29366   1.36044    0.082
 6034.00    1.29728   1.36327    0.082
 6035.00    1.29984   1.36551    0.082
 6036.00    1.29558   1.36681    0.082
 6037.00    1.29207   1.36725    0.082
 6038.00    1.29228   1.36780    0.081
 6039.00    1.29160   1.36774    0.080
 6040.00    1.28731   1.36846    0.080
 6041.00    1.28512   1.36933    0.080
 6042.00    1.28997   1.37025    0.080
 6043.00    1.29392   1.37215    0.080
 6044.00    1.29532   1.37366    0.080
 6045.00    1.29677   1.37571    0.080
 6046.00    1.29831   1.37710    0.080
 6047.00    1.30602   1.37822    0.080
 6048.00    1.32665   1.37843    0.081
 6049.00    1.33917   1.37736    0.081
 6050.00    1.33694   1.37521    0.081
 6051.00    1.33037   1.37196    0.081
 6052.00    1.31690   1.36853    0.082
 6053.00    1.30895   1.36403    0.082
 6054.00    1.30871   1.35973    0.083
 6055.00    1.30499   1.35537    0.084
 6056.00    1.29699   1.35174    0.084
 6057.00    1.28895   1.34858    0.084
 6058.00    1.28086   1.34570    0.084
 6059.00    1.27493   1.34361    0.083
 6060.00    1.27105   1.34142    0.083
 6061.00    1.27350   1.34012    0.083
 6062.00    1.28126   1.33844    0.083
 6063.00    1.28325   1.33821    0.083
 6064.00    1.28096   1.33984    0.083
 6065.00    1.27815   1.34198    0.082
 6066.00    1.27500   1.34595    0.081
 6067.00    1.28000   1.35041    0.081
 6068.00    1.28965   1.35635    0.080
 6069.00    1.30085   1.36338    0.080
 6070.00    1.31283   1.36937    0.080
 6071.00    1.31825   1.37453    0.080
 6072.00    1.32086   1.37766    0.080
 6073.00    1.32119   1.37821    0.080
 6074.00    1.32067   1.37690    0.080
 6075.00    1.31405   1.37298    0.080
 6076.00    1.30552   1.36735    0.079
 6077.00    1.29871   1.36112    0.080
 6078.00    1.29234   1.35325    0.080
 6079.00    1.29040   1.34514    0.080
 6080.00    1.28939   1.33785    0.080
 6081.00    1.28475   1.33137    0.081
 6082.00    1.27951   1.32612    0.081
 6083.00    1.27627   1.32178    0.082
 6084.00    1.27329   1.31863    0.082
 6085.00    1.27078   1.31692    0.083
 6086.00    1.26830   1.31560    0.084
 6087.00    1.27344   1.31421    0.083
 6088.00    1.27898   1.31382    0.083
 6089.00    1.28040   1.31384    0.082
 6090.00    1.28162   1.31402    0.082
 6091.00    1.27282   1.31487    0.082
 6092.00    1.26439   1.31614    0.082
 6093.00    1.26373   1.31739    0.081
 6094.00    1.26362   1.31835    0.081
 6095.00    1.27012   1.31911    0.081
 6096.00    1.27576   1.32003    0.080
 6097.00    1.27434   1.32019    0.079
 6098.00    1.27205   1.31853    0.079
 6099.00    1.26436   1.31463    0.079
 6100.00    1.25695   1.30983    0.079
 6101.00    1.25093   1.30740    0.079
 6102.00    1.24640   1.30508    0.078
 6103.00    1.24779   1.30359    0.079
 6104.00    1.25096   1.30285    0.080
 6105.00    1.25998   1.30309    0.080
 6106.00    1.26869   1.30715    0.080
 6107.00    1.27650   1.31195    0.080
 6108.00    1.28141   1.31728    0.080
 6109.00    1.27940   1.32280    0.080
 6110.00    1.27854   1.32741    0.081
 6111.00    1.28007   1.33169    0.081
 6112.00    1.28380   1.33432    0.081
 6113.00    1.29146   1.33485    0.083
 6114.00    1.29629   1.33414    0.083
 6115.00    1.29669   1.33210    0.082
 6116.00    1.29374   1.32786    0.081
 6117.00    1.28616   1.32209    0.081
 6118.00    1.27921   1.31520    0.081
 6119.00    1.27304   1.30700    0.081
 6120.00    1.26592   1.30067    0.081
 6121.00    1.25778   1.29601    0.081
 6122.00    1.24946   1.29195    0.081
 6123.00    1.24096   1.28977    0.081
 6124.00    1.23807   1.28844    0.080
 6125.00    1.23983   1.28953    0.080
 6126.00    1.24474   1.29233    0.080
 6127.00    1.25195   1.29544    0.079
 6128.00    1.26043   1.29874    0.079
 6129.00    1.26972   1.29977    0.079
 6130.00    1.27216   1.29951    0.079
 6131.00    1.27075   1.29720    0.078
 6132.00    1.26344   1.29261    0.078
 6133.00    1.25323   1.28613    0.079
 6134.00    1.23991   1.27748    0.079
 6135.00    1.22528   1.27078    0.079
 6136.00    1.21583   1.26601    0.080
 6137.00    1.20825   1.26249    0.082
 6138.00    1.21008   1.26059    0.082
 6139.00    1.21478   1.26085    0.081
 6140.00    1.22198   1.26639    0.082
 6141.00    1.22980   1.27458    0.083
 6142.00    1.24510   1.28363    0.083
 6143.00    1.26194   1.29284    0.082
 6144.00    1.27285   1.30001    0.082
 6145.00    1.28280   1.30582    0.082
 6146.00    1.28187   1.30935    0.082
 6147.00    1.27961   1.31133    0.081
 6148.00    1.27825   1.31206    0.081
 6149.00    1.27696   1.31041    0.082
 6150.00    1.27218   1.30758    0.081
 6151.00    1.26723   1.30281    0.081
 6152.00    1.26553   1.29724    0.080
 6153.00    1.26376   1.29147    0.079
 6154.00    1.25460   1.28417    0.079
 6155.00    1.24536   1.27564    0.079
 6156.00    1.23460   1.26529    0.079
 6157.00    1.22349   1.25306    0.078
 6158.00    1.20825   1.23829    0.079
 6159.00    1.19246   1.22288    0.079
 6160.00    1.17225   1.20912    0.079
 6161.00    1.15280   1.19718    0.078
 6162.00    1.13787   1.18733    0.078
 6163.00    1.12606   1.17902    0.078
 6164.00    1.12904   1.17449    0.078
 6165.00    1.13207   1.17314    0.079
 6166.00    1.13534   1.17360    0.079
 6167.00    1.14085   1.17736    0.080
 6168.00    1.15363   1.18383    0.080
 6169.00    1.16692   1.19147    0.080
 6170.00    1.18159   1.19820    0.081
 6171.00    1.19053   1.20511    0.081
 6172.00    1.18603   1.21288    0.081
 6173.00    1.18188   1.22059    0.081
 6174.00    1.17844   1.22829    0.081
 6175.00    1.17397   1.23645    0.080
 6176.00    1.16769   1.24436    0.080
 6177.00    1.16207   1.25023    0.079
 6178.00    1.15745   1.25558    0.079
 6179.00    1.15493   1.26029    0.079
 6180.00    1.15526   1.26358    0.078
 6181.00    1.16131   1.26529    0.077
 6182.00    1.17420   1.26533    0.077
 6183.00    1.18541   1.26327    0.077
 6184.00    1.19484   1.25933    0.078
 6185.00    1.19750   1.25400    0.078
 6186.00    1.19388   1.24762    0.078
 6187.00    1.18667   1.24083    0.078
 6188.00    1.17652   1.23251    0.078
 6189.00    1.16656   1.22589    0.079
 6190.00    1.15675   1.22206    0.079
 6191.00    1.15038   1.21954    0.079
 6192.00    1.14619   1.21961    0.078
 6193.00    1.14670   1.22106    0.078
 6194.00    1.14982   1.22468    0.079
 6195.00    1.15547   1.22939    0.082
 6196.00    1.16234   1.23378   -2.000
 6197.00    1.17315   1.23927   -2.000
 6198.00    1.18560   1.24464   -2.000
 6199.00    1.18097   1.24936   -2.000
 6200.00    1.17028   1.25341   -2.000
 6201.00    1.17685   1.25666   -2.000
 6202.00    1.18858   1.25959   -2.000
 6203.00    1.21297   1.26226   -2.000
 6204.00    1.24050   1.26427   -2.000
 6205.00    1.25148   1.26561   -2.000
 6206.00    1.25913   1.26563   -2.000
 6207.00    1.24780   1.26335   -2.000
 6208.00    1.23347   1.25889    0.082
 6209.00    1.22104   1.25258    0.080
 6210.00    1.20884   1.24401    0.079
 6211.00    1.19951   1.23406    0.078
 6212.00    1.19042   1.22361    0.077
 6213.00    1.17941   1.21301    0.077
 6214.00    1.16831   1.20353    0.076
 6215.00    1.16328   1.19496    0.076
 6216.00    1.15846   1.18765    0.075
 6217.00    1.16079   1.18240    0.076
 6218.00    1.16310   1.17930    0.076
 6219.00    1.16490   1.17880    0.077
 6220.00    1.16618   1.17976    0.078
 6221.00    1.16175   1.18094    0.078
 6222.00    1.15717   1.18292    0.078
 6223.00    1.15149   1.18459    0.079
 6224.00    1.14780   1.18567    0.080
 6225.00    1.15577   1.18643    0.081
 6226.00    1.16267   1.18583    0.081
 6227.00    1.16457   1.18399    0.082
 6228.00    1.16715   1.18141    0.083
 6229.00    1.17227   1.17991    0.082
 6230.00    1.17607   1.17874    0.082
 6231.00    1.17571   1.17881    0.081
 6232.00    1.17565   1.17965    0.080
 6233.00    1.17644   1.18095    0.079
 6234.00    1.17772   1.18290    0.078
 6235.00    1.18014   1.18435    0.077
 6236.00    1.18028   1.18656    0.077
 6237.00    1.17590   1.18665    0.076
 6238.00    1.17139   1.18582    0.076
 6239.00    1.16667   1.18385    0.076
 6240.00    1.16184   1.17929    0.076
 6241.00    1.15684   1.17530    0.076
 6242.00    1.15186   1.17154    0.076
 6243.00    1.14690   1.16866    0.076
 6244.00    1.14346   1.16733    0.076
 6245.00    1.14180   1.16726    0.076
 6246.00    1.14051   1.16821    0.076
 6247.00    1.13962   1.16847    0.076
 6248.00    1.14294   1.16872    0.077
 6249.00    1.15011   1.16824    0.079
 6250.00    1.15410   1.16644    0.080
 6251.00    1.15554   1.16343    0.080
 6252.00    1.15537   1.15961    0.080
 6253.00    1.15408   1.15433    0.080
 6254.00    1.15139   1.14843    0.080
 6255.00    1.14784   1.14380    0.079
 6256.00    1.14255   1.14027    0.079
 6257.00    1.13632   1.14028    0.080
 6258.00    1.13113   1.14213    0.080
 6259.00    1.12644   1.14654    0.081
 6260.00    1.12294   1.15296    0.084
 6261.00    1.11994   1.16024    0.088
 6262.00    1.12989   1.16858    0.090
 6263.00    1.14435   1.17703    0.091
 6264.00    1.15743   1.18624    0.090
 6265.00    1.17012   1.19369    0.089
 6266.00    1.17454   1.19958    0.086
 6267.00    1.17695   1.20475    0.082
 6268.00    1.18443   1.20877    0.079
 6269.00    1.19290   1.21176    0.076
 6270.00    1.19764   1.21461    0.076
 6271.00    1.20180   1.21725    0.077
 6272.00    1.20279   1.21922    0.077
 6273.00    1.20342   1.22063    0.077
 6274.00    1.21142   1.22174    0.078
 6275.00    1.21996   1.22242    0.079
 6276.00    1.22306   1.22268    0.079
 6277.00    1.22593   1.22229    0.079
 6278.00    1.22196   1.22192    0.080
 6279.00    1.21796   1.22199    0.081
 6280.00    1.21484   1.22242    0.000
 6281.00    1.21170   1.22401    0.000
 6282.00    1.20843   1.22558    0.000
 6283.00    1.20577   1.22848    0.000
 6284.00    1.20948   1.23190    0.000
 6285.00    1.21351   1.23549    0.000
 6286.00    1.21990   1.23974    0.000
 6287.00    1.22595   1.24253    0.000
 6288.00    1.23012   1.24455    0.000
 6289.00    1.23436   1.24510    0.000
 6290.00    1.23895   1.24400    0.000
 6291.00    1.24400   1.24212    0.000
 6292.00    1.25076   1.23862    0.000
 6293.00    1.25346   1.23376    0.000
 6294.00    1.24357   1.22825    0.000
 6295.00    1.23189   1.22235    0.000
 6296.00    1.21547   1.21719    0.000
 6297.00    1.20193   1.21241    0.000
 6298.00    1.19490   1.20826    0.000
 6299.00    1.19100   1.20550    0.000
 6300.00    1.19327   1.20376    0.000
 6301.00    1.19552   1.20365    0.000
 6302.00    1.19773   1.20527    0.000
 6303.00    1.20065   1.20812    0.000
 6304.00    1.20463   1.21217    0.000
 6305.00    1.21094   1.21609    0.000
 6306.00    1.22032   1.21990    0.000
 6307.00    1.23038   1.22344    0.000
 6308.00    1.24122   1.22590    0.000
 6309.00    1.24270   1.22678    0.000
 6310.00    1.23462   1.22585    0.000
 6311.00    1.22768   1.22391    0.000
 6312.00    1.22177   1.22002    0.000
 6313.00    1.21148   1.21518    0.000
 6314.00    1.19772   1.21016    0.000
 6315.00    1.18821   1.20488    0.000
 6316.00    1.18167   1.20116    0.000
 6317.00    1.18350   1.19914    0.000
 6318.00    1.19046   1.19865    0.000
 6319.00    1.19537   1.19953    0.000
 6320.00    1.19918   1.20231    0.000
 6321.00    1.20337   1.20765    0.076
 6322.00    1.20775   1.21265    0.076
 6323.00    1.20732   1.21909    0.077
 6324.00    1.20497   1.22618    0.077
 6325.00    1.21221   1.23222    0.077
 6326.00    1.22272   1.23777    0.077
 6327.00    1.23534   1.24135    0.077
 6328.00    1.24857   1.24460    0.078
 6329.00    1.25052   1.24583    0.079
 6330.00    1.24978   1.24537    0.079
 6331.00    1.24404   1.24362    0.079
 6332.00    1.23735   1.24002    0.079
 6333.00    1.22967   1.23656    0.079
 6334.00    1.22184   1.23207    0.079
 6335.00    1.22171   1.22803    0.078
 6336.00    1.22241   1.22458    0.078
 6337.00    1.21749   1.22159    0.078
 6338.00    1.21216   1.21962    0.078
 6339.00    1.21018   1.21739    0.077
 6340.00    1.20832   1.21671    0.077
 6341.00    1.21695   1.21720    0.076
 6342.00    1.22557   1.21895    0.076
 6343.00    1.23228   1.22066    0.076
 6344.00    1.23841   1.22266    0.075
 6345.00    1.23545   1.22544    0.076
 6346.00    1.23244   1.22764    0.076
 6347.00    1.22885   1.22989    0.075
 6348.00    1.22623   1.23167    0.075
 6349.00    1.23061   1.23323    0.076
 6350.00    1.23437   1.23379    0.077
 6351.00    1.23468   1.23234    0.077
 6352.00    1.23369   1.22931    0.077
 6353.00    1.22693   1.22469    0.078
 6354.00    1.21922   1.21829    0.078
 6355.00    1.20806   1.21046    0.078
 6356.00    1.19837   1.20190    0.078
 6357.00    1.19322   1.19316    0.079
 6358.00    1.18835   1.18467    0.079
 6359.00    1.18422   1.17723    0.080
 6360.00    1.17929   1.17218    0.079
 6361.00    1.17256   1.16955    0.078
 6362.00    1.16903   1.16890    0.077
 6363.00    1.17166   1.17108    0.078
 6364.00    1.17662   1.17621    0.078
 6365.00    1.18548   1.18358    0.077
 6366.00    1.19190   1.19226    0.077
 6367.00    1.19474   1.20231    0.077
 6368.00    1.19920   1.21306    0.077
 6369.00    1.20576   1.22352    0.076
 6370.00    1.21429   1.23322    0.076
 6371.00    1.22508   1.24154    0.076
 6372.00    1.23637   1.24861    0.077
 6373.00    1.24817   1.25383    0.077
 6374.00    1.25573   1.25729    0.077
 6375.00    1.25954   1.25929    0.077
 6376.00    1.26108   1.26017    0.078
 6377.00    1.26085   1.26028    0.078
 6378.00    1.25884   1.25927    0.078
 6379.00    1.25561   1.25790    0.078
 6380.00    1.25233   1.25668    0.078
 6381.00    1.24901   1.25563    0.078
 6382.00    1.24847   1.25478    0.079
 6383.00    1.24940   1.25429    0.079
 6384.00    1.25278   1.25449    0.079
 6385.00    1.25729   1.25451    0.079
 6386.00    1.25955   1.25446    0.078
 6387.00    1.26093   1.25403    0.078
 6388.00    1.26169   1.25224    0.078
 6389.00    1.26224   1.25008    0.077
 6390.00    1.26209   1.24742    0.077
 6391.00    1.26173   1.24448    0.077
 6392.00    1.25960   1.24149    0.077
 6393.00    1.25706   1.23842    0.077
 6394.00    1.25075   1.23578    0.077
 6395.00    1.24374   1.23299    0.077
 6396.00    1.23423   1.23140    0.078
 6397.00    1.22437   1.23005    0.078
 6398.00    1.21839   1.23031    0.078
 6399.00    1.21281   1.23220    0.078
 6400.00    1.21350   1.23386    0.077
 6401.00    1.21462   1.23607    0.077
 6402.00    1.21299   1.23781    0.078
 6403.00    1.21127   1.23938    0.079
 6404.00    1.21229   1.24044    0.079
 6405.00    1.21353   1.24174    0.078
 6406.00    1.22162   1.24297    0.078
 6407.00    1.22973   1.24277    0.079
 6408.00    1.23808   1.24191    0.079
 6409.00    1.24496   1.24053    0.079
 6410.00    1.23772   1.23898    0.079
 6411.00    1.22954   1.23767    0.079
 6412.00    1.21480   1.23621    0.078
 6413.00    1.20259   1.23565    0.077
 6414.00    1.20404   1.23528    0.076
 6415.00    1.20673   1.23423    0.075
 6416.00    1.21482   1.23355    0.076
 6417.00    1.22092   1.23339    0.076
 6418.00    1.21998   1.23367    0.076
 6419.00    1.21982   1.23417    0.076
 6420.00    1.22205   1.23562    0.076
 6421.00    1.22674   1.23735    0.076
 6422.00    1.23767   1.23961    0.076
 6423.00    1.24633   1.24238    0.076
 6424.00    1.25001   1.24487    0.076
 6425.00    1.25158   1.24716    0.076
 6426.00    1.24914   1.24873    0.078
 6427.00    1.24610   1.25008    0.078
 6428.00    1.24205   1.24992    0.079
 6429.00    1.24175   1.24909    0.079
 6430.00    1.24689   1.24788    0.081
 6431.00    1.25193   1.24640    0.081
 6432.00    1.25684   1.24525    0.081
 6433.00    1.25514   1.24386    0.080
 6434.00    1.24600   1.24306    0.079
 6435.00    1.24062   1.24298    0.078
 6436.00    1.23898   1.24431    0.078
 6437.00    1.23857   1.24643    0.078
 6438.00    1.23925   1.24895    0.077
 6439.00    1.23873   1.25182    0.077
 6440.00    1.23728   1.25469    0.077
 6441.00    1.24224   1.25751    0.077
 6442.00    1.25155   1.25962    0.076
 6443.00    1.25685   1.26057    0.076
 6444.00    1.25977   1.26023    0.077
 6445.00    1.26021   1.25833    0.076
 6446.00    1.25938   1.25499    0.076
 6447.00    1.25712   1.25031    0.077
 6448.00    1.25423   1.24515    0.078
 6449.00    1.24373   1.23995    0.079
 6450.00    1.23030   1.23530    0.080
 6451.00    1.22158   1.23206    0.080
 6452.00    1.21442   1.23036    0.079
 6453.00    1.21795   1.23055    0.079
 6454.00    1.22444   1.23208    0.079
 6455.00    1.22794   1.23570    0.079
 6456.00    1.23076   1.23959    0.080
 6457.00    1.23071   1.24291    0.080
 6458.00    1.23013   1.24572    0.081
 6459.00    1.23151   1.24759    0.079
 6460.00    1.23316   1.24867    0.078
 6461.00    1.23218   1.24955    0.078
 6462.00    1.23094   1.25007    0.077
 6463.00    1.23331   1.25059    0.076
 6464.00    1.23590   1.25109    0.075
 6465.00    1.24708   1.25179    0.076
 6466.00    1.25847   1.25259    0.076
 6467.00    1.25883   1.25357    0.076
 6468.00    1.25911   1.25578    0.076
 6469.00    1.25694   1.25722    0.076
 6470.00    1.25538   1.25871    0.075
 6471.00    1.26230   1.25954    0.077
 6472.00    1.26935   1.26008    0.078
 6473.00    1.27770   1.25984    0.078
 6474.00    1.28363   1.25915    0.079
 6475.00    1.27330   1.25821    0.079
 6476.00    1.26368   1.25627    0.079
 6477.00    1.25787   1.25421    0.079
 6478.00    1.25388   1.25136    0.080
 6479.00    1.25756   1.24839    0.080
 6480.00    1.25961   1.24515    0.080
 6481.00    1.25598   1.24198    0.079
 6482.00    1.25311   1.23878    0.078
 6483.00    1.25245   1.23583    0.078
 6484.00    1.25311   1.23284    0.078
 6485.00    1.25705   1.22933    0.077
 6486.00    1.25980   1.22513    0.077
 6487.00    1.25999   1.21995    0.076
 6488.00    1.25547   1.21314    0.076
 6489.00    1.24216   1.20385    0.076
 6490.00    1.22591   1.19299    0.076
 6491.00    1.20487   1.18070    0.075
 6492.00    1.18687   1.16764    0.075
 6493.00    1.17323   1.15512    0.075
 6494.00    1.16323   1.14347    0.075
 6495.00    1.15782   1.13490    0.076
 6496.00    1.15655   1.12957    0.077
 6497.00    1.15987   1.12827    0.077
 6498.00    1.16231   1.13088    0.077
 6499.00    1.16390   1.13714    0.078
 6500.00    1.16860   1.14700    0.078
 6501.00    1.17600   1.15860    0.078
 6502.00    1.19068   1.17193    0.078
 6503.00    1.21090   1.18460    0.079
 6504.00    1.22678   1.19676    0.079
 6505.00    1.23975   1.20766    0.079
 6506.00    1.24952   1.21676    0.079
 6507.00    1.25741   1.22407    0.078
 6508.00    1.26258   1.22951    0.078
 6509.00    1.26635   1.23330    0.078
 6510.00    1.26636   1.23557    0.077
 6511.00    1.26471   1.23654    0.076
 6512.00    1.26226   1.23659    0.076
 6513.00    1.25951   1.23584    0.076
 6514.00    1.25981   1.23461    0.076
 6515.00    1.26109   1.23366    0.076
 6516.00    1.26492   1.23259    0.076
 6517.00    1.26943   1.23205    0.076
 6518.00    1.26871   1.23172    0.076
 6519.00    1.26684   1.23214    0.077
 6520.00    1.26762   1.23315    0.077
 6521.00    1.26887   1.23437    0.077
 6522.00    1.26775   1.23577    0.078
 6523.00    1.26631   1.23723    0.079
 6524.00    1.26461   1.23878    0.081
 6525.00    1.26289   1.23965    0.083
 6526.00    1.26051   1.24025    0.083
 6527.00    1.25808   1.24011    0.082
 6528.00    1.25567   1.23975    0.000
 6529.00    1.25326   1.23932    0.000
 6530.00    1.25037   1.23912    0.000
 6531.00    1.24785   1.23904    0.000
 6532.00    1.25452   1.23926    0.000
 6533.00    1.26129   1.23984    0.000
 6534.00    1.26940   1.24100    0.000
 6535.00    1.27650   1.24240    0.000
 6536.00    1.27453   1.24343    0.000
 6537.00    1.27252   1.24419    0.000
 6538.00    1.27026   1.24425    0.000
 6539.00    1.26979   1.24363    0.000
 6540.00    1.27845   1.24200    0.000
 6541.00    1.28661   1.23904    0.000
 6542.00    1.29264   1.23529    0.000
 6543.00    1.29700   1.23072    0.000
 6544.00    1.29561   1.22566    0.000
 6545.00    1.29560   1.22037    0.000
 6546.00    1.29959   1.21480    0.000
 6547.00    1.30376   1.20947    0.000
 6548.00    1.30843   1.20405    0.000
 6549.00    1.30715   1.19887    0.000
 6550.00    1.29327   1.19331    0.000
 6551.00    1.27829   1.18761    0.000
 6552.00    1.26126   1.18128    0.000
 6553.00    1.24611   1.17407    0.000
 6554.00    1.23401   1.16592    0.000
 6555.00    1.22238   1.15612    0.000
 6556.00    1.21143   1.14498    0.000
 6557.00    1.20300   1.13225    0.000
 6558.00    1.19771   1.11869    0.000
 6559.00    1.19647   1.10647    0.000
 6560.00    1.19966   1.09495    0.000
 6561.00    1.19821   1.08550    0.000
 6562.00    1.19226   1.07879    0.000
 6563.00    1.18724   1.07579    0.000
 6564.00    1.18300   1.07646    0.000
 6565.00    1.18485   1.08070    0.000
 6566.00    1.19128   1.08834    0.000
 6567.00    1.19882   1.09773    0.000
 6568.00    1.20710   1.10850    0.000
 6569.00    1.21508   1.11923    0.000
 6570.00    1.22288   1.13025    0.000
 6571.00    1.22174   1.14043    0.000
 6572.00    1.21610   1.14841    0.000
 6573.00    1.21459   1.15519    0.000
 6574.00    1.21488   1.16099    0.000
 6575.00    1.21324   1.16616    0.000
 6576.00    1.21086   1.17110    0.000
 6577.00    1.21964   1.17613    0.000
 6578.00    1.23194   1.18100    0.000
 6579.00    1.26160   1.18534    0.000
 6580.00    1.29584   1.18966    0.000
 6581.00    1.32792   1.19331    0.000
 6582.00    1.35954   1.19676    0.000
 6583.00    1.37972   1.19954    0.000
 6584.00    1.39794   1.20139    0.000
 6585.00    1.39349   1.20237    0.000
 6586.00    1.38609   1.20224    0.000
 6587.00    1.36331   1.20116    0.000
 6588.00    1.33912   1.19901    0.000
 6589.00    1.31325   1.19635    0.000
 6590.00    1.28727   1.19288    0.000
 6591.00    1.27001   1.18896    0.000
 6592.00    1.25295   1.18513    0.000
 6593.00    1.23737   1.18174    0.000
 6594.00    1.22215   1.17970    0.000
 6595.00    1.21536   1.17855    0.000
 6596.00    1.20923   1.17889    0.000
 6597.00    1.21149   1.18023    0.000
 6598.00    1.21453   1.18234    0.000
 6599.00    1.22435   1.18483    0.000
 6600.00    1.23335   1.18747    0.000
 6601.00    1.23717   1.18998    0.000
 6602.00    1.24023   1.19123    0.000
 6603.00    1.23951   1.19154    0.000
 6604.00    1.23935   1.19086    0.000
 6605.00    1.24144   1.18974    0.000
 6606.00    1.24278   1.18851    0.000
 6607.00    1.24161   1.18736    0.000
 6608.00    1.23948   1.18673    0.000
 6609.00    1.23466   1.18672    0.076
 6610.00    1.23041   1.18804    0.076
 6611.00    1.22751   1.19008    0.077
 6612.00    1.22675   1.19321    0.078
 6613.00    1.23045   1.19675    0.078
 6614.00    1.23512   1.20060    0.078
 6615.00    1.24153   1.20421    0.079
 6616.00    1.24843   1.20733    0.079
 6617.00    1.25612   1.20984    0.079
 6618.00    1.26073   1.21099    0.079
 6619.00    1.26106   1.21112    0.079
 6620.00    1.26160   1.20994    0.079
 6621.00    1.26239   1.20817    0.078
 6622.00    1.26130   1.20534    0.078
 6623.00    1.25818   1.20184    0.078
 6624.00    1.25217   1.19787    0.078
 6625.00    1.24342   1.19371    0.078
 6626.00    1.23423   1.18949    0.078
 6627.00    1.22467   1.18519    0.077
 6628.00    1.21669   1.18125    0.076
 6629.00    1.20988   1.17736    0.076
 6630.00    1.20422   1.17412    0.076
 6631.00    1.19930   1.17121    0.076
 6632.00    1.19715   1.16917    0.077
 6633.00    1.19657   1.16770    0.077
 6634.00    1.19565   1.16691    0.077
 6635.00    1.19455   1.16688    0.077
 6636.00    1.19932   1.16732    0.077
 6637.00    1.20660   1.16832    0.078
 6638.00    1.21648   1.16951    0.079
 6639.00    1.22731   1.17079    0.080
 6640.00    1.23291   1.17193    0.080
 6641.00    1.23689   1.17299    0.080
 6642.00    1.23221   1.17383    0.079
 6643.00    1.22528   1.17436    0.078
 6644.00    1.22068   1.17476    0.078
 6645.00    1.21657   1.17502    0.077
 6646.00    1.21602   1.17530    0.077
 6647.00    1.21607   1.17567    0.078
 6648.00    1.21285   1.17611    0.077
 6649.00    1.20923   1.17633    0.077
 6650.00    1.20889   1.17651    0.076
 6651.00    1.20884   1.17661    0.076
 6652.00    1.21144   1.17637    0.077
 6653.00    1.21418   1.17576    0.078
 6654.00    1.21575   1.17469    0.077
 6655.00    1.21734   1.17323    0.077
 6656.00    1.22166   1.17108    0.077
 6657.00    1.22566   1.16860    0.078
 6658.00    1.22307   1.16559    0.079
 6659.00    1.21989   1.16234    0.080
 6660.00    1.20965   1.15887    0.079
 6661.00    1.19986   1.15550    0.078
 6662.00    1.19388   1.15257    0.078
 6663.00    1.18809   1.15014    0.077
 6664.00    1.18345   1.14875    0.078
 6665.00    1.17995   1.14818    0.078
 6666.00    1.18195   1.14874    0.078
 6667.00    1.18572   1.15013    0.078
 6668.00    1.19656   1.15224    0.078
 6669.00    1.20668   1.15462    0.078
 6670.00    1.21447   1.15681    0.078
 6671.00    1.22162   1.15854    0.078
 6672.00    1.22697   1.15959    0.078
 6673.00    1.23003   1.15979    0.078
 6674.00    1.22766   1.15897    0.079
 6675.00    1.22312   1.15740    0.079
 6676.00    1.21415   1.15539    0.079
 6677.00    1.20630   1.15338    0.078
 6678.00    1.20044   1.15158    0.078
 6679.00    1.19579   1.15054    0.078
 6680.00    1.19301   1.15023    0.078
 6681.00    1.19314   1.15092    0.079
 6682.00    1.19726   1.15240    0.079
 6683.00    1.20243   1.15447    0.079
 6684.00    1.20885   1.15685    0.079
 6685.00    1.21584   1.15925    0.079
 6686.00    1.22341   1.16151    0.079
 6687.00    1.22302   1.16316    0.079
 6688.00    1.21514   1.16425    0.078
 6689.00    1.20684   1.16439    0.078
 6690.00    1.19821   1.16386    0.078
 6691.00    1.19696   1.16267    0.078
 6692.00    1.20109   1.16092    0.078
 6693.00    1.20468   1.15885    0.078
 6694.00    1.20791   1.15650    0.078
 6695.00    1.20508   1.15425    0.078
 6696.00    1.19884   1.15210    0.000
 6697.00    1.19358   1.15043    0.000
 6698.00    1.18880   1.14913    0.000
 6699.00    1.18760   1.14842    0.000
 6700.00    1.18791   1.14804    0.000
 6701.00    1.18711   1.14800    0.000
 6702.00    1.18590   1.14812    0.000
 6703.00    1.18225   1.14817    0.000
 6704.00    1.17786   1.14817    0.000
 6705.00    1.17955   1.14781    0.000
 6706.00    1.18277   1.14713    0.000
 6707.00    1.18366   1.14582    0.000
 6708.00    1.18407   1.14390    0.000
 6709.00    1.18771   1.14133    0.000
 6710.00    1.19187   1.13804    0.000
 6711.00    1.19898   1.13434    0.000
 6712.00    1.20645   1.13032    0.000
 6713.00    1.22338   1.12622    0.000
 6714.00    1.24110   1.12241    0.000
 6715.00    1.24203   1.11902    0.000
 6716.00    1.24216   1.11661    0.000
 6717.00    1.23637   1.11514    0.000
 6718.00    1.23032   1.11498    0.000
 6719.00    1.21358   1.11582    0.000
 6720.00    1.19714   1.11781    0.000
 6721.00    1.18654   1.12052    0.000
 6722.00    1.17635   1.12363    0.000
 6723.00    1.17075   1.12710    0.000
 6724.00    1.16636   1.13030    0.000
 6725.00    1.17151   1.13350    0.000
 6726.00    1.17917   1.13610    0.000
 6727.00    1.20180   1.13861    0.000
 6728.00    1.22368   1.14038    0.000
 6729.00    1.24202   1.14181    0.000
 6730.00    1.25583   1.14262    0.000
 6731.00    1.25214   1.14308    0.000
 6732.00    1.25008   1.14303    0.000
 6733.00    1.25324   1.14242    0.000
 6734.00    1.25213   1.14138    0.000
 6735.00    1.23936   1.13985    0.000
 6736.00    1.22682   1.13810    0.000
 6737.00    1.21481   1.13591    0.000
 6738.00    1.20421   1.13371    0.000
 6739.00    1.19644   1.13129    0.000
 6740.00    1.18864   1.12905    0.000
 6741.00    1.18081   1.12675    0.000
 6742.00    1.17429   1.12478    0.000
 6743.00    1.16981   1.12286    0.000
 6744.00    1.17087   1.12124    0.000
 6745.00    1.17942   1.11974    0.000
 6746.00    1.18011   1.11845    0.000
 6747.00    1.17147   1.11755    0.000
 6748.00    1.16388   1.11693    0.000
 6749.00    1.15741   1.11697    0.000
 6750.00    1.15328   1.11733    0.000
 6751.00    1.15131   1.11857    0.000
 6752.00    1.15318   1.12033    0.000
 6753.00    1.15818   1.12296    0.084
 6754.00    1.16276   1.12606    0.085
 6755.00    1.16703   1.12964    0.086
 6756.00    1.16164   1.13349    0.087
 6757.00    1.15017   1.13716    0.087
 6758.00    1.15605   1.14064    0.088
 6759.00    1.17150   1.14333    0.089
 6760.00    1.21347   1.14542    0.090
 6761.00    1.26815   1.14635    0.092
 6762.00    1.31207   1.14646    0.094
 6763.00    1.35153   1.14564    0.095
 6764.00    1.36641   1.14411    0.095
 6765.00    1.37259   1.14222    0.095
 6766.00    1.36487   1.14013    0.094
 6767.00    1.35299   1.13833    0.093
 6768.00    1.34389   1.13694    0.092
 6769.00    1.33549   1.13639    0.091
 6770.00    1.31891   1.13660    0.090
 6771.00    1.30069   1.13779    0.088
 6772.00    1.27807   1.13965    0.087
 6773.00    1.25476   1.14203    0.086
 6774.00    1.24298   1.14456    0.085
 6775.00    1.23254   1.14686    0.084
 6776.00    1.21816   1.14868    0.083
 6777.00    1.20347   1.14956    0.083
 6778.00    1.22343   1.14944    0.085
 6779.00    1.24491   1.14810    0.086
 6780.00    1.25672   1.14574    0.088
 6781.00    1.26798   1.14252    0.089
 6782.00    1.25782   1.13880    0.089
 6783.00    1.24829   1.13500    0.088
 6784.00    1.25016   1.13138    0.088
 6785.00    1.25102   1.12841    0.087
 6786.00    1.24083   1.12614    0.087
 6787.00    1.23093   1.12478    0.088
 6788.00    1.22323   1.12416    0.087
 6789.00    1.21970   1.12418    0.087
 6790.00    1.24042   1.12466    0.088
 6791.00    1.25599   1.12533    0.089
 6792.00    1.24777   1.12617    0.088
 6793.00    1.24410   1.12697    0.088
 6794.00    1.25759   1.12783    0.087
 6795.00    1.26401   1.12865    0.086
 6796.00    1.24807   1.12954    0.085
 6797.00    1.24040   1.13050    0.085
 6798.00    1.25489   1.13145    0.085
 6799.00    1.26122   1.13251    0.085
 6800.00    1.24881   1.13343    0.085
 6801.00    1.23708   1.13433    0.085
 6802.00    1.22669   1.13496    0.086
 6803.00    1.22137   1.13541    0.086
 6804.00    1.22481   1.13553    0.086
 6805.00    1.22499   1.13545    0.085
 6806.00    1.22022   1.13513    0.085
 6807.00    1.21772   1.13465    0.085
 6808.00    1.21826   1.13412    0.085
 6809.00    1.22230   1.13356    0.085
 6810.00    1.23045   1.13309    0.086
 6811.00    1.22887   1.13276    0.087
 6812.00    1.21723   1.13264    0.088
 6813.00    1.22297   1.13275    0.088
 6814.00    1.24460   1.13315    0.088
 6815.00    1.24931   1.13381    0.088
 6816.00    1.24040   1.13477    0.087
 6817.00    1.22846   1.13588    0.086
 6818.00    1.21439   1.13725    0.085
 6819.00    1.21122   1.13865    0.084
 6820.00    1.21483   1.14011    0.083
 6821.00    1.22392   1.14145    0.083
 6822.00    1.23598   1.14265    0.083
 6823.00    1.24001   1.14356    0.083
 6824.00    1.24024   1.14418    0.084
 6825.00    1.23228   1.14448    0.084
 6826.00    1.22097   1.14448    0.084
 6827.00    1.21650   1.14427    0.085
 6828.00    1.21439   1.14381    0.086
 6829.00    1.22854   1.14323    0.087
 6830.00    1.24744   1.14246    0.089
 6831.00    1.25801   1.14155    0.089
 6832.00    1.26657   1.14033    0.088
 6833.00    1.26382   1.13881    0.087
 6834.00    1.25887   1.13674    0.086
 6835.00    1.25918   1.13423    0.086
 6836.00    1.26029   1.13119    0.087
 6837.00    1.24900   1.12786    0.088
 6838.00    1.23631   1.12439    0.088
 6839.00    1.21785   1.12114    0.088
 6840.00    1.19896   1.11841    0.087
 6841.00    1.19288   1.11645    0.086
 6842.00    1.18731   1.11550    0.086
 6843.00    1.18495   1.11555    0.085
 6844.00    1.18320   1.11656    0.084
 6845.00    1.20517   1.11826    0.083
 6846.00    1.22644   1.12034    0.083
 6847.00    1.23578   1.12242    0.085
 6848.00    1.24474   1.12414    0.087
 6849.00    1.24972   1.12521    0.086
 6850.00    1.25335   1.12542    0.086
 6851.00    1.24689   1.12475    0.087
 6852.00    1.23882   1.12323    0.087
 6853.00    1.22168   1.12105    0.086
 6854.00    1.20540   1.11843    0.085
 6855.00    1.19306   1.11563    0.084
 6856.00    1.18301   1.11295    0.084
 6857.00    1.18152   1.11056    0.084
 6858.00    1.17686   1.10868    0.084
 6859.00    1.16244   1.10737    0.084
 6860.00    1.15358   1.10663    0.084
 6861.00    1.15936   1.10641    0.084
 6862.00    1.16569   1.10655    0.083
 6863.00    1.17322   1.10694    0.083
 6864.00    1.17952   1.10739    0.083
 6865.00    1.18342   1.10782    0.084
 6866.00    1.18671   1.10812    0.085
 6867.00    1.18896   1.10831    0.087
 6868.00    1.18999   1.10841    0.088
 6869.00    1.18923   1.10853    0.088
 6870.00    1.19103   1.10872    0.088
 6871.00    1.19623   1.10912    0.087
 6872.00    1.19869   1.10975    0.087
 6873.00    1.19798   1.11064    0.086
 6874.00    1.19232   1.11177    0.085
 6875.00    1.18159   1.11306    0.084
 6876.00    1.17534   1.11442    0.084
 6877.00    1.17314   1.11575    0.084
 6878.00    1.16997   1.11703    0.084
 6879.00    1.16604   1.11819    0.084
 6880.00    1.16194   1.11937    0.083
 6881.00    1.15772   1.12053    0.083
 6882.00    1.16034   1.12194    0.083
 6883.00    1.16715   1.12355    0.083
 6884.00    1.17504   1.12558    0.083
 6885.00    1.18349   1.12795    0.083
 6886.00    1.18542   1.13069    0.083
 6887.00    1.18432   1.13364    0.084
 6888.00    1.18486   1.13664    0.085
 6889.00    1.18606   1.13956    0.085
 6890.00    1.18833   1.14214    0.086
 6891.00    1.19098   1.14436    0.086
 6892.00    1.19164   1.14604    0.087
 6893.00    1.19175   1.14729    0.087
 6894.00    1.19743   1.14808    0.087
 6895.00    1.20444   1.14858    0.087
 6896.00    1.20185   1.14889    0.087
 6897.00    1.19743   1.14913    0.086
 6898.00    1.20931   1.14944    0.086
 6899.00    1.22360   1.14983    0.086
 6900.00    1.22304   1.15042    0.086
 6901.00    1.22087   1.15110    0.086
 6902.00    1.22345   1.15195    0.085
 6903.00    1.22637   1.15274    0.085
 6904.00    1.22064   1.15354    0.085
 6905.00    1.21460   1.15409    0.085
 6906.00    1.21242   1.15441    0.085
 6907.00    1.21032   1.15433    0.085
 6908.00    1.21076   1.15386    0.086
 6909.00    1.21071   1.15295    0.086
 6910.00    1.20298   1.15164    0.087
 6911.00    1.19546   1.15008    0.088
 6912.00    1.19009   1.14833    0.088
 6913.00    1.18322   1.14664    0.088
 6914.00    1.16555   1.14504    0.088
 6915.00    1.15321   1.14376    0.087
 6916.00    1.17033   1.14275    0.088
 6917.00    1.18536   1.14204    0.089
 6918.00    1.19117   1.14153    0.088
 6919.00    1.19569   1.14107    0.087
 6920.00    1.19554   1.14058    0.086
 6921.00    1.19565   1.13988    0.086
 6922.00    1.19655   1.13901    0.085
 6923.00    1.19725   1.13791    0.085
 6924.00    1.19745   1.13671    0.085
 6925.00    1.19754   1.13554    0.085
 6926.00    1.19739   1.13449    0.086
 6927.00    1.19407   1.13375    0.086
 6928.00    1.18464   1.13331    0.087
 6929.00    1.18241   1.13330    0.088
 6930.00    1.19228   1.13362    0.089
 6931.00    1.19503   1.13428    0.090
 6932.00    1.18729   1.13519    0.089
 6933.00    1.18353   1.13624    0.090
 6934.00    1.18492   1.13742    0.091
 6935.00    1.18683   1.13853    0.092
 6936.00    1.18933   1.13957    0.091
 6937.00    1.18970   1.14034    0.091
 6938.00    1.18793   1.14085    0.091
 6939.00    1.18272   1.14095    0.090
 6940.00    1.17447   1.14066    0.089
 6941.00    1.17523   1.13999    0.088
 6942.00    1.18306   1.13898    0.088
 6943.00    1.19135   1.13778    0.088
 6944.00    1.19996   1.13647    0.088
 6945.00    1.19997   1.13525    0.087
 6946.00    1.19480   1.13414    0.087
 6947.00    1.18951   1.13328    0.087
 6948.00    1.18414   1.13266    0.087
 6949.00    1.18662   1.13232    0.088
 6950.00    1.19269   1.13225    0.089
 6951.00    1.19747   1.13245    0.089
 6952.00    1.20175   1.13298    0.089
 6953.00    1.19325   1.13382    0.089
 6954.00    1.18048   1.13505    0.090
 6955.00    1.18303   1.13662    0.090
 6956.00    1.18988   1.13856    0.091
 6957.00    1.19411   1.14077    0.091
 6958.00    1.19772   1.14320    0.091
 6959.00    1.20406   1.14571    0.091
 6960.00    1.21090   1.14818    0.090
 6961.00    1.20734   1.15054    0.089
 6962.00    1.20230   1.15265    0.088
 6963.00    1.20204   1.15449    0.088
 6964.00    1.20228   1.15595    0.088
 6965.00    1.20156   1.15704    0.088
 6966.00    1.20078   1.15765    0.088
 6967.00    1.19668   1.15776    0.089
 6968.00    1.19248   1.15724    0.090
 6969.00    1.19946   1.15605    0.091
 6970.00    1.20593   1.15408    0.091
 6971.00    1.19656   1.15135    0.092
 6972.00    1.18772   1.14788    0.092
 6973.00    1.18668   1.14383    0.092
 6974.00    1.18495   1.13942    0.091
 6975.00    1.17650   1.13504    0.092
 6976.00    1.16938   1.13103    0.092
 6977.00    1.17151   1.12786    0.092
 6978.00    1.17248   1.12583    0.092
 6979.00    1.16728   1.12526    0.092
 6980.00    1.16378   1.12613    0.091
 6981.00    1.16760   1.12841    0.090
 6982.00    1.16975   1.13178    0.090
 6983.00    1.16594   1.13590    0.089
 6984.00    1.16750   1.14031    0.089
 6985.00    1.18507   1.14462    0.089
 6986.00    1.19942   1.14850    0.090
 6987.00    1.20556   1.15171    0.090
 6988.00    1.20959   1.15418    0.090
 6989.00    1.20901   1.15587    0.090
 6990.00    1.20590   1.15686    0.091
 6991.00    1.19799   1.15723    0.092
 6992.00    1.19143   1.15706    0.093
 6993.00    1.18708   1.15642    0.093
 6994.00    1.18403   1.15536    0.093
 6995.00    1.18284   1.15392    0.093
 6996.00    1.18122   1.15216    0.093
 6997.00    1.17906   1.15013    0.093
 6998.00    1.18167   1.14795    0.093
 6999.00    1.18964   1.14569    0.093
 7000.00    1.18737   1.14353    0.092
 7001.00    1.17494   1.14154    0.092
 7002.00    1.16449   1.13985    0.091
 7003.00    1.15578   1.13849    0.090
 7004.00    1.15170   1.13751    0.090
 7005.00    1.15117   1.13685    0.090
 7006.00    1.16131   1.13644    0.091
 7007.00    1.17866   1.13618    0.093
 7008.00    1.17687   1.13593    0.093
 7009.00    1.16371   1.13558    0.092
 7010.00    1.15575   1.13502    0.093
 7011.00    1.15049   1.13423    0.094
 7012.00    1.15325   1.13322    0.094
 7013.00    1.15961   1.13209    0.095
 7014.00    1.16393   1.13097    0.096
 7015.00    1.16747   1.13001    0.097
 7016.00    1.15825   1.12934    0.096
 7017.00    1.14485   1.12904    0.095
 7018.00    1.14290   1.12917    0.095
 7019.00    1.14410   1.12963    0.095
 7020.00    1.14765   1.13040    0.094
 7021.00    1.15173   1.13135    0.094
 7022.00    1.15890   1.13244    0.093
 7023.00    1.16663   1.13360    0.093
 7024.00    1.17146   1.13486    0.093
 7025.00    1.17588   1.13622    0.093
 7026.00    1.17386   1.13773    0.094
 7027.00    1.17119   1.13937    0.094
 7028.00    1.16560   1.14117    0.094
 7029.00    1.15982   1.14303    0.095
 7030.00    1.15518   1.14492    0.095
 7031.00    1.15063   1.14675    0.095
 7032.00    1.16493   1.14850    0.097
 7033.00    1.17849   1.15019    0.098
 7034.00    1.17196   1.15186    0.098
 7035.00    1.16608   1.15363    0.098
 7036.00    1.16920   1.15561    0.097
 7037.00    1.17252   1.15793    0.096
 7038.00    1.17762   1.16063    0.096
 7039.00    1.18279   1.16376    0.097
 7040.00    1.18852   1.16718    0.096
 7041.00    1.19279   1.17075    0.096
 7042.00    1.18950   1.17422    0.096
 7043.00    1.18841   1.17729    0.095
 7044.00    1.19656   1.17964    0.094
 7045.00    1.20483   1.18098    0.094
 7046.00    1.21347   1.18101    0.096
 7047.00    1.21908   1.17955    0.097
 7048.00    1.21581   1.17647    0.098
 7049.00    1.21419   1.17174    0.099
 7050.00    1.21670   1.16547   -2.000
 7051.00    1.22196   1.15787   -2.000
 7052.00    1.23314   1.14926   -2.000
 7053.00    1.23962   1.14002   -2.000
 7054.00    1.23733   1.13056   -2.000
 7055.00    1.24400   1.12128   -2.000
 7056.00    1.26528   1.11252   -2.000
 7057.00    1.27432   1.10451   -2.000
 7058.00    1.26586   1.09742   -2.000
 7059.00    1.26378   1.09129   -2.000
 7060.00    1.26973   1.08614   -2.000
 7061.00    1.27873   1.08189   -2.000
 7062.00    1.29113   1.07847   -2.000
 7063.00    1.30301   1.07581   -2.000
 7064.00    1.31439   1.07388   -2.000
 7065.00    1.30777   1.07266   -2.000
 7066.00    1.28560   1.07216   -2.000
 7067.00    1.25613   1.07241   -2.000
 7068.00    1.22111   1.07342   -2.000
 7069.00    1.22088   1.07518   -2.000
 7070.00    1.24388   1.07760   -2.000
 7071.00    1.26944   1.08052   -2.000
 7072.00    1.29649   1.08375   -2.000
 7073.00    1.31255   1.08702   -2.000
 7074.00    1.32300   1.09003   -2.000
 7075.00    1.31861   1.09250   -2.000
 7076.00    1.30767   1.09414   -2.000
 7077.00    1.29482   1.09473   -2.000
 7078.00    1.28123   1.09407   -2.000
 7079.00    1.28497   1.09204   -2.000
 7080.00    1.29428   1.08864   -2.000
 7081.00    1.28611   1.08392   -2.000
 7082.00    1.27323   1.07807   -2.000
 7083.00    1.25495   1.07133   -2.000
 7084.00    1.23547   1.06404   -2.000
 7085.00    1.23841   1.05655   -2.000
 7086.00    1.24529   1.04924   -2.000
 7087.00    1.23579   1.04241   -2.000
 7088.00    1.22408   1.03636   -2.000
 7089.00    1.20211   1.03127   -2.000
 7090.00    1.17916   1.02727   -2.000
 7091.00    1.16569   1.02440   -2.000
 7092.00    1.15278   1.02262   -2.000
 7093.00    1.15708   1.02186   -2.000
 7094.00    1.16176   1.02197   -2.000
 7095.00    1.15959   1.02282   -2.000
 7096.00    1.15710   1.02418   -2.000
 7097.00    1.14667   1.02591   -2.000
 7098.00    1.13590   1.02779   -2.000
 7099.00    1.12071   1.02965   -2.000
 7100.00    1.10583   1.03134   -2.000
 7101.00    1.09371   1.03274   -2.000
 7102.00    1.08422   1.03378   -2.000
 7103.00    1.09194   1.03438   -2.000
 7104.00    1.09611   1.03459   -2.000
 7105.00    1.08218   1.03439   -2.000
 7106.00    1.07145   1.03389   -2.000
 7107.00    1.07394   1.03316   -2.000
 7108.00    1.07317   1.03234   -2.000
 7109.00    1.06133   1.03153   -2.000
 7110.00    1.05455   1.03085   -2.000
 7111.00    1.06234   1.03036   -2.000
 7112.00    1.07010   1.03011   -2.000
 7113.00    1.07779   1.03008   -2.000
 7114.00    1.08022   1.03020   -2.000
 7115.00    1.07151   1.03036   -2.000
 7116.00    1.07565   1.03043   -2.000
 7117.00    1.10340   1.03028   -2.000
 7118.00    1.12769   1.02977   -2.000
 7119.00    1.14644   1.02881   -2.000
 7120.00    1.16318   1.02735   -2.000
 7121.00    1.17709   1.02536   -2.000
 7122.00    1.18447   1.02289   -2.000
 7123.00    1.18375   1.01999   -2.000
 7124.00    1.16980   1.01683   -2.000
 7125.00    1.14137   1.01350   -2.000
 7126.00    1.13125   1.01025   -2.000
 7127.00    1.13878   1.00723   -2.000
 7128.00    1.15150   1.00467   -2.000
 7129.00    1.16863   1.00275   -2.000
 7130.00    1.15167   1.00159   -2.000
 7131.00    1.10920   1.00130   -2.000
 7132.00    1.09044   1.00183   -2.000
 7133.00    1.08729   1.00313   -2.000
 7134.00    1.08262   1.00501   -2.000
 7135.00    1.07708   1.00730   -2.000
 7136.00    1.09215   1.00973   -2.000
 7137.00    1.11758   1.01212   -2.000
 7138.00    1.12733   1.01423   -2.000
 7139.00    1.13026   1.01592   -2.000
 7140.00    1.12746   1.01712   -2.000
 7141.00    1.12253   1.01778   -2.000
 7142.00    1.11463   1.01794   -2.000
 7143.00    1.10579   1.01767   -2.000
 7144.00    1.10135   1.01713   -2.000
 7145.00    1.09807   1.01647   -2.000
 7146.00    1.09384   1.01589   -2.000
 7147.00    1.08940   1.01558   -2.000
 7148.00    1.09022   1.01568   -2.000
 7149.00    1.09194   1.01631   -2.000
 7150.00    1.09693   1.01748   -2.000
 7151.00    1.10235   1.01915   -2.000
 7152.00    1.09784   1.02117   -2.000
 7153.00    1.09243   1.02338   -2.000
 7154.00    1.09099   1.02553   -2.000
 7155.00    1.08976   1.02741   -2.000
 7156.00    1.10077   1.02885   -2.000
 7157.00    1.11198   1.02971   -2.000
 7158.00    1.11918   1.02999   -2.000
 7159.00    1.12608   1.02971   -2.000
 7160.00    1.12608   1.02904   -2.000
 7161.00    1.12722   1.02814   -2.000
 7162.00    1.14258   1.02731   -2.000
 7163.00    1.15807   1.02673   -2.000
 7164.00    1.17464   1.02667   -2.000
 7165.00    1.19061   1.02724   -2.000
 7166.00    1.20281   1.02851   -2.000
 7167.00    1.21089   1.03045   -2.000
 7168.00    1.19847   1.03289   -2.000
 7169.00    1.18435   1.03564   -2.000
 7170.00    1.16340   1.03840   -2.000
 7171.00    1.14313   1.04094   -2.000
 7172.00    1.12513   1.04299   -2.000
 7173.00    1.10799   1.04440   -2.000
 7174.00    1.09327   1.04506   -2.000
 7175.00    1.09251   1.04495   -2.000
 7176.00    1.12540   1.04416   -2.000
 7177.00    1.14516   1.04279   -2.000
 7178.00    1.13755   1.04099   -2.000
 7179.00    1.12998   1.03893   -2.000
 7180.00    1.12248   1.03672   -2.000
 7181.00    1.11244   1.03447   -2.000
 7182.00    1.09841   1.03225   -2.000
 7183.00    1.08213   1.03010   -2.000
 7184.00    1.06274   1.02800   -2.000
 7185.00    1.05857   1.02604   -2.000
 7186.00    1.07302   1.02421   -2.000
 7187.00    1.07970   1.02261   -2.000
 7188.00    1.07799   1.02129   -2.000
 7189.00    1.08081   1.02038   -2.000
 7190.00    1.08795   1.01992   -2.000
 7191.00    1.07947   1.01996   -2.000
 7192.00    1.05789   1.02051   -2.000
 7193.00    1.04898   1.02147   -2.000
 7194.00    1.04941   1.02282   -2.000
 7195.00    1.04844   1.02437   -2.000
 7196.00    1.04655   1.02603   -2.000
 7197.00    1.04055   1.02763   -2.000
 7198.00    1.03221   1.02907   -2.000
 7199.00    1.03852   1.03022   -2.000
 7200.00    1.05205   1.03102   -2.000
 7201.00    1.06061   1.03141   -2.000
 7202.00    1.06704   1.03139   -2.000
 7203.00    1.07247   1.03102   -2.000
 7204.00    1.07754   1.03038   -2.000
 7205.00    1.05987   1.02961   -2.000
 7206.00    1.03517   1.02883   -2.000
 7207.00    1.01887   1.02828   -2.000
 7208.00    1.00475   1.02802   -2.000
 7209.00    1.00811   1.02826   -2.000
 7210.00    1.01515   1.02897   -2.000
 7211.00    1.00970   1.03020   -2.000
 7212.00    1.00218   1.03185   -2.000
 7213.00    1.00345   1.03384   -2.000
 7214.00    1.00580   1.03609   -2.000
 7215.00    0.99989   1.03841   -2.000
 7216.00    0.99326   1.04080   -2.000
 7217.00    1.01671   1.04312   -2.000
 7218.00    1.04169   1.04538   -2.000
