###################################################################
## OUTPUT of StarlightChains_v04.for    [Cid@UFSC - 01/Apr/2007] ##
###################################################################

## Some input info
KUG0210-078._58_49.txt                   [arq_obs]
Base.CB07.vall.4m                        [arq_base]
Masks.EmLines.NEW.gm                     [arq_masks]
StCv04.C11.config                        [arq_config]
   66                                    [N_base]
    0                                    [N_YAV_components = # of components with extra extinction!]
    0                                    [i_FitPowerLaw (1/0 = Yes/No)]
-9.99                                    [alpha_PowerLaw]
CCM                                      [red_law_option]
 1.458241                                [q_norm = A(l_norm)/A(V)]

## (Re)Sampling Parameters
 3741.00                                 [l_ini (A)]
 7218.00                                 [l_fin (A)]
    1.00                                 [dl    (A)]     (OBS: dl_cushion =    50.00 A)

## Normalization info
 4020.00                                 [l_norm (A) - for base]
 4010.00                                 [llow_norm (A) - window for f_obs]
 4060.00                                 [lupp_norm (A) - window for f_obs]
2.862185E-19                             [fobs_norm (in input units)]

## S/N
 3691.00                                 [llow_SN (A) - window for S/N]
 7268.00                                 [lupp_SN (A) - window for S/N]
   1.699                                 [S/N in S/N window]
   0.113                                 [S/N in norm. window]
   0.005                                 [S/N_err in S/N window]
   0.000                                 [S/N_err in norm. window]
  1.0000                                 [fscale_chi2]

## etc...
    -2008028                             [idum_orig]
  2318                                   [NOl_eff]
  2087                                   [Nl_eff]
   231    NSIGMA                         [Ntot_cliped & clip_method]
   985110                                [Nglobal_steps]
   7                                     [N_chains]
  42                                     [NEX0s_base = N_base in EX0s-fits]
 0   0   1      231   2.0   1.969E+02    [Clip-Bug, RC-Crash & Burn-In warning-flags, n_censored_weights, wei_nsig_threshold & wei_limit]
    26     25.601     24.908      0.693  [idt_all, wdt_TotTime, wdt_UsrTime & wdt_SysTime (sec)]

## Synthesis Results - Best model ##

 7.27819E-05                             [chi2/Nl_eff]
    74.25289                             [adev (%)]

   129.98448                             [sum-of-x (%)]
 5.58173E-17                             [Flux_tot (units of input spectrum!)]
 2.54248E-12                             [Mini_tot (???)]
 1.30198E-12                             [Mcor_tot (???)]

 174.29                                  [v0_min  (km/s)]
  65.56                                  [vd_min  (km/s)]
 3.7308                                  [AV_min  (mag)]
 0.0000                                  [YAV_min (mag)]

# j     x_j(%)      Mini_j(%)     Mcor_j(%)     age_j(yr)     Z_j      (L/M)_j    YAV?  Mstars   component_j        a/Fe...       SSP_chi2r SSP_adev(%)   SSP_AV   SSP_x(%)
  1      0.0000     0.0000E+00    0.0000E+00    1.000000E+06  0.00400  1.094E-02    0   1.0000   age020_m42            0.0000     1.7126E-05    39.8002   1.4863  2504.1638
  2      0.0000     0.0000E+00    0.0000E+00    3.160000E+06  0.00400  4.007E-02    0   0.9999   age045_m42            0.0000     1.7313E-05    40.4297   0.8522  2574.2891
  3      0.0000     0.0000E+00    0.0000E+00    5.010000E+06  0.00400  2.539E-02    0   0.9488   age055_m42            0.0000     1.7296E-05    40.0977   1.1323  2551.2954
  4      0.4472     2.8828E-04    5.1903E-04    6.610000E+06  0.00400  2.620E-02    0   0.9220   age061_m42            0.0000     1.7270E-05    40.5280   0.7797  2580.2153
  5      2.1257     2.7157E-03    4.6997E-03    1.000000E+07  0.00400  1.322E-02    0   0.8862   age070_m42            0.0000     1.7276E-05    41.6830   0.5228  2634.1392
  6      0.0853     1.8279E-04    3.0594E-04    1.445000E+07  0.00400  7.883E-03    0   0.8571   age078_m42            0.0000     1.7214E-05    41.3530   0.8203  2595.0601
  7      0.0000     0.0000E+00    0.0000E+00    2.512000E+07  0.00400  5.251E-03    0   0.8174   age090_m42            0.0000     1.7349E-05    42.0480   0.4110  2634.3828
  8      0.0000     0.0000E+00    0.0000E+00    4.000000E+07  0.00400  3.649E-03    0   0.7851   age104_m42            0.0000     1.7326E-05    41.9969   0.1922  2644.7319
  9      0.0000     0.0000E+00    0.0000E+00    5.500000E+07  0.00400  3.098E-03    0   0.7629   age110_m42            0.0000     1.7325E-05    41.4772   0.3424  2634.9326
 10      0.0000     0.0000E+00    0.0000E+00    1.015200E+08  0.00400  2.228E-03    0   0.7207   age116_m42            0.0000     1.7316E-05    41.2624   0.3659  2630.8315
 11      0.0000     0.0000E+00    0.0000E+00    2.861200E+08  0.00400  1.093E-03    0   0.6648   age125_m42            0.0000     1.7423E-05    42.1788  -0.1644  2672.0532
 12      0.1820     4.6604E-03    5.7926E-03    5.088000E+08  0.00400  6.597E-04    0   0.6365   age130_m42            0.0000     1.7441E-05    41.6433  -0.1715  2679.0708
 13      0.0829     6.5709E-03    7.4397E-03    1.434000E+09  0.00400  2.132E-04    0   0.5798   age139_m42            0.0000     1.7049E-05    44.2280  -1.0000  2675.1099
 14     14.1057     4.0414E+00    4.2435E+00    4.250000E+09  0.00400  5.895E-05    0   0.5377   age158_m42            0.0000     1.7644E-05    55.8771  -1.0000  2385.1733
 15      0.0000     0.0000E+00    0.0000E+00    7.500000E+09  0.00400  3.510E-05    0   0.5212   age171_m42            0.0000     1.8179E-05    61.8462  -1.0000  2278.4568
 16      0.0000     0.0000E+00    0.0000E+00    1.300000E+10  0.00400  2.005E-05    0   0.5034   age193_m42            0.0000     1.8770E-05    67.6390  -1.0000  2189.1633
 17     24.1583     2.6756E+01    2.5952E+01    1.800000E+10  0.00400  1.525E-05    0   0.4967   age213_m42            0.0000     1.8871E-05    68.5890  -1.0000  2168.5232
 18      0.1903     2.5963E-04    5.0699E-04    1.000000E+06  0.00800  1.238E-02    0   1.0000   age020_m52            0.0000     1.7080E-05    39.7873   1.4790  2513.0225
 19      0.4642     2.5507E-04    4.9640E-04    3.160000E+06  0.00800  3.074E-02    0   0.9966   age045_m52            0.0000     1.7037E-05    39.7168   1.4013  2534.6304
 20      0.0000     0.0000E+00    0.0000E+00    5.010000E+06  0.00800  2.668E-02    0   0.9443   age055_m52            0.0000     1.7057E-05    40.0723   1.1916  2558.2957
 21      0.0000     0.0000E+00    0.0000E+00    6.610000E+06  0.00800  2.136E-02    0   0.9177   age061_m52            0.0000     1.7090E-05    41.1409  -0.0019  2686.4011
 22      0.0000     0.0000E+00    0.0000E+00    1.000000E+07  0.00800  1.215E-02    0   0.8827   age070_m52            0.0000     1.7111E-05    41.9432   0.6834  2654.4380
 23      0.0000     0.0000E+00    0.0000E+00    1.445000E+07  0.00800  8.717E-03    0   0.8552   age078_m52            0.0000     1.7107E-05    41.4230   0.7861  2633.4668
 24      1.0223     3.0875E-03    4.9211E-03    2.512000E+07  0.00800  5.592E-03    0   0.8162   age090_m52            0.0000     1.7247E-05    42.1017   0.4700  2669.7200
 25      0.3158     1.3689E-03    2.0961E-03    4.000000E+07  0.00800  3.896E-03    0   0.7841   age104_m52            0.0000     1.7328E-05    42.0184   0.4014  2663.3945
 26      0.0460     3.6198E-04    5.1078E-04    1.015200E+08  0.00800  2.148E-03    0   0.7226   age116_m52            0.0000     1.7369E-05    41.6180   0.3497  2639.3816
 27      2.2113     3.7630E-02    4.9108E-02    2.861200E+08  0.00800  9.925E-04    0   0.6683   age125_m52            0.0000     1.7350E-05    41.5681  -0.1133  2713.8066
 28      0.0000     0.0000E+00    0.0000E+00    9.047900E+08  0.00800  3.141E-04    0   0.6138   age135_m52            0.0000     1.7334E-05    41.1350  -0.8727  2768.5327
 29      0.0000     0.0000E+00    0.0000E+00    1.434000E+09  0.00800  1.719E-04    0   0.5853   age139_m52            0.0000     1.7614E-05    52.6694  -1.0000  2531.5679
 30      0.0000     0.0000E+00    0.0000E+00    2.500000E+09  0.00800  7.872E-05    0   0.5600   age150_m52            0.0000     1.8253E-05    60.3864  -1.0000  2339.9714
 31     19.9228     7.7603E+00    8.2227E+00    4.250000E+09  0.00800  4.336E-05    0   0.5426   age158_m52            0.0000     1.8297E-05    60.8909  -1.0000  2311.1956
 32      0.0000     0.0000E+00    0.0000E+00    6.250000E+09  0.00800  3.159E-05    0   0.5319   age166_m52            0.0000     1.9002E-05    67.5338  -1.0000  2210.4741
 33      9.2532     1.1483E+01    1.1376E+01    1.300000E+10  0.00800  1.361E-05    0   0.5073   age193_m52            0.0000     2.1665E-05    83.1736  -1.0000  1946.2151
 34     12.3063     2.1025E+01    2.0487E+01    1.800000E+10  0.00800  9.886E-06    0   0.4990   age213_m52            0.0000     2.2481E-05    86.1397  -1.0000  1875.5436
 35      0.0000     0.0000E+00    0.0000E+00    1.000000E+06  0.02000  1.544E-02    0   1.0000   age020_m62            0.0000     1.7021E-05    39.7570   1.4671  2527.1792
 36      5.0845     2.2827E-03    4.3943E-03    3.160000E+06  0.02000  3.762E-02    0   0.9858   age045_m62            0.0000     1.6838E-05    39.7142   1.3881  2569.3352
 37      0.9408     4.8210E-04    8.7949E-04    5.010000E+06  0.02000  3.296E-02    0   0.9342   age055_m62            0.0000     1.7037E-05    40.0460   1.0806  2596.1018
 38      0.0000     0.0000E+00    0.0000E+00    8.710000E+06  0.02000  1.154E-02    0   0.8861   age067_m62            0.0000     1.6982E-05    44.5107   0.1284  2784.4514
 39      0.0000     0.0000E+00    0.0000E+00    1.445000E+07  0.02000  7.663E-03    0   0.8472   age078_m62            0.0000     1.7155E-05    42.8275   0.3416  2712.0579
 40      0.0772     2.8784E-04    4.5523E-04    2.512000E+07  0.02000  4.532E-03    0   0.8099   age090_m62            0.0000     1.7259E-05    43.0970   0.3486  2688.6602
 41      1.3990     8.6455E-03    1.2822E-02    5.500000E+07  0.02000  2.733E-03    0   0.7595   age110_m62            0.0000     1.7316E-05    41.9506   0.3755  2655.9653
 42      0.0000     0.0000E+00    0.0000E+00    1.609000E+08  0.02000  1.369E-03    0   0.6985   age120_m62            0.0000     1.7369E-05    41.5168   0.2315  2694.9023
 43      0.0000     0.0000E+00    0.0000E+00    2.861200E+08  0.02000  9.013E-04    0   0.6714   age125_m62            0.0000     1.7412E-05    41.3766  -0.0019  2746.9458
 44      0.5409     1.8170E-02    2.2882E-02    5.088000E+08  0.02000  5.028E-04    0   0.6449   age130_m62            0.0000     1.7541E-05    40.8178  -0.3563  2774.9751
 45      0.1359     9.4524E-03    1.1405E-02    9.047900E+08  0.02000  2.428E-04    0   0.6179   age135_m62            0.0000     1.7470E-05    40.1804  -0.9381  2743.1758
 46      0.6764     9.0456E-02    1.0436E-01    1.434000E+09  0.02000  1.263E-04    0   0.5908   age139_m62            0.0000     1.7578E-05    48.8693  -1.0000  2551.3281
 47      0.0000     0.0000E+00    0.0000E+00    2.500000E+09  0.02000  5.985E-05    0   0.5673   age150_m62            0.0000     1.8494E-05    59.6469  -1.0000  2346.4385
 48      0.0000     0.0000E+00    0.0000E+00    4.250000E+09  0.02000  3.271E-05    0   0.5468   age158_m62            0.0000     1.9637E-05    69.9308  -1.0000  2178.2151
 49      0.0000     0.0000E+00    0.0000E+00    1.000000E+10  0.02000  1.360E-05    0   0.5167   age181_m62            0.0000     2.1758E-05    80.9244  -1.0000  1977.9547
 50      0.0000     0.0000E+00    0.0000E+00    1.800000E+10  0.02000  7.124E-06    0   0.5013   age213_m62            0.0000     2.3497E-05    86.9370  -1.0000  1842.7435
 51      0.0000     0.0000E+00    0.0000E+00    1.000000E+06  0.05000  2.592E-02    0   0.9998   age020_m72            0.0000     1.7020E-05    39.7213   1.4538  2532.8423
 52      8.0430     2.8038E-03    5.2436E-03    3.160000E+06  0.05000  4.845E-02    0   0.9577   age045_m72            0.0000     1.6941E-05    39.7754   1.2986  2571.3223
 53      0.0365     2.0051E-05    3.5814E-05    5.010000E+06  0.05000  3.072E-02    0   0.9147   age055_m72            0.0000     1.6996E-05    41.7363   0.8686  2651.1084
 54      0.0000     0.0000E+00    0.0000E+00    6.610000E+06  0.05000  1.455E-02    0   0.8877   age061_m72            0.0000     1.7180E-05    46.2496   0.1627  2816.8945
 55      0.0000     0.0000E+00    0.0000E+00    1.000000E+07  0.05000  9.074E-03    0   0.8524   age070_m72            0.0000     1.6968E-05    42.2232   1.0295  2653.6196
 56      0.0000     0.0000E+00    0.0000E+00    2.512000E+07  0.05000  4.250E-03    0   0.7902   age090_m72            0.0000     1.7325E-05    42.3864   0.8079  2626.8745
 57      0.0000     0.0000E+00    0.0000E+00    4.000000E+07  0.05000  3.087E-03    0   0.7618   age104_m72            0.0000     1.7428E-05    42.7835   0.6052  2646.3438
 58      0.0000     0.0000E+00    0.0000E+00    1.015200E+08  0.05000  1.700E-03    0   0.7096   age116_m72            0.0000     1.7403E-05    41.9233   0.3749  2685.3328
 59      0.0722     1.6510E-03    2.1385E-03    2.861200E+08  0.05000  7.384E-04    0   0.6633   age125_m72            0.0000     1.7509E-05    40.9260  -0.1239  2759.2517
 60      1.7015     7.5247E-02    9.3631E-02    5.088000E+08  0.05000  3.819E-04    0   0.6372   age130_m72            0.0000     1.7580E-05    40.1130  -0.6010  2772.4082
 61      0.0000     0.0000E+00    0.0000E+00    9.047900E+08  0.05000  1.676E-04    0   0.6110   age135_m72            0.0000     1.7785E-05    45.2921  -1.0000  2592.5769
 62      0.0000     0.0000E+00    0.0000E+00    1.434000E+09  0.05000  8.837E-05    0   0.5874   age139_m72            0.0000     1.8600E-05    59.3317  -1.0000  2372.0244
 63      0.0000     0.0000E+00    0.0000E+00    2.500000E+09  0.05000  4.233E-05    0   0.5598   age150_m72            0.0000     1.9750E-05    69.4313  -1.0000  2194.0732
 64     24.3574     2.8668E+01    2.9385E+01    6.250000E+09  0.05000  1.435E-05    0   0.5249   age166_m72            0.0000     2.2550E-05    83.8683  -1.0000  1915.8672
 65      0.0000     0.0000E+00    0.0000E+00    1.300000E+10  0.05000  6.513E-06    0   0.5036   age193_m72            0.0000     2.5127E-05    91.8110  -1.0000  1773.2935
 66      0.0000     0.0000E+00    0.0000E+00    1.800000E+10  0.05000  4.527E-06    0   0.4945   age213_m72            0.0000     2.6833E-05    95.7798  -1.0000  1674.4507


## Synthesis Results - Average & Chains ##

# j      x_j: min, <> & last-chain-values for 1 ...  7 chains
  1      0.0000     35.3032     26.7204      3.5546      0.4032     10.0026     14.2905      7.7451      6.1038
  2      0.0000      1.2729      0.0000      0.0000      0.5584      0.0000      3.6973      0.0000      2.6026
  3      0.0000      1.2428      0.0000      0.7186      0.0511      2.3976      2.0745      2.5874      0.6861
  4      0.4472      1.3452      0.8076      2.2350      0.0000      0.0000      0.8448      1.1023      1.5463
  5      2.1257      1.3253      0.9563      4.2893      0.2479      0.0000      1.1854      3.4171      0.8316
  6      0.0853      1.5251      1.1418      4.7566      0.6840      3.0535      1.9874      1.1563      0.0000
  7      0.0000      1.5029      0.9344      1.2036     14.3587      9.5669      1.6699      0.5034      0.0000
  8      0.0000      1.2095      1.7465      0.1293      6.5984      0.5201      0.6833      5.4745      1.4838
  9      0.0000      1.0060      0.0000      0.0000      3.5716      0.3428      1.7995      1.0053      0.2019
 10      0.0000      1.9593      1.5041      3.6391      4.4193      0.0000      1.6279      2.6797      0.9114
 11      0.0000      1.2464      0.0000      0.0000      0.9104      0.0000      4.0606      1.2414      0.0000
 12      0.1820      1.4179      0.7305      2.6590      0.4265      3.6310      0.0000      0.0000      0.5940
 13      0.0829      1.5655      0.0000      6.4140      0.0000      5.4576      6.2103      1.9931      3.7061
 14     14.1057      1.1589      1.6815      0.8370      1.9752      4.3301      0.6564      0.6262      0.0000
 15      0.0000      1.2112      0.9563      4.2311      0.5607      0.6840      3.3075      0.4618      0.1511
 16      0.0000      1.3178      3.0713      0.4867      3.2706      1.3809      2.6513      5.1101      0.0000
 17     24.1583      4.7257      8.4995      0.7734      5.3597      0.3186      3.0012      7.0779      4.1705
 18      0.1903      1.9283      2.4936      0.5835      4.6444      2.5904      0.2951      4.6825      0.0000
 19      0.4642      1.3935      0.0000      2.4251      0.0000      0.3640      3.5304      2.7118      0.5980
 20      0.0000      1.3617      1.2101      0.4871      3.8786      1.6385      0.2022      0.7100      0.3136
 21      0.0000      2.0436      0.5842      0.0000      0.0000      0.4456      2.3618      0.1353      4.8146
 22      0.0000      1.3716      2.2611      0.0000      0.0000      1.1321      0.0000      0.0000      0.7307
 23      0.0000      1.2801      0.2477      1.4530      0.0000      0.0000      1.4080      1.5983      0.0000
 24      1.0223      1.0286      0.0000      3.3148      0.0000      0.0000      1.4434      0.9718      0.0000
 25      0.3158      2.1172      0.6374      2.7398      0.0000      7.0354      6.5743      0.0000      0.0000
 26      0.0460      1.4117      0.1675      2.0486      7.3132      0.0000      0.9679      0.0000      2.5944
 27      2.2113      1.3244      3.0458      2.1866      1.4233      0.0000      3.0203      0.0000      3.5288
 28      0.0000      1.1090      1.1764      0.0000      0.0000      0.0000      2.7293      4.1841      1.2463
 29      0.0000      1.6714      0.0000      0.0000      0.0000      0.0000      1.2213      3.2015      1.7449
 30      0.0000      1.3267      0.1341      1.1002      5.6865      2.1570      4.8099      0.0000      1.3731
 31     19.9228      1.5362      4.2747      1.0401      2.7000      0.0000      0.4607      0.8794      3.5528
 32      0.0000      1.0561      1.4160      0.1752      4.1530      5.0167      1.4544      0.0000      2.9087
 33      9.2532      1.4416      1.3353      6.9268      3.4883      0.3963      1.3098      3.7515      0.5635
 34     12.3063      1.2694      2.7705      4.2471      2.2854      5.1133      5.6888      0.0000      5.1913
 35      0.0000      1.2086      1.4219      0.0000      2.8778      0.3849      5.2738      0.5308      0.1913
 36      5.0845      1.1020      0.0000      3.0960      0.3876      4.2452      0.0000      2.7763      0.8752
 37      0.9408      0.8855      1.2673      0.9559      0.3907      1.4101      0.0000      0.5204      0.2597
 38      0.0000      1.5613      2.1477      2.2649      1.9233      0.0000      0.7687      2.4346      4.9793
 39      0.0000      1.4143      0.0000      2.3325      0.8294      2.3867      0.1647      3.1523      0.0000
 40      0.0772      1.2150      0.0000      2.1346      1.3946      0.0000      2.1358      0.7168      5.0109
 41      1.3990      1.5372      0.0000      3.6981      7.6770      0.0000      0.0000      3.0018      2.0757
 42      0.0000      1.3471      1.4769      0.1912      0.0000      4.6021      0.0000      0.3246      0.0000
 43      0.0000      1.6310      0.0000      0.0418      0.0000      0.0000      0.7113      9.9618      0.0000
 44      0.5409      1.3318      2.8245      3.1176      0.0000      3.0416      0.0000      0.9059      0.3170
 45      0.1359      1.5350      0.0000      4.9475      0.0000      0.0000      2.0716      0.0000      4.7566
 46      0.6764      1.2373      0.1190      2.2203      0.0000      2.6416      0.0000      2.1744      3.7612
 47      0.0000      1.4073      0.4427      0.0000      8.4423      5.2085      3.1681      1.6978      3.2873
 48      0.0000      1.4927      3.7207      0.5806      0.0000      1.0755      1.6529      0.7853      0.0000
 49      0.0000      1.4688      2.9997     13.9449      2.5767      8.4082      0.0310      2.1875      6.3146
 50      0.0000      1.4910      2.7052      0.9349      4.3365      3.4648      6.4409      8.2659      4.2263
 51      0.0000      0.9091      3.4234      0.0000      2.1546      0.0000      0.0000      0.0000      7.2021
 52      8.0430      1.5265      0.9492      2.3531      0.0000      1.8856      0.6426      1.2385      1.9459
 53      0.0365      1.0016      0.0000      1.2720      3.2221      0.0000      4.6440      0.6350      4.4548
 54      0.0000      1.5478      7.5896      0.0000      0.0000      4.6672      0.0000      0.0000      1.4796
 55      0.0000      2.0388      0.0000      0.0000      0.9923      0.0000      1.1806      0.0000      0.0000
 56      0.0000      1.2844      5.2563      0.0000      2.3646      1.6184      0.0000      0.1148      3.5737
 57      0.0000      1.7561      2.7315      1.1273      1.1447      0.7877      0.0000      1.3045      0.8429
 58      0.0000      1.1419      0.9256      2.0196      0.0365      2.6493      0.8692      6.5259      2.2534
 59      0.0722      1.2443      0.8492      8.3996      0.0000      1.9851      0.0000      0.5038      5.3576
 60      1.7015      1.1838      0.0505      1.0978      0.9086      0.0000      0.3738      0.4520      1.8528
 61      0.0000      1.6124      5.8009      0.0000      1.7629      1.0478      0.4006      2.3944      0.1258
 62      0.0000      1.4029      5.2993      0.0000      0.0000      2.6327      0.5107      2.4631      0.7844
 63      0.0000      1.1703      0.8432      0.0000      0.0000      0.0000      0.0000      1.6709      4.0590
 64     24.3574      1.5725      0.7234      7.3816      5.1601      2.2299      3.8579      2.7378      0.0000
 65      0.0000      1.2788      3.0082      0.1131      0.0000      3.3213      0.0000      4.0809      1.2335
 66      0.0000      1.4474      2.5526      1.1200      1.4355      2.7306      7.8761      0.0000      5.4750

# j      m_j: min, <> & last-chain-values for 1 ...  7 chains
  1  0.0000E+00  3.3450E-01  1.4842E-01  1.9382E-02  2.4184E-03  5.0743E-02  5.9854E-02  4.0838E-02  2.9183E-02
  2  0.0000E+00  3.2925E-03  0.0000E+00  0.0000E+00  9.1428E-04  0.0000E+00  4.2275E-03  0.0000E+00  3.3970E-03
  3  0.0000E+00  4.8142E-03  0.0000E+00  1.6019E-03  1.2530E-04  4.9724E-03  3.5522E-03  5.5774E-03  1.3411E-03
  4  5.1903E-04  4.9070E-03  1.7270E-03  4.6917E-03  0.0000E+00  0.0000E+00  1.3623E-03  2.2377E-03  2.8463E-03
  5  4.6997E-03  9.2088E-03  3.8954E-03  1.7152E-02  1.0904E-03  0.0000E+00  3.6410E-03  1.3213E-02  2.9159E-03
  6  3.0594E-04  1.7188E-02  7.5441E-03  3.0851E-02  4.8800E-03  1.8425E-02  9.9014E-03  7.2523E-03  0.0000E+00
  7  0.0000E+00  2.4251E-02  8.8390E-03  1.1176E-02  1.4667E-01  8.2650E-02  1.1911E-02  4.5199E-03  0.0000E+00
  8  0.0000E+00  2.6974E-02  2.2835E-02  1.6595E-03  9.3156E-02  6.2105E-03  6.7363E-03  6.7945E-02  1.6699E-02
  9  0.0000E+00  2.5680E-02  0.0000E+00  0.0000E+00  5.7712E-02  4.6849E-03  2.0305E-02  1.4280E-02  2.6004E-03
 10  0.0000E+00  6.5696E-02  2.9567E-02  7.0220E-02  9.3802E-02  0.0000E+00  2.4128E-02  5.0001E-02  1.5421E-02
 11  0.0000E+00  7.8582E-02  0.0000E+00  0.0000E+00  3.6334E-02  0.0000E+00  1.1317E-01  4.3554E-02  0.0000E+00
 12  5.7926E-03  1.4181E-01  4.2829E-02  1.5304E-01  2.7001E-02  1.9442E-01  0.0000E+00  0.0000E+00  2.9977E-02
 13  7.4397E-03  4.4130E-01  0.0000E+00  1.0405E+00  0.0000E+00  8.2370E-01  7.7388E-01  3.1266E-01  5.2719E-01
 14  4.2435E+00  1.0957E+00  9.3200E-01  4.5541E-01  1.1822E+00  2.1919E+00  2.7435E-01  3.2950E-01  0.0000E+00
 15  0.0000E+00  1.8643E+00  8.6295E-01  3.7479E+00  5.4631E-01  5.6371E-01  2.2504E+00  3.9557E-01  1.1738E-01
 16  0.0000E+00  3.4296E+00  4.6859E+00  7.2890E-01  5.3882E+00  1.9241E+00  3.0502E+00  7.4008E+00  0.0000E+00
 17  2.5952E+01  1.5955E+01  1.6822E+01  1.5026E+00  1.1455E+01  5.7589E-01  4.4790E+00  1.3298E+01  7.1051E+00
 18  5.0699E-04  1.6145E-02  1.2240E-02  2.8116E-03  2.4617E-02  1.1612E-02  1.0923E-03  2.1818E-02  0.0000E+00
 19  4.9640E-04  4.6830E-03  0.0000E+00  4.6900E-03  0.0000E+00  6.5497E-04  5.2445E-03  5.0714E-03  1.0141E-03
 20  0.0000E+00  4.9956E-03  2.6027E-03  1.0285E-03  9.0078E-03  3.2185E-03  3.2792E-04  1.4496E-03  5.8063E-04
 21  0.0000E+00  9.1008E-03  1.5252E-03  0.0000E+00  0.0000E+00  1.0625E-03  4.6496E-03  3.3531E-04  1.0820E-02
 22  0.0000E+00  1.0329E-02  9.9823E-03  0.0000E+00  0.0000E+00  4.5646E-03  0.0000E+00  0.0000E+00  2.7768E-03
 23  0.0000E+00  1.3017E-02  1.4766E-03  8.5038E-03  0.0000E+00  0.0000E+00  6.3295E-03  9.0453E-03  0.0000E+00
 24  4.9211E-03  1.5562E-02  0.0000E+00  2.8862E-02  0.0000E+00  0.0000E+00  9.6537E-03  8.1824E-03  0.0000E+00
 25  2.0961E-03  4.4168E-02  7.7949E-03  3.2893E-02  0.0000E+00  7.8581E-02  6.0628E-02  0.0000E+00  0.0000E+00
 26  5.1078E-04  4.9225E-02  3.4232E-03  4.1111E-02  1.6143E-01  0.0000E+00  1.4920E-02  0.0000E+00  4.5652E-02
 27  4.9108E-02  9.2442E-02  1.2463E-01  8.7831E-02  6.2888E-02  0.0000E+00  9.3187E-02  0.0000E+00  1.2429E-01
 28  0.0000E+00  2.2464E-01  1.3970E-01  0.0000E+00  0.0000E+00  0.0000E+00  2.4439E-01  4.7164E-01  1.2739E-01
 29  0.0000E+00  5.8991E-01  0.0000E+00  0.0000E+00  0.0000E+00  0.0000E+00  1.9054E-01  6.2880E-01  3.1076E-01
 30  0.0000E+00  9.7829E-01  5.7973E-02  4.6687E-01  2.6544E+00  8.5158E-01  1.5679E+00  0.0000E+00  5.1091E-01
 31  8.2227E+00  1.9926E+00  3.2507E+00  7.7640E-01  2.2171E+00  0.0000E+00  2.6415E-01  6.3481E-01  2.3255E+00
 32  0.0000E+00  1.8433E+00  1.4489E+00  1.7597E-01  4.5884E+00  4.6879E+00  1.1221E+00  0.0000E+00  2.5618E+00
 33  1.1376E+01  5.5700E+00  3.0244E+00  1.5402E+01  8.5318E+00  8.1973E-01  2.2371E+00  8.0661E+00  1.0987E+00
 34  2.0487E+01  6.6418E+00  8.4978E+00  1.2788E+01  7.5695E+00  1.4324E+01  1.3157E+01  0.0000E+00  1.3706E+01
 35  0.0000E+00  8.1137E-03  5.5963E-03  0.0000E+00  1.2230E-02  1.3837E-03  1.5651E-02  1.9831E-03  6.4823E-04
 36  4.3943E-03  2.9932E-03  0.0000E+00  4.8395E-03  6.6641E-04  6.1736E-03  0.0000E+00  4.1966E-03  1.1996E-03
 37  8.7949E-04  2.6015E-03  2.1828E-03  1.6162E-03  7.2666E-04  2.2182E-03  0.0000E+00  8.5088E-04  3.8507E-04
 38  0.0000E+00  1.2427E-02  1.0021E-02  1.0374E-02  9.6907E-03  0.0000E+00  2.7046E-03  1.0784E-02  1.9999E-02
 39  0.0000E+00  1.6207E-02  0.0000E+00  1.5383E-02  6.0172E-03  1.4644E-02  8.3457E-04  2.0103E-02  0.0000E+00
 40  4.5523E-04  2.2507E-02  0.0000E+00  2.2755E-02  1.6353E-02  0.0000E+00  1.7489E-02  7.3887E-03  4.6840E-02
 41  1.2822E-02  4.4282E-02  0.0000E+00  6.1306E-02  1.3999E-01  0.0000E+00  0.0000E+00  4.8120E-02  3.0172E-02
 42  0.0000E+00  7.1243E-02  4.5793E-02  5.8189E-03  0.0000E+00  1.3032E-01  0.0000E+00  9.5546E-03  0.0000E+00
 43  0.0000E+00  1.2594E-01  0.0000E+00  1.8576E-03  0.0000E+00  0.0000E+00  2.4279E-02  4.2806E-01  0.0000E+00
 44  2.2882E-02  1.7707E-01  2.2014E-01  2.3853E-01  0.0000E+00  2.1651E-01  0.0000E+00  6.7022E-02  2.1264E-02
 45  1.1405E-02  4.0493E-01  0.0000E+00  7.5108E-01  0.0000E+00  0.0000E+00  2.4157E-01  0.0000E+00  6.3317E-01
 46  1.0436E-01  5.9994E-01  3.3834E-02  6.1954E-01  0.0000E+00  6.8576E-01  0.0000E+00  5.8671E-01  9.2026E-01
 47  0.0000E+00  1.3827E+00  2.5501E-01  0.0000E+00  5.2508E+00  2.7399E+00  1.3760E+00  9.2833E-01  1.6298E+00
 48  0.0000E+00  2.5865E+00  3.7796E+00  5.7896E-01  0.0000E+00  9.9782E-01  1.2661E+00  7.5724E-01  0.0000E+00
 49  0.0000E+00  5.7845E+00  6.9255E+00  3.1604E+01  6.4236E+00  1.7729E+01  5.3952E-02  4.7941E+00  1.2549E+01
 50  0.0000E+00  1.0875E+01  1.1568E+01  3.9242E+00  2.0023E+01  1.3531E+01  2.0768E+01  3.3552E+01  1.5556E+01
 51  0.0000E+00  3.6350E-03  8.0244E-03  0.0000E+00  5.4534E-03  0.0000E+00  0.0000E+00  0.0000E+00  1.4531E-02
 52  5.2436E-03  3.1277E-03  1.1402E-03  2.7747E-03  0.0000E+00  2.0685E-03  5.8202E-04  1.4121E-03  2.0119E-03
 53  3.5814E-05  3.0914E-03  0.0000E+00  2.2593E-03  6.2953E-03  0.0000E+00  6.3361E-03  1.0906E-03  6.9380E-03
 54  0.0000E+00  9.7882E-03  2.8138E-02  0.0000E+00  0.0000E+00  1.5803E-02  0.0000E+00  0.0000E+00  4.7218E-03
 55  0.0000E+00  1.9852E-02  0.0000E+00  0.0000E+00  6.1166E-03  0.0000E+00  5.0819E-03  0.0000E+00  0.0000E+00
 56  0.0000E+00  2.4754E-02  5.9389E-02  0.0000E+00  2.8849E-02  1.6700E-02  0.0000E+00  1.2312E-03  3.4755E-02
 57  0.0000E+00  4.4921E-02  4.0962E-02  1.6595E-02  1.8535E-02  1.0788E-02  0.0000E+00  1.8569E-02  1.0881E-02
 58  0.0000E+00  4.9409E-02  2.3478E-02  5.0288E-02  9.9924E-04  6.1371E-02  1.6625E-02  1.5713E-01  4.9198E-02
 59  2.1385E-03  1.1587E-01  4.6355E-02  4.5010E-01  0.0000E+00  9.8965E-02  0.0000E+00  2.6107E-02  2.5173E-01
 60  9.3631E-02  2.0473E-01  5.1196E-03  1.0926E-01  9.9472E-02  0.0000E+00  2.8578E-02  4.3505E-02  1.6170E-01
 61  0.0000E+00  6.0931E-01  1.2851E+00  0.0000E+00  4.2171E-01  2.1200E-01  6.6913E-02  5.0353E-01  2.3995E-02
 62  0.0000E+00  9.6665E-01  2.1405E+00  0.0000E+00  0.0000E+00  9.7120E-01  1.5556E-01  9.4442E-01  2.7272E-01
 63  0.0000E+00  1.6043E+00  6.7765E-01  0.0000E+00  0.0000E+00  0.0000E+00  0.0000E+00  1.2746E+00  2.8078E+00
 64  2.9385E+01  5.9621E+00  1.6081E+00  1.6107E+01  1.2385E+01  4.5267E+00  6.4661E+00  5.7768E+00  0.0000E+00
 65  0.0000E+00  1.0250E+01  1.4135E+01  5.2187E-01  0.0000E+00  1.4252E+01  0.0000E+00  1.8202E+01  4.9889E+00
 66  0.0000E+00  1.6389E+01  1.6944E+01  7.2979E+00  1.0289E+01  1.6554E+01  3.9422E+01  0.0000E+00  3.1282E+01

# AV, chi2 & Mass for <> & i_chain = 1 ...  7 solutions
AV       3.7308      3.7535      3.9141      4.0000      3.8564      3.9462      3.8224      3.7822      3.8371
chi2 7.2782E-05  7.5950E-05  7.4363E-05  7.3748E-05  7.4272E-05  7.3929E-05  7.4129E-05  7.4532E-05  7.4239E-05
Mass 1.3020E-12  4.2708E-13  9.0384E-13  1.0334E-12  7.7468E-13  1.0333E-12  1.0598E-12  7.9760E-13  9.4693E-13
 174.29                                  [v0_min (km/s) before EX0s...]
  65.56                                  [vd_min (km/s) before EX0s...]


## Synthetic spectrum (Best Model) ##l_obs f_obs f_syn wei
 3478    [Nl_obs]
 3741.00   22.36395   0.59287    0.000
 3742.00   10.73580   0.65028    0.000
 3743.00  -10.88352   0.67348    0.000
 3744.00  -21.29728   0.65793    0.000
 3745.00  -25.18219   0.61896    0.000
 3746.00  -12.38705   0.57802    0.000
 3747.00    8.87832   0.54341   -1.000
 3748.00   14.58972   0.51488   -1.000
 3749.00   13.46158   0.48653   -1.000
 3750.00    3.14097   0.44753   -1.000
 3751.00  -10.65009   0.41375    0.000
 3752.00   -8.61684   0.42497    0.000
 3753.00   -1.51210   0.48876    0.000
 3754.00    0.38436   0.56899   -1.000
 3755.00    0.88511   0.63680   -1.000
 3756.00    4.28703   0.69177   -1.000
 3757.00    8.32572   0.72727   -1.000
 3758.00    4.50372   0.71931   -1.000
 3759.00   -0.69050   0.66313    0.000
 3760.00    6.63335   0.59952   -1.000
 3761.00   15.62009   0.57827   -1.000
 3762.00   21.66414   0.60171   -1.000
 3763.00   27.43165   0.63490   -1.000
 3764.00   23.59402   0.65166   -1.000
 3765.00   19.20230   0.65073   -1.000
 3766.00   15.06116   0.64790   -1.000
 3767.00   10.91558   0.64780   -1.000
 3768.00    5.51089   0.63409   -1.000
 3769.00    0.03753   0.60985   -1.000
 3770.00   -7.10385   0.59863    0.000
 3771.00  -13.93518   0.59699    0.000
 3772.00  -16.70348   0.59094    0.000
 3773.00  -18.02763   0.59849    0.000
 3774.00   -6.67371   0.63599    0.000
 3775.00    2.69672   0.68080   -1.000
 3776.00   -0.79357   0.70624    0.000
 3777.00   -5.70057   0.71569    0.000
 3778.00  -17.77791   0.72584    0.000
 3779.00  -27.43875   0.74100    0.000
 3780.00  -27.20850   0.75822    0.000
 3781.00  -21.88557   0.78101    0.000
 3782.00    0.71016   0.80716   -1.000
 3783.00   14.87873   0.82363   -1.000
 3784.00    4.94510   0.82856   -1.000
 3785.00   -1.97673   0.83266    0.000
 3786.00   -1.53995   0.83211    0.000
 3787.00    2.93926   0.80600   -1.000
 3788.00   15.93864   0.75378   -1.000
 3789.00   16.48668   0.70567   -1.000
 3790.00   -5.77241   0.67958    0.000
 3791.00  -15.64903   0.66928    0.000
 3792.00   -5.70446   0.67184    0.000
 3793.00    0.20648   0.68445   -1.000
 3794.00    0.45166   0.68762   -1.000
 3795.00   -3.63250   0.66519    0.000
 3796.00  -13.06776   0.62683    0.000
 3797.00  -12.69308   0.59134    0.000
 3798.00   -1.63058   0.55995    0.000
 3799.00    4.56650   0.52345   -1.000
 3800.00    6.08795   0.49598   -1.000
 3801.00    6.60156   0.51025   -1.000
 3802.00    6.26115   0.57052   -1.000
 3803.00    1.21578   0.64440   -1.000
 3804.00   -7.34048   0.70649    0.000
 3805.00  -16.11573   0.75418    0.000
 3806.00  -25.03452   0.78235    0.000
 3807.00  -18.97607   0.78187    0.000
 3808.00   -4.32306   0.75958    0.000
 3809.00    7.80158   0.74206   -1.000
 3810.00   18.66250   0.75379   -1.000
 3811.00   17.79598   0.78876   -1.000
 3812.00   11.85803   0.81833   -1.000
 3813.00    5.79028   0.82181   -1.000
 3814.00   -0.32560   0.79512    0.000
 3815.00   -4.98521   0.74821    0.000
 3816.00   -9.18704   0.70098    0.000
 3817.00   -9.21018   0.66997    0.000
 3818.00   -8.13714   0.66572    0.000
 3819.00   -6.36013   0.68497    0.000
 3820.00   -4.43228   0.69467    0.000
 3821.00    0.34352   0.66492   -1.000
 3822.00    5.60266   0.62013   -1.000
 3823.00   14.34275   0.61208   -1.000
 3824.00   23.52952   0.64394   -1.000
 3825.00    4.75437   0.66503   -1.000
 3826.00  -16.53068   0.64288    0.000
 3827.00   -6.75766   0.60078    0.000
 3828.00    4.68470   0.57444   -1.000
 3829.00    1.42174   0.56922   -1.000
 3830.00   -2.09947   0.57234    0.000
 3831.00   -2.54378   0.57721    0.000
 3832.00   -3.32552   0.57816    0.000
 3833.00  -11.60358   0.56002    0.000
 3834.00  -18.02031   0.51786    0.000
 3835.00   -1.29194   0.47245    0.000
 3836.00   13.44058   0.44681   -1.000
 3837.00   11.30359   0.44720   -1.000
 3838.00    8.30402   0.46503   -1.000
 3839.00   -0.12208   0.48184    0.000
 3840.00   -6.40240   0.48949    0.000
 3841.00   -2.09506   0.50032    0.000
 3842.00    0.63104   0.52721   -1.000
 3843.00   -2.97273   0.57461    0.000
 3844.00   -5.45175   0.63771    0.000
 3845.00   -4.19144   0.69609    0.000
 3846.00   -2.03933   0.73128    0.000
 3847.00    2.61704   0.74519    0.000
 3848.00    7.76869   0.75274    0.000
 3849.00   14.10989   0.76366    0.000
 3850.00   16.67984   0.76780    0.000
 3851.00   11.42853   0.75290    0.000
 3852.00    8.67937   0.73575    0.000
 3853.00   10.44323   0.74259    0.000
 3854.00   11.16336   0.76551    0.000
 3855.00   10.23746   0.77597    0.000
 3856.00    7.60125   0.76555    0.000
 3857.00    2.59733   0.74449    0.000
 3858.00   -0.45605   0.72455    0.000
 3859.00   -1.13273   0.71061    0.000
 3860.00    2.30233   0.69155    0.000
 3861.00   10.15412   0.66288    0.000
 3862.00   11.64933   0.65188    0.000
 3863.00    7.12173   0.68391    0.000
 3864.00    0.26017   0.74263    0.000
 3865.00   -8.55118   0.78793    0.000
 3866.00  -10.69693   0.79949    0.000
 3867.00   -7.94010   0.78901    0.000
 3868.00   -0.97676   0.77783    0.000
 3869.00    8.70366   0.77457    0.000
 3870.00   10.32316   0.77423    0.000
 3871.00    7.38713   0.76652    0.000
 3872.00    7.39453   0.74289    0.000
 3873.00    8.84981   0.70746    0.000
 3874.00    9.83326   0.68132    0.000
 3875.00   10.61607   0.68934    0.000
 3876.00    5.72578   0.73225    0.000
 3877.00   -1.23095   0.77647    0.000
 3878.00    0.63877   0.78470    0.000
 3879.00    5.22949   0.75141    0.000
 3880.00   15.04168   0.70878    0.000
 3881.00   26.19432   0.69629   -1.000
 3882.00   24.81492   0.71110   -1.000
 3883.00   20.81550   0.71555   -1.000
 3884.00   20.74762   0.70378   -1.000
 3885.00   21.32804   0.70413   -1.000
 3886.00   20.00167   0.71264   -1.000
 3887.00   18.43916   0.69037   -1.000
 3888.00   18.45607   0.63407   -1.000
 3889.00   18.60815   0.58286   -1.000
 3890.00   19.52099   0.55777   -1.000
 3891.00   20.47175   0.56020   -1.000
 3892.00   17.38827   0.59970   -1.000
 3893.00   14.17244   0.67041   -1.000
 3894.00    6.67619   0.73921   -1.000
 3895.00   -0.18910   0.77823    0.000
 3896.00    5.85243   0.78641   -1.000
 3897.00   11.96629   0.78408   -1.000
 3898.00   18.93543   0.79463   -1.000
 3899.00   24.00152   0.81690   -1.000
 3900.00   13.56382   0.82661   -1.000
 3901.00    3.78411   0.82035   -1.000
 3902.00   -1.97670   0.82258    0.000
 3903.00   -6.33065   0.84109    0.000
 3904.00   -3.91439   0.85279    0.000
 3905.00   -0.84863   0.84528    0.000
 3906.00    4.76071   0.82930   -1.000
 3907.00    8.11575   0.81020   -1.000
 3908.00    4.12294   0.80056   -1.000
 3909.00    4.27823   0.82387   -1.000
 3910.00   15.87208   0.87329   -1.000
 3911.00   21.88700   0.91657   -1.000
 3912.00   14.72755   0.93971   -1.000
 3913.00    8.81799   0.95340   -1.000
 3914.00    5.45930   0.96352   -1.000
 3915.00    3.05669   0.96236   -1.000
 3916.00    2.35222   0.95102   -1.000
 3917.00    3.01518   0.93881   -1.000
 3918.00    5.80287   0.92594   -1.000
 3919.00    9.53255   0.91042   -1.000
 3920.00   14.54750   0.89039   -1.000
 3921.00   16.56300   0.86021   -1.000
 3922.00   14.97551   0.82375   -1.000
 3923.00   15.18823   0.79878   -1.000
 3924.00   17.30752   0.79760   -1.000
 3925.00   11.98778   0.81260   -1.000
 3926.00   -0.28139   0.82486    0.000
 3927.00   -8.81401   0.81690    0.000
 3928.00  -14.26931   0.78310    0.000
 3929.00  -12.39943   0.73112    0.000
 3930.00   -5.21933   0.67105    0.000
 3931.00   -4.55874   0.61063    0.000
 3932.00   -8.04721   0.55318    0.000
 3933.00   -1.90592   0.49758    0.000
 3934.00    9.59460   0.44515   -1.000
 3935.00    9.36065   0.40427   -1.000
 3936.00    3.44623   0.38899   -1.000
 3937.00    9.53696   0.40921   -1.000
 3938.00   20.64687   0.46133   -1.000
 3939.00   23.99559   0.53152   -1.000
 3940.00   24.56810   0.60632   -1.000
 3941.00   18.09733   0.67621   -1.000
 3942.00    9.49768   0.73085   -1.000
 3943.00    6.42992   0.76208   -1.000
 3944.00    4.75155   0.77198   -1.000
 3945.00    6.26551   0.76936   -1.000
 3946.00    8.43045   0.77261   -1.000
 3947.00   -5.63103   0.80546    0.000
 3948.00  -22.29071   0.85981    0.000
 3949.00  -11.76630   0.89570    0.000
 3950.00    2.00377   0.90217   -1.000
 3951.00    9.80304   0.91081   -1.000
 3952.00   17.11609   0.93788   -1.000
 3953.00   12.47499   0.95908   -1.000
 3954.00    7.28448   0.95494   -1.000
 3955.00    1.84626   0.94830   -1.000
 3956.00   -3.44943   0.96203    0.000
 3957.00   -1.13374   0.97172    0.000
 3958.00    1.55220   0.95215   -1.000
 3959.00   11.25183   0.92706   -1.000
 3960.00   19.80838   0.92525    0.000
 3961.00   15.48284   0.92931    0.000
 3962.00   12.17863   0.89779    0.000
 3963.00   16.90251   0.82198    0.000
 3964.00   19.70403   0.74095    0.000
 3965.00   11.09888   0.68861    0.000
 3966.00    3.45004   0.65191    0.000
 3967.00    0.29145   0.60047    0.000
 3968.00   -1.87981   0.52577    0.000
 3969.00   -0.26742   0.44206    0.000
 3970.00    1.31787   0.37275    0.000
 3971.00    2.81651   0.33980    0.000
 3972.00    1.58683   0.35536    0.000
 3973.00   -7.03202   0.41464    0.000
 3974.00  -11.44562   0.49723    0.000
 3975.00   -6.09472   0.58284    0.000
 3976.00    0.58535   0.66526    0.000
 3977.00    9.93514   0.74396    0.000
 3978.00   15.69210   0.81274    0.000
 3979.00   15.16455   0.87086    0.000
 3980.00   15.43658   0.92713    0.000
 3981.00   16.93274   0.98272   -1.000
 3982.00   15.73334   1.02484   -1.000
 3983.00   10.90881   1.03907   -1.000
 3984.00    7.67007   1.02931   -1.000
 3985.00    6.30928   1.02064   -1.000
 3986.00    5.37750   1.03141   -1.000
 3987.00    4.89369   1.05497   -1.000
 3988.00    8.52475   1.07617   -1.000
 3989.00   15.94582   1.09519   -1.000
 3990.00   17.53325   1.11716   -1.000
 3991.00   14.38436   1.12939   -1.000
 3992.00   16.60350   1.12795   -1.000
 3993.00   22.65798   1.13427   -1.000
 3994.00   20.84524   1.15553   -1.000
 3995.00   14.09976   1.17192   -1.000
 3996.00   11.64998   1.16679   -1.000
 3997.00   11.55428   1.14481   -1.000
 3998.00   10.16318   1.11820   -1.000
 3999.00    8.15503   1.09631   -1.000
 4000.00    1.93012   1.09661   -1.000
 4001.00   -6.02794   1.13182    0.000
 4002.00    0.61126   1.18079   -1.000
 4003.00   12.37734   1.21333   -1.000
 4004.00    9.41834   1.22925   -1.000
 4005.00    2.09642   1.23021   -1.000
 4006.00    6.46972   1.19402   -1.000
 4007.00   13.71599   1.12521   -1.000
 4008.00   13.90036   1.08188   -1.000
 4009.00   12.68065   1.10301   -1.000
 4010.00    8.86812   1.15718   -1.000
 4011.00    4.65269   1.19770   -1.000
 4012.00    4.66634   1.21691   -1.000
 4013.00    5.16627   1.22797   -1.000
 4014.00    0.14570   1.23573   -1.000
 4015.00   -5.30169   1.24123    0.000
 4016.00    1.00000   1.24920   -1.000
 4017.00    7.79642   1.26121   -1.000
 4018.00    0.99595   1.26686   -1.000
 4019.00   -5.73834   1.25805    0.000
 4020.00   -4.13551   1.25312    0.000
 4021.00   -1.99785   1.26840    0.000
 4022.00    9.56894   1.28450   -1.000
 4023.00   20.02692   1.28219   -1.000
 4024.00   18.55424   1.27009   -1.000
 4025.00   17.43383   1.25596   -1.000
 4026.00   18.98771   1.23658   -1.000
 4027.00   20.50916   1.22460   -1.000
 4028.00   21.84360   1.24143   -1.000
 4029.00   21.98931   1.28212   -1.000
 4030.00   16.68713   1.31466   -1.000
 4031.00   11.77713   1.30381   -1.000
 4032.00    8.33823   1.24075   -1.000
 4033.00    8.58248   1.16279   -1.000
 4034.00   20.37346   1.11491   -1.000
 4035.00   25.31784   1.10426   -1.000
 4036.00   12.04787   1.12206   -1.000
 4037.00    0.57799   1.16857   -1.000
 4038.00   -6.78148   1.24066    0.000
 4039.00  -13.53438   1.31756    0.000
 4040.00  -19.08814   1.36765    0.000
 4041.00  -19.82485   1.37293    0.000
 4042.00  -12.26309   1.34548    0.000
 4043.00   -4.64847   1.31961    0.000
 4044.00    3.04591   1.31306   -1.000
 4045.00    2.05548   1.29304   -1.000
 4046.00  -10.44736   1.21705    0.000
 4047.00   -6.14166   1.10884    0.000
 4048.00   17.78806   1.05545   -1.000
 4049.00   20.62381   1.10756   -1.000
 4050.00    1.74233   1.21378   -1.000
 4051.00   -7.83006   1.29742    0.000
 4052.00   -8.94888   1.34120    0.000
 4053.00  -10.99881   1.35677    0.000
 4054.00  -13.79398   1.34663    0.000
 4055.00  -16.88480   1.31853    0.000
 4056.00  -20.18380   1.28696    0.000
 4057.00  -23.84841   1.26288    0.000
 4058.00  -27.73886   1.24889    0.000
 4059.00  -22.65371   1.23506    0.000
 4060.00  -12.72541   1.22443    0.000
 4061.00   -2.82331   1.24131    0.000
 4062.00    7.06652   1.28417   -1.000
 4063.00   10.87568   1.30632   -1.000
 4064.00   12.22817   1.26453   -1.000
 4065.00   15.77285   1.17920   -1.000
 4066.00   20.07339   1.12939   -1.000
 4067.00   16.62014   1.15681   -1.000
 4068.00   10.91533   1.21222   -1.000
 4069.00    7.91717   1.24802   -1.000
 4070.00    5.56912   1.28193   -1.000
 4071.00   -2.75954   1.32294    0.000
 4072.00  -12.24703   1.32689    0.000
 4073.00    3.34988   1.27488   -1.000
 4074.00   22.72669   1.22952   -1.000
 4075.00   12.56016   1.24954   -1.000
 4076.00   -0.87414   1.29739    0.000
 4077.00   -6.55361   1.29816    0.000
 4078.00  -11.66519   1.23781    0.000
 4079.00   -1.45777   1.16650    0.000
 4080.00    9.33613   1.14537   -1.000
 4081.00    4.94949   1.19504   -1.000
 4082.00    0.55862   1.28519   -1.000
 4083.00   -0.82110   1.36514    0.000
 4084.00   -1.94712   1.39538    0.000
 4085.00    1.10767   1.37343   -1.000
 4086.00    5.21797   1.33479   -1.000
 4087.00   20.19014   1.31779   -1.000
 4088.00   31.46587   1.33854   -1.000
 4089.00   15.61624   1.39062   -1.000
 4090.00    0.96572   1.44679   -1.000
 4091.00   -6.95800   1.47568    0.000
 4092.00  -11.15927   1.46928    0.000
 4093.00    1.29717   1.44264    0.000
 4094.00   11.63245   1.41512    0.000
 4095.00   14.17747   1.40136    0.000
 4096.00   21.96871   1.39119    0.000
 4097.00   45.89447   1.35387    0.000
 4098.00   56.85244   1.29164    0.000
 4099.00   33.91763   1.24043    0.000
 4100.00   20.20344   1.21097    0.000
 4101.00   27.19675   1.17410    0.000
 4102.00   30.56691   1.09989    0.000
 4103.00   26.88671   1.00450    0.000
 4104.00   24.05268   0.95412    0.000
 4105.00   22.65440   0.99204    0.000
 4106.00   25.26401   1.08835    0.000
 4107.00   33.83133   1.19108    0.000
 4108.00   28.11498   1.27336    0.000
 4109.00    3.73522   1.32363    0.000
 4110.00   -5.85503   1.34052    0.000
 4111.00    1.57783   1.33458    0.000
 4112.00   10.75985   1.32221    0.000
 4113.00   21.71743   1.32021    0.001
 4114.00   24.91287   1.33801    0.001
 4115.00   21.15870   1.37300    0.004
 4116.00   17.38421   1.41101   -1.000
 4117.00   13.59368   1.43853   -1.000
 4118.00   15.26912   1.45252   -1.000
 4119.00   20.73768   1.44655   -1.000
 4120.00   15.19156   1.41325   -1.000
 4121.00    2.94297   1.37460   -1.000
 4122.00   15.42079   1.36438    0.002
 4123.00   41.03477   1.37799    0.001
 4124.00   42.10204   1.38992    0.001
 4125.00   31.85089   1.40032    0.001
 4126.00   28.60182   1.42345    0.001
 4127.00   28.13314   1.45116    0.001
 4128.00   32.45565   1.45747    0.001
 4129.00   38.39968   1.43553    0.001
 4130.00   26.26500   1.40617    0.001
 4131.00    8.98649   1.38911    0.001
 4132.00   25.61307   1.37875    0.001
 4133.00   50.19998   1.35416    0.001
 4134.00   62.28645   1.31337    0.001
 4135.00   72.01347   1.28623    0.001
 4136.00   49.12737   1.30040    0.001
 4137.00   21.47888   1.35519    0.001
 4138.00   16.64353   1.42322    0.001
 4139.00   14.23247   1.47162    0.001
 4140.00   13.54200   1.49802    0.001
 4141.00   12.97054   1.51664    0.001
 4142.00    5.41395   1.52157    0.001
 4143.00   -2.38354   1.48998    0.000
 4144.00   13.39091   1.40650    0.001
 4145.00   28.63253   1.30073    0.001
 4146.00   24.72872   1.24862    0.001
 4147.00   21.34385   1.29045    0.001
 4148.00   25.98319   1.37861    0.001
 4149.00   30.79764   1.44382    0.001
 4150.00   37.33807   1.46284    0.001
 4151.00   40.68719   1.44865    0.001
 4152.00   21.37936   1.42726    0.001
 4153.00    5.91427   1.41940    0.001
 4154.00   11.42659   1.42036    0.001
 4155.00   21.84045   1.41380    0.001
 4156.00   53.67907   1.39842    0.001
 4157.00   74.19193   1.38754    0.001
 4158.00   53.96867   1.38955    0.001
 4159.00   35.40712   1.40639    0.001
 4160.00   21.85993   1.44050    0.001
 4161.00   15.05855   1.48217    0.001
 4162.00   25.58069   1.51217    0.001
 4163.00   29.49793   1.52820    0.001
 4164.00   18.82510   1.54524    0.001
 4165.00   19.96290   1.56184    0.001
 4166.00   43.72479   1.56021    0.001
 4167.00   52.80290   1.54044    0.001
 4168.00   37.33973   1.51351    0.001
 4169.00   30.93834   1.48508    0.001
 4170.00   37.81097   1.47198    0.001
 4171.00   34.64755   1.48669    0.001
 4172.00   18.55793   1.50135    0.001
 4173.00    7.00254   1.47287    0.001
 4174.00    0.59258   1.40125    0.001
 4175.00   -3.92358   1.33853    0.000
 4176.00   -6.54435   1.33074    0.000
 4177.00   -2.85764   1.36745    0.000
 4178.00    6.39677   1.40462    0.001
 4179.00   19.87209   1.41737    0.001
 4180.00   36.63023   1.42045    0.001
 4181.00   40.71475   1.44059    0.001
 4182.00   36.13215   1.47168    0.001
 4183.00   24.88542   1.48259    0.001
 4184.00    9.64414   1.47078    0.001
 4185.00    1.34501   1.46839    0.001
 4186.00   -3.32324   1.49285    0.000
 4187.00    0.48216   1.52256    0.001
 4188.00    8.13116   1.51840    0.001
 4189.00   16.30661   1.47561    0.001
 4190.00   24.68749   1.44599    0.001
 4191.00   22.82631   1.46622    0.001
 4192.00   17.56332   1.50449    0.001
 4193.00   12.40148   1.52448    0.001
 4194.00    7.26782   1.54349    0.001
 4195.00   19.82931   1.57949    0.001
 4196.00   36.45039   1.59750    0.001
 4197.00   33.59402   1.56299    0.001
 4198.00   27.15812   1.49816    0.001
 4199.00   22.17037   1.44177    0.001
 4200.00   17.38740   1.40490    0.001
 4201.00   15.30869   1.39182    0.001
 4202.00   13.50570   1.40290    0.001
 4203.00   19.86040   1.41592    0.001
 4204.00   26.74658   1.42106    0.001
 4205.00   32.86883   1.43936    0.001
 4206.00   38.91914   1.47670    0.001
 4207.00   13.85905   1.51685    0.001
 4208.00  -10.01304   1.55617    0.000
 4209.00    1.01929   1.59718    0.001
 4210.00   11.83614   1.62869    0.001
 4211.00   19.51595   1.63526    0.001
 4212.00   26.13328   1.62281    0.001
 4213.00   22.70354   1.61924    0.001
 4214.00   19.86363   1.63362    0.001
 4215.00   21.07842   1.63738    0.001
 4216.00   21.25486   1.60056    0.001
 4217.00   15.91264   1.53373    0.001
 4218.00   13.12784   1.49401    0.001
 4219.00   21.26568   1.52826    0.001
 4220.00   27.26228   1.61015    0.001
 4221.00   25.71465   1.68033    0.001
 4222.00   24.87410   1.71844    0.001
 4223.00   26.12753   1.72757    0.001
 4224.00   26.11963   1.69777    0.001
 4225.00   22.92866   1.62357    0.001
 4226.00   21.59156   1.51545    0.001
 4227.00   24.28290   1.38122    0.001
 4228.00   30.26962   1.24436    0.001
 4229.00   42.47091   1.17955    0.001
 4230.00   47.18053   1.25300    0.001
 4231.00   39.55631   1.42249    0.001
 4232.00   29.26669   1.57945    0.001
 4233.00   15.12942   1.66370    0.001
 4234.00    9.76481   1.67330    0.001
 4235.00   15.53821   1.63627    0.001
 4236.00   18.98943   1.59776    0.001
 4237.00   19.84254   1.57355    0.001
 4238.00   20.84761   1.55085    0.001
 4239.00   22.00263   1.54016    0.001
 4240.00   19.93064   1.55477    0.001
 4241.00   15.05029   1.58084    0.001
 4242.00   16.19521   1.61213    0.001
 4243.00   21.95941   1.65368    0.001
 4244.00   22.43046   1.69189    0.001
 4245.00   19.33438   1.71960    0.001
 4246.00   22.63641   1.75332    0.001
 4247.00   29.71604   1.78234    0.001
 4248.00   26.88715   1.76703    0.001
 4249.00   18.95669   1.70485    0.001
 4250.00   15.77443   1.63567    0.001
 4251.00   14.71065   1.58474    0.001
 4252.00   18.82911   1.55326    0.001
 4253.00   24.93454   1.55592    0.001
 4254.00   36.26920   1.59733    0.001
 4255.00   49.30805   1.62895    0.001
 4256.00   53.50615   1.61211    0.001
 4257.00   55.29102   1.58935    0.001
 4258.00   57.37625   1.62151    0.001
 4259.00   59.52879   1.68786    0.001
 4260.00   60.49695   1.70804    0.001
 4261.00   61.25329   1.64942    0.001
 4262.00   53.30761   1.56409    0.001
 4263.00   44.17131   1.53191    0.001
 4264.00   29.14434   1.59040    0.001
 4265.00   13.54194   1.70184    0.001
 4266.00    5.88526   1.79731    0.001
 4267.00   -1.28548   1.84767    0.000
 4268.00   14.47515   1.85776   -1.000
 4269.00   30.83039   1.82906   -1.000
 4270.00   42.47828   1.77252   -1.000
 4271.00   53.73765   1.70635   -1.000
 4272.00   54.72666   1.62230   -1.000
 4273.00   55.30415   1.51586   -1.000
 4274.00   50.22439   1.43552   -1.000
 4275.00   44.43296   1.42586   -1.000
 4276.00   32.17702   1.46070   -1.000
 4277.00   20.88351   1.50858   -1.000
 4278.00   16.00084   1.58739   -1.000
 4279.00   13.34729   1.69748    0.008
 4280.00   22.23387   1.78604    0.001
 4281.00   32.16027   1.80342    0.001
 4282.00   46.42749   1.75735   -2.000
 4283.00   57.61086   1.70667   -2.000
 4284.00   58.14839   1.69595   -2.000
 4285.00   55.28454   1.71577   -2.000
 4286.00   42.53398   1.73003   -2.000
 4287.00   28.33861   1.71419   -2.000
 4288.00   10.55969   1.68031   -2.000
 4289.00    1.76686   1.65562   -2.000
 4290.00   12.18461   1.62757   -2.000
 4291.00   21.34864   1.56561   -2.000
 4292.00   28.18491   1.49794   -2.000
 4293.00   32.00381   1.49482   -2.000
 4294.00   30.92907   1.57167   -2.000
 4295.00   31.58353   1.66287   -2.000
 4296.00   34.69802   1.70178   -2.000
 4297.00   36.61742   1.69098   -2.000
 4298.00   37.04107   1.66491    0.001
 4299.00   32.00937   1.62283    0.001
 4300.00   20.96001   1.54352    0.001
 4301.00   21.74576   1.43467    0.001
 4302.00   34.04645   1.34544    0.001
 4303.00   38.65330   1.31963    0.001
 4304.00   36.65892   1.34198    0.001
 4305.00   27.45573   1.37280    0.001
 4306.00   12.80493   1.40068    0.001
 4307.00   11.86832   1.41985    0.001
 4308.00   20.03887   1.41083    0.001
 4309.00   24.92834   1.36485    0.001
 4310.00   27.90975   1.30450    0.001
 4311.00   20.14536   1.27786    0.001
 4312.00    6.93501   1.31451    0.001
 4313.00   12.76943   1.39553    0.001
 4314.00   26.96092   1.48497    0.001
 4315.00   28.89709   1.56578    0.001
 4316.00   26.21677   1.64603    0.001
 4317.00   23.82784   1.75553    0.001
 4318.00   21.53207   1.90780    0.001
 4319.00   27.43569   2.05413    0.001
 4320.00   35.53076   2.12943    0.001
 4321.00   32.11286   2.12933    0.001
 4322.00   26.17560   2.09090    0.001
 4323.00   21.17083   2.03877    0.001
 4324.00   16.32827   1.97258    0.001
 4325.00    8.93155   1.87047    0.001
 4326.00    1.19698   1.72274    0.001
 4327.00    4.51724   1.57800    0.001
 4328.00    8.87051   1.52635    0.001
 4329.00   19.29003   1.62059    0.001
 4330.00   30.05649   1.80774    0.000
 4331.00   21.43799   1.96597    0.000
 4332.00   12.34383   2.02587    0.000
 4333.00    0.41816   2.02190    0.000
 4334.00  -10.64985   2.01924    0.000
 4335.00   -1.12517   2.03607    0.000
 4336.00    8.51191   2.05717    0.000
 4337.00   19.61218   2.06327    0.000
 4338.00   28.77739   2.01527    0.000
 4339.00   21.03641   1.87962    0.000
 4340.00   14.61791   1.68912    0.000
 4341.00   16.74139   1.51335    0.000
 4342.00   18.01114   1.39791    0.000
 4343.00   14.97380   1.38363    0.000
 4344.00   13.46085   1.48895    0.000
 4345.00   18.16998   1.64773    0.000
 4346.00   21.90439   1.77662    0.000
 4347.00   22.34115   1.86732    0.000
 4348.00   22.28341   1.93812    0.000
 4349.00   20.81458   1.98877    0.000
 4350.00   20.67216   2.03474    0.000
 4351.00   23.76354   2.08084    0.002
 4352.00   27.16595   2.07141   -1.000
 4353.00   31.22259   1.96421   -1.000
 4354.00   37.22646   1.83268   -1.000
 4355.00   46.79018   1.79606   -1.000
 4356.00   49.50298   1.86634   -1.000
 4357.00   41.26969   1.96315   -1.000
 4358.00   36.98500   2.04007   -1.000
 4359.00   38.23653   2.09275   -1.000
 4360.00   34.73861   2.10212   -1.000
 4361.00   25.38085   2.06975   -1.000
 4362.00   25.66092   2.05410   -1.000
 4363.00   36.42267   2.09671   -1.000
 4364.00   41.68563   2.16268   -1.000
 4365.00   41.67368   2.20629   -1.000
 4366.00   33.94475   2.23547    0.002
 4367.00   19.68827   2.26378    0.001
 4368.00   16.86034   2.25884    0.001
 4369.00   22.54512   2.19745    0.001
 4370.00   26.66855   2.12309    0.001
 4371.00   29.77032   2.09089    0.001
 4372.00   24.70618   2.09872    0.001
 4373.00   14.96507   2.11391    0.001
 4374.00   12.36207   2.11510    0.001
 4375.00   13.31971   2.08123    0.001
 4376.00   21.68463   2.00526    0.001
 4377.00   33.24604   1.93407    0.001
 4378.00   31.33112   1.93808    0.001
 4379.00   24.42959   2.02805    0.001
 4380.00   22.64466   2.13706    0.001
 4381.00   22.46424   2.19388    0.001
 4382.00   21.09020   2.18552    0.001
 4383.00   19.40389   2.12591    0.001
 4384.00   11.84319   1.99881    0.001
 4385.00    3.02772   1.80118    0.001
 4386.00   17.48525   1.62914    0.001
 4387.00   35.87838   1.61226    0.001
 4388.00   35.87382   1.75152    0.001
 4389.00   33.51880   1.91780    0.001
 4390.00   24.49368   2.00771    0.001
 4391.00   14.87337   2.02412    0.001
 4392.00   19.89857   2.01736    0.001
 4393.00   25.70376   2.02723    0.001
 4394.00   35.60800   2.06753    0.001
 4395.00   45.35544   2.11035    0.001
 4396.00   35.83852   2.11560    0.001
 4397.00   26.65733   2.10040    0.001
 4398.00   24.85534   2.12873    0.001
 4399.00   23.58891   2.21214    0.001
 4400.00   28.93927   2.27728    0.001
 4401.00   33.28738   2.25931    0.001
 4402.00   29.20369   2.18184    0.001
 4403.00   26.29947   2.12769    0.001
 4404.00   30.78756   2.13874    0.001
 4405.00   35.79620   2.14679    0.001
 4406.00   43.36528   2.06917    0.001
 4407.00   49.84916   1.95914    0.001
 4408.00   52.00090   1.93301    0.001
 4409.00   50.99801   1.98800    0.001
 4410.00   39.53333   2.04295    0.001
 4411.00   30.83067   2.09406    0.001
 4412.00   29.86638   2.18631    0.001
 4413.00   27.04930   2.30350    0.001
 4414.00   19.79156   2.38869    0.001
 4415.00   17.28340   2.40179    0.001
 4416.00   24.60565   2.32393    0.001
 4417.00   30.89814   2.19121    0.001
 4418.00   35.33688   2.10497    0.001
 4419.00   36.23063   2.12807    0.001
 4420.00   31.54412   2.22663    0.001
 4421.00   30.38987   2.33876    0.001
 4422.00   34.11667   2.41390    0.001
 4423.00   41.20355   2.41395    0.001
 4424.00   52.37729   2.35079    0.001
 4425.00   52.44304   2.29031    0.001
 4426.00   40.59800   2.28143    0.001
 4427.00   36.10595   2.30418    0.001
 4428.00   38.56847   2.31617    0.001
 4429.00   37.16300   2.31713    0.001
 4430.00   32.53199   2.32824    0.001
 4431.00   29.51542   2.34027    0.001
 4432.00   27.68414   2.32966    0.001
 4433.00   31.78273   2.31522    0.001
 4434.00   39.70447   2.32668    0.001
 4435.00   45.66362   2.32820    0.001
 4436.00   50.51578   2.27061    0.001
 4437.00   45.54340   2.18714    0.001
 4438.00   35.74792   2.16690    0.001
 4439.00   40.20644   2.25353    0.001
 4440.00   50.71331   2.39763    0.001
 4441.00   41.75291   2.51005    0.001
 4442.00   25.71758   2.53310    0.001
 4443.00   24.69350   2.46331    0.001
 4444.00   28.28567   2.34901    0.001
 4445.00   35.86771   2.26589    0.001
 4446.00   44.47122   2.27230    0.001
 4447.00   36.59770   2.36520    0.001
 4448.00   25.29005   2.47406    0.001
 4449.00   25.37353   2.53015    0.001
 4450.00   27.32852   2.53786    0.001
 4451.00   24.06742   2.53306    0.001
 4452.00   20.16326   2.51888    0.001
 4453.00   28.43533   2.49893    0.001
 4454.00   37.74309   2.48781    0.001
 4455.00   40.06229   2.45964    0.001
 4456.00   42.03659   2.37804    0.001
 4457.00   33.18531   2.27075    0.001
 4458.00   24.37530   2.21095    0.001
 4459.00   28.96550   2.22362    0.001
 4460.00   33.08873   2.25767    0.001
 4461.00   27.75425   2.26722    0.000
 4462.00   22.54421   2.25520    0.000
 4463.00   18.79676   2.23799    0.000
 4464.00   16.15190   2.23937    0.000
 4465.00   22.44877   2.29465    0.000
 4466.00   28.70140   2.39039    0.000
 4467.00   34.68483   2.46005    0.000
 4468.00   38.66709   2.47823    0.000
 4469.00   33.04905   2.47115    0.000
 4470.00   28.19771   2.45250    0.000
 4471.00   26.34068   2.42272    0.000
 4472.00   24.98125   2.40406    0.000
 4473.00   25.23974   2.42822    0.000
 4474.00   24.95223   2.49795    0.000
 4475.00   23.16248   2.58997    0.000
 4476.00   24.02628   2.66993    0.000
 4477.00   31.14306   2.71167    0.000
 4478.00   34.19839   2.72998    0.000
 4479.00   28.98137   2.75914    0.000
 4480.00   27.32380   2.78384    0.000
 4481.00   31.97619   2.74626    0.000
 4482.00   32.07205   2.63139    0.001
 4483.00   25.10108   2.49975    0.001
 4484.00   20.92534   2.43517    0.001
 4485.00   20.55664   2.47837    0.001
 4486.00   20.22444   2.59935    0.001
 4487.00   19.93601   2.72549    0.001
 4488.00   21.70310   2.80192    0.001
 4489.00   25.64330   2.80855    0.001
 4490.00   31.32247   2.74465    0.001
 4491.00   38.62328   2.64284    0.001
 4492.00   37.51245   2.57154    0.001
 4493.00   29.48642   2.58183    0.001
 4494.00   22.23280   2.64991    0.001
 4495.00   15.53808   2.69446    0.001
 4496.00   20.37118   2.66325    0.001
 4497.00   32.52699   2.59066    0.001
 4498.00   43.49876   2.55432    0.001
 4499.00   53.81285   2.59044    0.001
 4500.00   51.97724   2.67721    0.001
 4501.00   44.27199   2.76254    0.001
 4502.00   39.38130   2.79799    0.001
 4503.00   35.66482   2.78325    0.001
 4504.00   33.76064   2.77926    0.001
 4505.00   32.50324   2.84461    0.001
 4506.00   32.11647   2.95082    0.001
 4507.00   31.99220   3.01816    0.000
 4508.00   34.33130   3.01652    0.000
 4509.00   37.28741   2.97531    0.001
 4510.00   37.82787   2.93756    0.001
 4511.00   37.87728   2.93056    0.001
 4512.00   37.83416   2.95072    0.001
 4513.00   37.77628   2.96592    0.001
 4514.00   24.58173   2.94441    0.001
 4515.00    9.82600   2.88987    0.001
 4516.00   13.74756   2.83627    0.001
 4517.00   19.18038   2.81184    0.001
 4518.00   22.08434   2.81663    0.001
 4519.00   24.87331   2.82406    0.000
 4520.00   19.23195   2.81827    0.000
 4521.00   13.75700   2.82646    0.001
 4522.00   22.05637   2.87167    0.001
 4523.00   29.63159   2.92025    0.001
 4524.00   23.61518   2.91969    0.001
 4525.00   18.24509   2.86601    0.000
 4526.00   20.11586   2.80634    0.000
 4527.00   22.13223   2.76051    0.000
 4528.00   25.28802   2.69959    0.000
 4529.00   28.05095   2.61529    0.000
 4530.00   28.49106   2.53699    0.000
 4531.00   27.87362   2.49802    0.000
 4532.00   22.30578   2.51282    0.000
 4533.00   18.14910   2.56922    0.000
 4534.00   19.38578   2.63231    0.000
 4535.00   22.63486   2.65596    0.000
 4536.00   32.30053   2.61621    0.000
 4537.00   38.48874   2.56381    0.000
 4538.00   35.28003   2.59175    0.001
 4539.00   33.37136   2.72926    0.001
 4540.00   34.47506   2.89150    0.001
 4541.00   33.43365   2.96694    0.001
 4542.00   28.09227   2.94083    0.000
 4543.00   25.06912   2.88647    0.000
 4544.00   26.09320   2.87255    0.001
 4545.00   24.12495   2.89891    0.001
 4546.00   17.58404   2.91020    0.000
 4547.00   15.93406   2.88230    0.000
 4548.00   20.84976   2.85528    0.000
 4549.00   23.03534   2.85469    0.000
 4550.00   21.99358   2.84694    0.000
 4551.00   20.40071   2.80762    0.000
 4552.00   18.23337   2.77677    0.000
 4553.00   16.24844   2.79905    0.000
 4554.00   14.43122   2.84049    0.000
 4555.00   13.91105   2.83949    0.000
 4556.00   14.44206   2.79926    0.000
 4557.00   16.79865   2.77154    0.000
 4558.00   20.45719   2.80398    0.000
 4559.00   23.27559   2.90201    0.000
 4560.00   25.56821   3.01672    0.000
 4561.00   27.18390   3.09226    0.000
 4562.00   28.42934   3.12040    0.000
 4563.00   24.29313   3.12585    0.000
 4564.00   17.59862   3.11652    0.000
 4565.00   20.54317   3.07126    0.000
 4566.00   27.44102   2.98873    0.000
 4567.00   31.36617   2.92142    0.000
 4568.00   34.24965   2.92804    0.000
 4569.00   32.20990   3.01115    0.000
 4570.00   28.71510   3.11296    0.000
 4571.00   26.94330   3.16663    0.000
 4572.00   25.59358   3.14552    0.000
 4573.00   19.81924   3.06937    0.000
 4574.00   13.16801   3.00661    0.000
 4575.00   19.76028   3.02848    0.000
 4576.00   28.40257   3.11056    0.000
 4577.00   26.48698   3.16736    0.000
 4578.00   23.36320   3.17718    0.000
 4579.00   23.20435   3.16840    0.000
 4580.00   23.27321   3.14035    0.000
 4581.00   19.83386   3.07445    0.000
 4582.00   16.24848   2.98573    0.000
 4583.00   23.67675   2.92527    0.000
 4584.00   31.01858   2.92631    0.000
 4585.00   30.54490   2.96369    0.000
 4586.00   29.84445   2.98898    0.000
 4587.00   25.18021   2.99006    0.000
 4588.00   20.50140   2.99285    0.000
 4589.00   15.66659   3.02943    0.000
 4590.00   12.98211   3.10596    0.000
 4591.00   26.55159   3.18326    0.000
 4592.00   37.86610   3.21048    0.000
 4593.00   36.21980   3.17415    0.000
 4594.00   33.05284   3.10735    0.000
 4595.00   22.93770   3.05731    0.000
 4596.00   14.88640   3.04113    0.000
 4597.00   14.55622   3.04238    0.000
 4598.00   13.38021   3.04980    0.000
 4599.00    9.55891   3.06771    0.000
 4600.00    8.01765   3.09464    0.000
 4601.00   12.52861   3.11639    0.000
 4602.00   16.25322   3.11420    0.000
 4603.00   18.18602   3.09298    0.000
 4604.00   18.80568   3.08768    0.000
 4605.00   16.83453   3.10953    0.000
 4606.00   14.67725   3.13248    0.000
 4607.00   12.19994   3.14075    0.000
 4608.00   14.39765   3.15078    0.000
 4609.00   23.63475   3.19376    0.000
 4610.00   26.06633   3.27965    0.000
 4611.00   19.49293   3.37525    0.000
 4612.00   16.28983   3.42509    0.000
 4613.00   17.01459   3.40708    0.000
 4614.00   18.05961   3.35334    0.000
 4615.00   19.43376   3.30963    0.000
 4616.00   21.34642   3.30112    0.000
 4617.00   23.74722   3.32525    0.000
 4618.00   23.53454   3.35415    0.000
 4619.00   21.23387   3.36826    0.000
 4620.00   19.33315   3.36822    0.000
 4621.00   17.71354   3.35395    0.000
 4622.00   16.00795   3.34508    0.000
 4623.00   14.24936   3.36989    0.000
 4624.00   18.70286   3.41053    0.000
 4625.00   26.50183   3.43114    0.000
 4626.00   23.90059   3.42992    0.000
 4627.00   16.43491   3.41654    0.000
 4628.00   19.04200   3.39817    0.000
 4629.00   25.70982   3.38991    0.000
 4630.00   25.11907   3.38968    0.000
 4631.00   22.03137   3.37948    0.000
 4632.00   24.42135   3.37299    0.000
 4633.00   28.39792   3.39784    0.000
 4634.00   26.89423   3.42800    0.000
 4635.00   24.07794   3.41482    0.000
 4636.00   24.08829   3.37001    0.000
 4637.00   24.64457   3.34008    0.000
 4638.00   22.25460   3.32914    0.000
 4639.00   19.42239   3.30799    0.000
 4640.00   21.86778   3.26871    0.000
 4641.00   24.89404   3.23396    0.000
 4642.00   22.96688   3.23071    0.000
 4643.00   20.67952   3.27262    0.000
 4644.00   25.62501   3.34110    0.000
 4645.00   30.84394   3.38612    0.000
 4646.00   23.13467   3.37527    0.000
 4647.00   15.67483   3.31313    0.000
 4648.00   19.89215   3.21701    0.000
 4649.00   23.81994   3.12430    0.000
 4650.00   23.01513   3.09044    0.000
 4651.00   22.33938   3.13636    0.000
 4652.00   22.98434   3.22857    0.000
 4653.00   23.53023   3.31880    0.000
 4654.00   23.35216   3.38106    0.000
 4655.00   23.08025   3.40611    0.000
 4656.00   22.28366   3.38308    0.000
 4657.00   21.35166   3.32253    0.000
 4658.00   19.81550   3.27686    0.000
 4659.00   18.48244   3.29977    0.000
 4660.00   17.89335   3.40214    0.000
 4661.00   17.82486   3.54206    0.000
 4662.00   19.35367   3.64629    0.000
 4663.00   21.19318   3.66216    0.000
 4664.00   23.84296   3.59637    0.000
 4665.00   25.49710   3.50203    0.000
 4666.00   24.91991   3.43067    0.000
 4667.00   22.35544   3.38079    0.000
 4668.00   15.93153   3.29858    0.000
 4669.00   12.50945   3.16257    0.000
 4670.00   14.17116   3.04807    0.000
 4671.00   16.22314   3.05029    0.000
 4672.00   18.85417   3.16949    0.000
 4673.00   19.98304   3.32165    0.000
 4674.00   19.15267   3.42633    0.000
 4675.00   18.42551   3.45953    0.000
 4676.00   17.81694   3.45488    0.000
 4677.00   17.55328   3.46580    0.000
 4678.00   17.63913   3.51232    0.000
 4679.00   19.08927   3.55864    0.000
 4680.00   21.75872   3.55265    0.000
 4681.00   21.64052   3.48955    0.000
 4682.00   19.32682   3.41237    0.000
 4683.00   21.74939   3.36159    0.000
 4684.00   27.45267   3.35658    0.000
 4685.00   24.99386   3.40131    0.000
 4686.00   17.57775   3.47173    0.000
 4687.00   20.84402   3.52516    0.000
 4688.00   29.77433   3.54183    0.000
 4689.00   24.94137   3.53326    0.000
 4690.00   13.77520   3.51992    0.000
 4691.00   15.13862   3.51587    0.000
 4692.00   21.46647   3.51621    0.000
 4693.00   23.11692   3.50913    0.000
 4694.00   23.18805   3.50700    0.000
 4695.00   21.11017   3.53251    0.000
 4696.00   18.42242   3.58471    0.000
 4697.00   16.34493   3.64626    0.000
 4698.00   14.41031   3.69356    0.000
 4699.00   13.74880   3.69045    0.000
 4700.00   13.32679   3.61871    0.000
 4701.00   18.81203   3.52101    0.000
 4702.00   25.15647   3.46344    0.000
 4703.00   26.72224   3.45146    0.000
 4704.00   27.78280   3.43743    0.000
 4705.00   26.97541   3.40940    0.000
 4706.00   26.03975   3.41158    0.000
 4707.00   26.38494   3.46325    0.000
 4708.00   26.77370   3.51377    0.000
 4709.00   28.49539   3.50858    0.000
 4710.00   29.93930   3.46027    0.000
 4711.00   22.28085   3.42635    0.000
 4712.00   15.25525   3.45162    0.000
 4713.00   17.94006   3.53577    0.000
 4714.00   20.28408   3.62485    0.000
 4715.00   19.28663   3.65264    0.000
 4716.00   18.23593   3.61181    0.000
 4717.00   16.80865   3.56850    0.000
 4718.00   16.38145   3.59197    0.000
 4719.00   21.39519   3.67939    0.000
 4720.00   25.11144   3.77389    0.000
 4721.00   23.17283   3.84126    0.000
 4722.00   19.33105   3.88346    0.000
 4723.00    8.66178   3.89857    0.000
 4724.00    2.04082   3.88320    0.000
 4725.00    7.60713   3.86299    0.000
 4726.00   12.43888   3.87387    0.000
 4727.00   15.38842   3.90688    0.000
 4728.00   19.99936   3.90056    0.000
 4729.00   28.27274   3.80773    0.000
 4730.00   33.69277   3.66262    0.000
 4731.00   33.65771   3.55245    0.000
 4732.00   30.99037   3.52380    0.000
 4733.00   23.93192   3.55502    0.000
 4734.00   19.41837   3.61177    0.000
 4735.00   18.62583   3.67622    0.000
 4736.00   21.04584   3.73463    0.000
 4737.00   27.59612   3.77097    0.000
 4738.00   26.80442   3.77031    0.000
 4739.00   17.69586   3.74895    0.000
 4740.00   16.85120   3.75857    0.000
 4741.00   24.26281   3.81005    0.000
 4742.00   27.55035   3.84722    0.000
 4743.00   27.20401   3.84021    0.000
 4744.00   26.19724   3.83021    0.000
 4745.00   24.67775   3.85374    0.000
 4746.00   24.74347   3.89032    0.000
 4747.00   25.89129   3.91011    0.000
 4748.00   29.05836   3.92479    0.000
 4749.00   33.43350   3.95423    0.000
 4750.00   30.69323   3.98412    0.000
 4751.00   24.23877   3.99645    0.000
 4752.00   22.20098   3.99928    0.000
 4753.00   22.16243   3.99649    0.000
 4754.00   20.16515   3.97332    0.000
 4755.00   17.40522   3.92762    0.000
 4756.00   20.47927   3.87919    0.000
 4757.00   25.48642   3.84716    0.000
 4758.00   22.65415   3.83584    0.000
 4759.00   17.64256   3.84189    0.000
 4760.00   17.28435   3.86322    0.000
 4761.00   17.99060   3.89788    0.000
 4762.00   19.81359   3.92954    0.000
 4763.00   21.84112   3.92195    0.000
 4764.00   20.83818   3.85591    0.000
 4765.00   19.40846   3.76520    0.000
 4766.00   16.16940   3.69750    0.000
 4767.00   12.74683   3.66005    0.000
 4768.00   16.86667   3.64429    0.000
 4769.00   21.47412   3.66585    0.000
 4770.00   19.73055   3.73853    0.000
 4771.00   17.80630   3.84145    0.000
 4772.00   21.60543   3.92708    0.000
 4773.00   25.17682   3.95327    0.000
 4774.00   22.14924   3.92864    0.000
 4775.00   19.37259   3.91685    0.000
 4776.00   20.22239   3.96403    0.000
 4777.00   20.99769   4.04065    0.000
 4778.00   21.07212   4.09117    0.000
 4779.00   21.66449   4.10786    0.000
 4780.00   25.80318   4.11104    0.000
 4781.00   28.99695   4.10074    0.000
 4782.00   27.18529   4.07456    0.000
 4783.00   25.81129   4.04606    0.000
 4784.00   26.30119   4.01500    0.000
 4785.00   26.83396   3.97237    0.000
 4786.00   27.51739   3.93848    0.000
 4787.00   27.90716   3.93197    0.000
 4788.00   27.42933   3.92707    0.000
 4789.00   25.92802   3.90773    0.000
 4790.00   21.84947   3.89787    0.000
 4791.00   17.98494   3.90667    0.000
 4792.00   14.58453   3.92382    0.000
 4793.00   14.00627   3.95543    0.000
 4794.00   18.73975   4.01169    0.000
 4795.00   20.99683   4.09328    0.000
 4796.00   19.18461   4.19317    0.000
 4797.00   16.37775   4.28149    0.000
 4798.00   12.13769   4.31533    0.000
 4799.00   13.38510   4.27946    0.000
 4800.00   21.58704   4.19515    0.000
 4801.00   27.22518   4.10283    0.000
 4802.00   29.99999   4.05076    0.000
 4803.00   29.33726   4.07308    0.000
 4804.00   25.28835   4.15569    0.000
 4805.00   25.13867   4.23588    0.000
 4806.00   28.37633   4.25326    0.000
 4807.00   28.85942   4.20429    0.000
 4808.00   27.23453   4.13802    0.000
 4809.00   25.04403   4.09332    0.000
 4810.00   22.47307   4.07382    0.000
 4811.00   23.91564   4.08012    0.000
 4812.00   27.72341   4.11366    0.000
 4813.00   26.27737   4.15564    0.000
 4814.00   22.13165   4.18438    0.000
 4815.00   19.38581   4.20028    0.000
 4816.00   17.26325   4.21630    0.000
 4817.00   18.02468   4.24064    0.000
 4818.00   19.88947   4.27520    0.000
 4819.00   18.88389   4.31698    0.000
 4820.00   16.94509   4.35804    0.000
 4821.00   18.98627   4.38973    0.000
 4822.00   22.11099   4.40311    0.000
 4823.00   22.57145   4.38840    0.000
 4824.00   22.43661   4.33227    0.000
 4825.00   23.80015   4.23134    0.000
 4826.00   25.43076   4.13332    0.000
 4827.00   20.29754   4.11499    0.000
 4828.00   14.24277   4.18252    0.000
 4829.00   14.79523   4.25600    0.000
 4830.00   15.98960   4.27267    0.000
 4831.00   20.09141   4.24820    0.000
 4832.00   24.36959   4.22523    0.000
 4833.00   22.32604   4.20610    0.000
 4834.00   20.13990   4.17769    0.000
 4835.00   22.45073   4.16801    0.000
 4836.00   24.66184   4.20884    0.000
 4837.00   24.26997   4.27345    0.000
 4838.00   23.64423   4.31377    0.000
 4839.00   19.82597   4.32115    0.000
 4840.00   16.94417   4.30282    0.000
 4841.00   22.52690   4.25428    0.000
 4842.00   27.30725   4.19228    0.000
 4843.00   26.76365   4.16017    0.000
 4844.00   26.02817   4.16862    0.000
 4845.00   24.30257   4.18622    0.000
 4846.00   23.70224   4.20821    0.000
 4847.00   27.78608   4.26115    0.000
 4848.00   30.78477   4.32984    0.000
 4849.00   30.04690   4.35325    0.000
 4850.00   28.29450   4.30499    0.000
 4851.00   23.60003   4.23766    0.000
 4852.00   18.14790   4.22163    0.000
 4853.00   10.82062   4.25617    0.000
 4854.00    7.29165   4.28601    0.000
 4855.00   11.86620   4.27399    0.000
 4856.00   16.48549   4.20411    0.000
 4857.00   21.18766   4.08064    0.000
 4858.00   23.11284   3.96660    0.000
 4859.00   20.54267   3.92877    0.000
 4860.00   17.71304   3.92301    0.000
 4861.00   14.51497   3.82319    0.000
 4862.00   14.15077   3.56808    0.000
 4863.00   17.32699   3.25313    0.000
 4864.00   19.60676   3.08207    0.000
 4865.00   20.89944   3.17413    0.000
 4866.00   21.24381   3.43609    0.000
 4867.00   20.66714   3.69869    0.000
 4868.00   19.54587   3.89094    0.000
 4869.00   17.95816   4.02187    0.000
 4870.00   18.36065   4.10437    0.000
 4871.00   20.26441   4.14016    0.000
 4872.00   19.88216   4.10977    0.000
 4873.00   17.98465   4.00296    0.000
 4874.00   18.26490   3.89419    0.000
 4875.00   19.80918   3.89396    0.000
 4876.00   20.15449   4.00395    0.000
 4877.00   19.89335   4.12615    0.000
 4878.00   18.40207   4.20413    0.000
 4879.00   16.37211   4.25816    0.000
 4880.00   14.20643   4.31825    0.000
 4881.00   11.98975   4.39628    0.000
 4882.00   11.21852   4.46499    0.000
 4883.00   10.90832   4.46902    0.000
 4884.00   11.54070   4.41445    0.000
 4885.00   12.42432   4.37169    0.000
 4886.00   17.48282   4.35735    0.000
 4887.00   23.45217   4.32089    0.000
 4888.00   24.38766   4.25363    0.000
 4889.00   24.45055   4.21031    0.000
 4890.00   21.66994   4.21664    0.000
 4891.00   18.51483   4.22564    0.000
 4892.00   16.22275   4.17805    0.000
 4893.00   14.01087   4.09244    0.000
 4894.00   18.73284   4.08386    0.000
 4895.00   23.84794   4.23461    0.000
 4896.00   19.95397   4.48467    0.000
 4897.00   15.92770   4.71080    0.000
 4898.00   19.89489   4.84724    0.000
 4899.00   23.70866   4.89807    0.000
 4900.00   23.88073   4.88667    0.000
 4901.00   23.77146   4.82334    0.000
 4902.00   20.02444   4.73087    0.000
 4903.00   16.49212   4.66169    0.000
 4904.00   14.82658   4.63468    0.000
 4905.00   13.57401   4.61508    0.000
 4906.00   14.97867   4.59970    0.000
 4907.00   15.50474   4.63698    0.000
 4908.00   11.61244   4.73079    0.000
 4909.00    9.26369   4.80380    0.000
 4910.00   13.19763   4.78476    0.000
 4911.00   15.67377   4.67692    0.000
 4912.00   13.23032   4.54141    0.000
 4913.00   12.23294   4.45758    0.000
 4914.00   15.35240   4.47158    0.000
 4915.00   18.34645   4.55921    0.000
 4916.00   21.03540   4.66556    0.000
 4917.00   22.18242   4.76155    0.000
 4918.00   20.09267   4.82182    0.000
 4919.00   18.39498   4.79092    0.000
 4920.00   17.41266   4.62501    0.000
 4921.00   17.49737   4.35997    0.000
 4922.00   19.28375   4.11246    0.000
 4923.00   19.40070   4.00729    0.000
 4924.00   17.18126   4.08400    0.000
 4925.00   18.06545   4.25353    0.000
 4926.00   22.77206   4.38837    0.000
 4927.00   22.08724   4.46426    0.000
 4928.00   15.54936   4.55220    0.000
 4929.00   12.21507   4.68216    0.000
 4930.00   11.94850   4.81412    0.000
 4931.00   12.67664   4.91778    0.000
 4932.00   14.24469   4.98665    0.000
 4933.00   15.33331   5.00972    0.000
 4934.00   16.06546   4.96564    0.000
 4935.00   19.38497   4.84197    0.000
 4936.00   24.39435   4.69435    0.000
 4937.00   23.79403   4.62831    0.000
 4938.00   19.98690   4.65441    0.000
 4939.00   16.81075   4.65847    0.000
 4940.00   13.94869   4.56515    0.000
 4941.00   13.42537   4.44932    0.000
 4942.00   13.90915   4.44794    0.000
 4943.00   16.52295   4.59394    0.000
 4944.00   19.92315   4.78765    0.000
 4945.00   21.19025   4.93208    0.000
 4946.00   21.79007   5.00859    0.000
 4947.00   20.50722   5.02448    0.000
 4948.00   18.73315   4.99797    0.000
 4949.00   15.92149   4.98279    0.000
 4950.00   12.88886   5.01689    0.000
 4951.00   15.43239   5.07698    0.000
 4952.00   18.91551   5.12590    0.000
 4953.00   18.04237   5.15422    0.000
 4954.00   16.61513   5.15563    0.000
 4955.00   19.44136   5.12104    0.000
 4956.00   22.64492   5.06179    0.000
 4957.00   18.72103   4.98286    0.000
 4958.00   14.42105   4.84052    0.000
 4959.00   11.57776   4.60607    0.000
 4960.00    8.85727   4.39624    0.000
 4961.00   13.57748   4.39768    0.000
 4962.00   17.88551   4.61446    0.000
 4963.00   13.22981   4.85774    0.000
 4964.00    9.61079   4.98765    0.000
 4965.00   18.71876   5.01803    0.000
 4966.00   26.29118   4.99728    0.000
 4967.00   21.00527   4.92872    0.000
 4968.00   16.12370   4.82938    0.000
 4969.00   13.76693   4.75502    0.000
 4970.00   12.18607   4.73583    0.000
 4971.00   14.40967   4.75639    0.000
 4972.00   16.49036   4.79568    0.000
 4973.00   18.00215   4.85041    0.000
 4974.00   19.41087   4.92354    0.000
 4975.00   20.47868   5.00445    0.000
 4976.00   21.06519   5.07396    0.000
 4977.00   20.30634   5.11472    0.000
 4978.00   19.38154   5.11398    0.000
 4979.00   18.05984   5.06948    0.000
 4980.00   17.00983   4.98983    0.000
 4981.00   16.52105   4.89829    0.000
 4982.00   15.36340   4.81686    0.000
 4983.00   13.00399   4.72453    0.000
 4984.00   12.91179   4.58302    0.000
 4985.00   16.38183   4.42605    0.000
 4986.00   19.05033   4.35007    0.000
 4987.00   20.61323   4.40193    0.000
 4988.00   19.90118   4.54668    0.000
 4989.00   16.42704   4.72683    0.000
 4990.00   13.87989   4.88240    0.000
 4991.00   12.32495   4.95760    0.000
 4992.00   12.23225   4.94569    0.000
 4993.00   13.52012   4.90050    0.000
 4994.00   14.59190   4.88569    0.000
 4995.00   15.48379   4.90910    0.000
 4996.00   15.36568   4.93476    0.000
 4997.00   14.50740   4.95921    0.000
 4998.00   13.79698   4.99904    0.000
 4999.00   13.18171   5.03230    0.000
 5000.00   13.26074   5.01911    0.000
 5001.00   13.73064   4.94212    0.000
 5002.00   15.48113   4.82467    0.000
 5003.00   17.85904   4.72632    0.000
 5004.00   18.74496   4.69096    0.000
 5005.00   18.99913   4.70731    0.000
 5006.00   18.42237   4.72190    0.000
 5007.00   17.54430   4.67971    0.000
 5008.00   17.61805   4.58780    0.000
 5009.00   17.98378   4.54138    0.000
 5010.00   14.21781   4.62408    0.000
 5011.00    9.39694   4.78986    0.000
 5012.00    8.07103   4.91023    0.000
 5013.00    7.47127   4.90894    0.000
 5014.00   13.31060   4.79575    0.000
 5015.00   20.20398   4.63017    0.000
 5016.00   20.90643   4.49353    0.000
 5017.00   20.84911   4.45318    0.000
 5018.00   19.07120   4.51249    0.000
 5019.00   17.14782   4.59881    0.000
 5020.00   17.15328   4.64657    0.000
 5021.00   17.25299   4.67519    0.000
 5022.00   16.61835   4.72836    0.000
 5023.00   15.99798   4.78423    0.000
 5024.00   16.94066   4.79862    0.000
 5025.00   17.72400   4.79666    0.000
 5026.00   15.31181   4.83879    0.000
 5027.00   13.13774   4.91757    0.000
 5028.00   13.74548   4.96705    0.000
 5029.00   14.48395   4.95215    0.000
 5030.00   16.27788   4.91448    0.000
 5031.00   17.66045   4.93067    0.000
 5032.00   16.54878   5.01589    0.000
 5033.00   15.18507   5.12046    0.000
 5034.00   12.61601   5.21734    0.000
 5035.00   10.20449   5.30355    0.000
 5036.00    8.40658   5.33667    0.000
 5037.00    8.17284   5.25818    0.000
 5038.00   13.01246   5.09324    0.000
 5039.00   16.55585   4.95582    0.000
 5040.00   16.54101   4.89808    0.000
 5041.00   15.54179   4.83573    0.000
 5042.00   12.22786   4.68422    0.000
 5043.00   11.34879   4.49546    0.000
 5044.00   15.41909   4.42803    0.000
 5045.00   18.34002   4.58146    0.000
 5046.00   19.22734   4.87733    0.000
 5047.00   20.13662   5.16322    0.000
 5048.00   21.07991   5.35618    0.000
 5049.00   20.01933   5.42303    0.000
 5050.00   16.23450   5.34606    0.000
 5051.00   12.82556   5.17357    0.000
 5052.00    9.86653   5.01503    0.000
 5053.00   11.04863   4.94342    0.000
 5054.00   16.60101   4.95699    0.000
 5055.00   18.95575   5.03539    0.000
 5056.00   18.33389   5.16035    0.000
 5057.00   16.47062   5.29061    0.000
 5058.00   13.58863   5.38098    0.000
 5059.00   13.55410   5.42447    0.000
 5060.00   15.57629   5.44790    0.000
 5061.00   17.24125   5.47066    0.000
 5062.00   18.67973   5.49657    0.000
 5063.00   17.70511   5.53161    0.000
 5064.00   15.39271   5.56233    0.000
 5065.00   14.46200   5.53447    0.000
 5066.00   14.19744   5.40284    0.000
 5067.00   17.62586   5.21260    0.000
 5068.00   22.59170   5.08495    0.000
 5069.00   24.68928   5.07546    0.000
 5070.00   25.76555   5.11824    0.000
 5071.00   23.23191   5.15700    0.000
 5072.00   19.61256   5.20496    0.000
 5073.00   15.10601   5.25053    0.000
 5074.00   10.37785   5.24623    0.000
 5075.00   15.61918   5.21183    0.000
 5076.00   22.88072   5.21292    0.000
 5077.00   22.39409   5.24596    0.000
 5078.00   20.67605   5.26636    0.000
 5079.00   20.33400   5.26843    0.000
 5080.00   20.15471   5.23579    0.000
 5081.00   21.25505   5.11178    0.000
 5082.00   22.45828   4.91907    0.000
 5083.00   23.49089   4.79597    0.000
 5084.00   24.51583   4.82116    0.000
 5085.00   20.20633   4.92552    0.000
 5086.00   15.90334   5.02954    0.000
 5087.00   15.07093   5.13492    0.000
 5088.00   14.35048   5.24760    0.000
 5089.00   15.71217   5.33163    0.000
 5090.00   16.83117   5.37026    0.000
 5091.00   15.24723   5.39194    0.000
 5092.00   13.94726   5.42004    0.000
 5093.00   14.85970   5.45305    0.000
 5094.00   15.35709   5.49685    0.000
 5095.00   13.40916   5.55943    0.000
 5096.00   11.67145   5.61269    0.000
 5097.00   10.91482   5.60745    0.000
 5098.00   11.50422   5.52670    0.000
 5099.00   17.22419   5.39243    0.000
 5100.00   21.11805   5.23390    0.000
 5101.00   19.20342   5.09334    0.000
 5102.00   17.42273   5.04576    0.000
 5103.00   16.00316   5.13594    0.000
 5104.00   15.23775   5.29693    0.000
 5105.00   15.98489   5.41104    0.000
 5106.00   16.32037   5.43161    0.000
 5107.00   15.83229   5.39350    0.000
 5108.00   16.96438   5.33694    0.000
 5109.00   20.91960   5.26920    0.000
 5110.00   22.25490   5.20083    0.000
 5111.00   19.59400   5.16209    0.000
 5112.00   18.39652   5.16216    0.000
 5113.00   19.16003   5.19845    0.000
 5114.00   20.14793   5.28150    0.000
 5115.00   21.40064   5.39030    0.000
 5116.00   19.14764   5.48088    0.000
 5117.00   13.24691   5.54438    0.000
 5118.00   11.18559   5.59909    0.000
 5119.00   12.64804   5.66110    0.000
 5120.00   13.81452   5.72316    0.000
 5121.00   14.74156   5.74909    0.000
 5122.00   16.46939   5.71179    0.000
 5123.00   18.76729   5.61924    0.000
 5124.00   18.42077   5.49280    0.000
 5125.00   16.42239   5.34509    0.000
 5126.00   15.48108   5.20034    0.000
 5127.00   15.11682   5.11331    0.000
 5128.00   13.68788   5.11169    0.000
 5129.00   11.75384   5.15198    0.000
 5130.00   13.52146   5.17833    0.000
 5131.00   16.80399   5.18369    0.000
 5132.00   18.01400   5.19906    0.000
 5133.00   18.49945   5.25384    0.000
 5134.00   19.68727   5.34192    0.000
 5135.00   21.08215   5.42680    0.000
 5136.00   20.21902   5.49327    0.000
 5137.00   18.80431   5.55598    0.000
 5138.00   19.37985   5.59754    0.000
 5139.00   20.34857   5.56336    0.000
 5140.00   13.23304   5.45097    0.000
 5141.00    4.87089   5.32878    0.000
 5142.00    7.96211   5.26995    0.000
 5143.00   12.35770   5.28997    0.000
 5144.00   11.74393   5.31312    0.000
 5145.00   10.74801   5.28591    0.000
 5146.00    7.57054   5.27332    0.000
 5147.00    4.30331   5.31427    0.000
 5148.00    8.75166   5.34130    0.000
 5149.00   13.19242   5.31858    0.000
 5150.00   14.64156   5.29793    0.000
 5151.00   16.22279   5.32489    0.000
 5152.00   20.09312   5.37091    0.000
 5153.00   23.38102   5.37105    0.000
 5154.00   20.47273   5.31707    0.000
 5155.00   17.69127   5.26402    0.000
 5156.00   15.86438   5.25792    0.000
 5157.00   14.93421   5.31504    0.000
 5158.00   19.14006   5.43587    0.000
 5159.00   22.41581   5.59375    0.000
 5160.00   21.45454   5.73761    0.000
 5161.00   19.99492   5.82532    0.000
 5162.00   16.67584   5.85545    0.000
 5163.00   14.05674   5.84955    0.000
 5164.00   13.62148   5.80532    0.000
 5165.00   13.33508   5.71809    0.000
 5166.00   13.44289   5.59877    0.000
 5167.00   14.51150   5.41116    0.000
 5168.00   17.76486   5.09206    0.000
 5169.00   19.07297   4.67786    0.000
 5170.00   16.55071   4.34132    0.000
 5171.00   14.39873   4.25848    0.000
 5172.00   12.88221   4.40958    0.000
 5173.00   12.86004   4.55187    0.000
 5174.00   15.08382   4.47361    0.000
 5175.00   17.18267   4.27762    0.000
 5176.00   19.11651   4.28314    0.000
 5177.00   18.49809   4.61380    0.000
 5178.00   14.91048   5.06289    0.000
 5179.00   13.01135   5.39079    0.000
 5180.00   12.84445   5.55384    0.000
 5181.00   11.21048   5.61027    0.000
 5182.00    8.24900   5.58272    0.000
 5183.00    8.74172   5.44757    0.000
 5184.00   11.98917   5.16550    0.000
 5185.00   14.61344   4.75080    0.000
 5186.00   16.80049   4.37976    0.000
 5187.00   16.90598   4.32792    0.000
 5188.00   15.73053   4.66410    0.000
 5189.00   13.20934   5.14191    0.000
 5190.00    9.96483   5.48779    0.000
 5191.00    9.86955   5.64788    0.000
 5192.00   11.24425   5.70482    0.000
 5193.00   12.93869   5.67413    0.000
 5194.00   14.76176   5.52423    0.000
 5195.00   15.18596   5.34881    0.000
 5196.00   15.13006   5.29859    0.000
 5197.00   14.56822   5.37311    0.000
 5198.00   13.86021   5.47355    0.000
 5199.00   14.96309   5.57334    0.000
 5200.00   16.49847   5.69072    0.000
 5201.00   15.63941   5.81190    0.000
 5202.00   14.31941   5.90863    0.000
 5203.00   17.04850   5.95624    0.000
 5204.00   20.38299   5.93982    0.000
 5205.00   16.91182   5.86171    0.000
 5206.00   12.69529   5.72073    0.000
 5207.00   14.42313   5.51654    0.000
 5208.00   16.58021   5.30572    0.000
 5209.00   18.14273   5.17331    0.000
 5210.00   19.68306   5.12668    0.000
 5211.00   15.26625   5.12750    0.000
 5212.00   10.97879   5.20072    0.000
 5213.00   12.40864   5.38594    0.000
 5214.00   13.92249   5.64948    0.000
 5215.00   16.79829   5.90490    0.000
 5216.00   19.32131   6.05987    0.000
 5217.00   18.25336   6.06296    0.000
 5218.00   16.96934   5.95542    0.000
 5219.00   14.11289   5.86020    0.000
 5220.00   12.03881   5.87795    0.000
 5221.00   14.32366   6.00218    0.000
 5222.00   15.52506   6.15217    0.000
 5223.00   11.90675   6.26077    0.000
 5224.00    9.16337   6.30200    0.000
 5225.00    9.61641   6.25665    0.000
 5226.00   10.64331   6.10509    0.000
 5227.00   13.42666   5.85588    0.000
 5228.00   15.21299   5.56374    0.000
 5229.00   14.40499   5.33854    0.000
 5230.00   13.15895   5.31605    0.000
 5231.00   10.93320   5.53497    0.000
 5232.00   10.83341   5.85606    0.000
 5233.00   14.85425   6.09213    0.000
 5234.00   18.19633   6.16144    0.000
 5235.00   20.39105   6.08485    0.000
 5236.00   21.66737   5.96200    0.000
 5237.00   21.58353   5.92071    0.000
 5238.00   19.54711   6.01196    0.000
 5239.00   14.96861   6.18524    0.000
 5240.00   14.49778   6.34911    0.000
 5241.00   18.73819   6.43985    0.000
 5242.00   21.04091   6.46047    0.000
 5243.00   21.38364   6.45542    0.000
 5244.00   18.55973   6.45275    0.000
 5245.00   12.91072   6.45565    0.000
 5246.00   12.25003   6.47387    0.000
 5247.00   15.51095   6.49959    0.000
 5248.00   18.75837   6.46486    0.000
 5249.00   21.99647   6.32097    0.000
 5250.00   21.60732   6.14347    0.000
 5251.00   19.01929   6.04247    0.000
 5252.00   15.83035   6.01165    0.000
 5253.00   12.32342   5.99492    0.000
 5254.00   10.54482   6.01169    0.000
 5255.00    9.55987   6.08421    0.000
 5256.00    9.90020   6.15398    0.000
 5257.00   10.76448   6.17326    0.000
 5258.00   12.58355   6.19891    0.000
 5259.00   14.72424   6.31836    0.000
 5260.00   14.58776   6.51165    0.000
 5261.00   13.80669   6.66163    0.000
 5262.00   11.94356   6.67792    0.000
 5263.00    9.82785   6.54579    0.000
 5264.00   11.34740   6.29700    0.000
 5265.00   13.54855   5.99084    0.000
 5266.00   12.85780   5.69933    0.000
 5267.00   11.74811   5.47949    0.000
 5268.00   15.86685   5.36976    0.000
 5269.00   20.53553   5.38934    0.000
 5270.00   18.30846   5.47223    0.000
 5271.00   15.61135   5.46113    0.000
 5272.00   15.41582   5.32110    0.000
 5273.00   15.30419   5.26410    0.000
 5274.00   15.88743   5.46373    0.000
 5275.00   16.56595   5.79288    0.000
 5276.00   20.27301   6.02170    0.000
 5277.00   23.69730   6.09831    0.000
 5278.00   22.81588   6.13268    0.000
 5279.00   21.58488   6.24772    0.000
 5280.00   16.94411   6.46219    0.000
 5281.00   12.77556   6.66122    0.000
 5282.00   11.93233   6.71819    0.000
 5283.00   11.61493   6.62297    0.000
 5284.00   14.14866   6.45630    0.000
 5285.00   15.78708   6.30370    0.000
 5286.00   13.53491   6.23338    0.000
 5287.00   11.72010   6.30646    0.000
 5288.00   11.47025   6.52542    0.000
 5289.00   12.10350   6.78101    0.000
 5290.00   15.38902   6.93934    0.000
 5291.00   17.42542   6.98112    0.000
 5292.00   16.26808   6.98579    0.000
 5293.00   15.85166   7.00604    0.000
 5294.00   17.06520   7.01929    0.000
 5295.00   16.85626   6.99208    0.000
 5296.00   13.93311   6.93376    0.000
 5297.00   12.62831   6.85702    0.000
 5298.00   14.01805   6.72563    0.000
 5299.00   14.17767   6.50475    0.000
 5300.00   12.54199   6.26347    0.000
 5301.00   10.97422   6.14998    0.000
 5302.00    9.49363   6.22445    0.000
 5303.00    9.30837   6.38148    0.000
 5304.00   10.58785   6.50101    0.000
 5305.00   14.18768   6.59806    0.000
 5306.00   20.10163   6.74365    0.000
 5307.00   22.67271   6.92091    0.000
 5308.00   22.30350   7.04032    0.000
 5309.00   19.35134   7.05616    0.000
 5310.00   14.39751   7.02004    0.000
 5311.00   13.67307   7.01785    0.000
 5312.00   15.83037   7.07141    0.000
 5313.00   13.75218   7.12857    0.000
 5314.00    9.14476   7.14042    0.000
 5315.00   12.84388   7.10909    0.000
 5316.00   20.87042   7.06224    0.000
 5317.00   21.91985   7.01310    0.000
 5318.00   19.81756   6.95431    0.000
 5319.00   18.30573   6.89137    0.000
 5320.00   17.02330   6.86019    0.000
 5321.00   17.06818   6.87912    0.000
 5322.00   17.55183   6.91517    0.000
 5323.00   16.44645   6.92822    0.000
 5324.00   14.90046   6.90357    0.000
 5325.00   17.45325   6.83152    0.000
 5326.00   20.94089   6.71548    0.000
 5327.00   17.48879   6.59985    0.000
 5328.00   12.76992   6.51147    0.000
 5329.00   15.73005   6.37344    0.000
 5330.00   19.76717   6.11037    0.000
 5331.00   16.81403   5.85494    0.000
 5332.00   13.15569   5.85916    0.000
 5333.00   12.87099   6.16051    0.000
 5334.00   12.80269   6.52543    0.000
 5335.00   16.41418   6.75336    0.000
 5336.00   20.12085   6.86261    0.000
 5337.00   17.93930   6.95210    0.000
 5338.00   15.82108   7.03269    0.000
 5339.00   15.51280   7.05801    0.000
 5340.00   15.22697   7.01965    0.000
 5341.00   15.26315   6.92781    0.000
 5342.00   15.47398   6.77878    0.000
 5343.00   17.31955   6.62274    0.000
 5344.00   18.61695   6.57872    0.000
 5345.00   16.17605   6.69312    0.000
 5346.00   13.85416   6.86297    0.000
 5347.00   12.16061   6.95966    0.000
 5348.00   11.71661   6.95810    0.000
 5349.00   16.57878   6.91541    0.000
 5350.00   19.98923   6.87314    0.000
 5351.00   18.31104   6.83077    0.000
 5352.00   17.12984   6.81508    0.000
 5353.00   17.41353   6.88483    0.000
 5354.00   17.57335   7.03414    0.000
 5355.00   17.42197   7.18395    0.000
 5356.00   16.95855   7.29198    0.000
 5357.00   15.81981   7.38574    0.000
 5358.00   14.10051   7.48229    0.000
 5359.00   11.29060   7.55662    0.000
 5360.00   11.07787   7.59250    0.000
 5361.00   15.12488   7.59878    0.000
 5362.00   17.51335   7.57568    0.000
 5363.00   17.51639   7.50701    0.000
 5364.00   16.61196   7.39339    0.000
 5365.00   14.55953   7.27069    0.000
 5366.00   14.09240   7.17494    0.000
 5367.00   15.39266   7.10724    0.000
 5368.00   16.88467   7.05982   -2.000
 5369.00   18.56526   7.03713   -2.000
 5370.00   19.63735   7.02175   -2.000
 5371.00   20.18176   6.95837   -2.000
 5372.00   22.08380   6.80267   -2.000
 5373.00   25.02293   6.59777   -2.000
 5374.00   26.03576   6.48842   -2.000
 5375.00   25.75521   6.60103   -2.000
 5376.00   24.57368   6.89839   -2.000
 5377.00   22.86222   7.21115   -2.000
 5378.00   20.74148   7.40463   -2.000
 5379.00   18.41085   7.46459   -2.000
 5380.00   14.67470   7.45693   -2.000
 5381.00   10.31404   7.44238   -2.000
 5382.00   13.02875   7.42521   -2.000
 5383.00   18.44431   7.38265    0.000
 5384.00   19.67063   7.31769    0.000
 5385.00   19.53820   7.25799    0.000
 5386.00   19.62787   7.23464    0.000
 5387.00   19.77785   7.26810    0.000
 5388.00   20.68513   7.33998    0.000
 5389.00   21.76112   7.39644    0.000
 5390.00   17.59298   7.39781    0.000
 5391.00   12.49338   7.34073    0.000
 5392.00   11.33393   7.24507    0.000
 5393.00   10.70906   7.14595    0.000
 5394.00   12.71988   7.07500    0.000
 5395.00   14.98537   7.03748    0.000
 5396.00   14.14170   7.01765    0.000
 5397.00   13.11099   6.99057    0.000
 5398.00   15.54787   6.92148    0.000
 5399.00   18.05353   6.80625    0.000
 5400.00   16.97440   6.72865    0.000
 5401.00   15.88951   6.78866    0.000
 5402.00   14.65643   6.95837    0.000
 5403.00   13.72337   7.11689    0.000
 5404.00   16.85773   7.19697    0.000
 5405.00   19.51419   7.18290    0.000
 5406.00   17.87238   7.04529    0.000
 5407.00   16.44493   6.80264    0.000
 5408.00   16.43422   6.58411    0.000
 5409.00   16.38715   6.53095    0.000
 5410.00   16.15304   6.64268    0.000
 5411.00   15.64087   6.77775    0.000
 5412.00   13.97454   6.83056    0.000
 5413.00   13.69854   6.85812    0.000
 5414.00   18.19787   6.97158    0.000
 5415.00   20.71753   7.16227    0.000
 5416.00   17.50963   7.32177    0.000
 5417.00   16.43042   7.39617    0.000
 5418.00   20.60824   7.43757    0.000
 5419.00   21.60687   7.50600    0.000
 5420.00   15.83665   7.58164    0.000
 5421.00   13.24198   7.60314    0.000
 5422.00   16.52047   7.55736    0.000
 5423.00   18.11614   7.49516    0.000
 5424.00   16.99280   7.46625    0.000
 5425.00   16.83897   7.45524    0.000
 5426.00   18.05937   7.41431    0.000
 5427.00   16.55194   7.36689    0.000
 5428.00   11.64267   7.39966    0.000
 5429.00    9.70617   7.51582    0.000
 5430.00   11.03724   7.58151    0.000
 5431.00   13.19794   7.47279    0.000
 5432.00   16.16299   7.24715    0.000
 5433.00   15.77195   7.09723    0.000
 5434.00   12.51168   7.10392    0.000
 5435.00   12.16865   7.14863    0.000
 5436.00   14.02220   7.11463    0.000
 5437.00   13.90565   7.03629    0.000
 5438.00   12.48566   7.02098    0.000
 5439.00   13.42642   7.12778    0.000
 5440.00   15.73481   7.33749    0.000
 5441.00   17.15879   7.58271    0.000
 5442.00   18.13632   7.79024    0.000
 5443.00   18.36376   7.91963    0.000
 5444.00   18.26343   7.97506    0.000
 5445.00   18.38115   7.97537    0.000
 5446.00   18.58065   7.91034    0.000
 5447.00   17.32857   7.74027    0.000
 5448.00   15.61462   7.46169    0.000
 5449.00   14.80345   7.17603    0.000
 5450.00   14.23227   7.05070    0.000
 5451.00   14.02922   7.16054    0.000
 5452.00   13.90626   7.39939    0.000
 5453.00   14.79428   7.59785    0.000
 5454.00   15.85695   7.67583    0.000
 5455.00   16.67692   7.64048    0.000
 5456.00   17.46507   7.50835    0.000
 5457.00   16.13212   7.30414    0.000
 5458.00   14.60322   7.12363    0.000
 5459.00   16.00423   7.10760    0.000
 5460.00   17.56991   7.29085    0.000
 5461.00   18.74409   7.53956    0.000
 5462.00   19.87645   7.69010    0.000
 5463.00   17.56330   7.68913    0.000
 5464.00   15.24648   7.58275    0.000
 5465.00   12.84351   7.44856    0.000
 5466.00   10.74434   7.36904    0.000
 5467.00   12.54726   7.39619    0.000
 5468.00   13.97086   7.49825    0.000
 5469.00   12.11195   7.59804    0.000
 5470.00   11.05619   7.66231    0.000
 5471.00   15.14870   7.69452    0.000
 5472.00   18.52616   7.68748    0.000
 5473.00   18.31920   7.64451    0.000
 5474.00   18.12246   7.59317    0.000
 5475.00   17.96719   7.54268    0.000
 5476.00   17.37641   7.47837    0.000
 5477.00   15.31961   7.38989    0.000
 5478.00   14.26554   7.26655   -2.000
 5479.00   16.05955   7.13185   -2.000
 5480.00   15.89631   7.08895   -2.000
 5481.00   10.98171   7.20695   -2.000
 5482.00   10.21934   7.38329   -2.000
 5483.00   18.15547   7.45688   -2.000
 5484.00   25.77975   7.41921   -2.000
 5485.00   32.83614   7.40201   -2.000
 5486.00   44.19064   7.49517   -2.000
 5487.00   62.38684   7.65871   -2.000
 5488.00   73.26868   7.78322   -2.000
 5489.00   73.93261   7.79268   -2.000
 5490.00   71.08962   7.71407   -2.000
 5491.00   63.93529   7.64893   -2.000
 5492.00   47.11137   7.65893   -2.000
 5493.00   19.80851   7.71772   -2.000
 5494.00    6.40723   7.77446   -2.000
 5495.00    6.29440   7.80097   -2.000
 5496.00    9.16672   7.79638   -2.000
 5497.00   14.55509   7.78594   -2.000
 5498.00   15.24185   7.78075   -2.000
 5499.00   12.43920   7.75730   -2.000
 5500.00   10.34233   7.72452   -2.000
 5501.00    8.70557   7.73981   -2.000
 5502.00    9.25766   7.79998    0.000
 5503.00   11.05861   7.81544    0.000
 5504.00   11.37903   7.74774    0.000
 5505.00   10.96388   7.67102    0.000
 5506.00   13.59147   7.65437    0.000
 5507.00   17.52657   7.66755    0.000
 5508.00   17.46402   7.64400    0.000
 5509.00   15.92887   7.59263    0.000
 5510.00   12.94053   7.59289    0.000
 5511.00    9.49871   7.67218    0.000
 5512.00   13.05337   7.75464    0.000
 5513.00   18.42856   7.75573    0.000
 5514.00   16.91327   7.66488    0.000
 5515.00   13.93514   7.53967    0.000
 5516.00   14.98934   7.46203    0.000
 5517.00   16.72056   7.48027    0.000
 5518.00   16.09424   7.58072    0.000
 5519.00   15.16939   7.72172    0.000
 5520.00   15.13842   7.87503    0.000
 5521.00   15.18629   8.01992    0.000
 5522.00   13.65645   8.12325    0.000
 5523.00   12.04413   8.16197    0.000
 5524.00   10.34044   8.15355    0.000
 5525.00    8.68327   8.13488    0.000
 5526.00   10.67560   8.11876    0.000
 5527.00   12.55311   8.08361    0.000
 5528.00   11.95982   7.99805    0.000
 5529.00   11.57290   7.85310    0.000
 5530.00   13.70354   7.68744    0.000
 5531.00   15.76841   7.59056    0.000
 5532.00   17.28517   7.63975    0.000
 5533.00   18.54696   7.80538    0.000
 5534.00   18.22259   7.96600    0.000
 5535.00   17.29620   8.03407    0.000
 5536.00   13.42730   8.01543    0.000
 5537.00   10.91609   7.96247    0.000
 5538.00   13.79502   7.92799    0.000
 5539.00   16.68913   7.94239    0.000
 5540.00   19.63330   7.99580    0.000
 5541.00   21.02523   8.06349    0.000
 5542.00   18.08805   8.14210    0.000
 5543.00   15.86265   8.22434    0.000
 5544.00   15.33598   8.27004    0.000
 5545.00   14.99924   8.24550    0.000
 5546.00   15.05406   8.17439    0.000
 5547.00   14.72526   8.11596    0.000
 5548.00   13.70855   8.10243    0.000
 5549.00   14.05875   8.13214    0.000
 5550.00   16.55264   8.20271    0.000
 5551.00   16.98301   8.30240    0.000
 5552.00   14.57223   8.39335    0.000
 5553.00   13.27894   8.44018    0.000
 5554.00   13.33999   8.43333    0.000
 5555.00   12.49787   8.37760    0.000
 5556.00   10.69071   8.29152    0.000
 5557.00   10.43060   8.21622    0.000
 5558.00   11.62853   8.18989    0.000
 5559.00   11.52241   8.20789    0.000
 5560.00   10.33272   8.23439    0.000
 5561.00   10.35081   8.25063    0.000
 5562.00   11.25239   8.25991    0.000
 5563.00   11.98975   8.25696    0.000
 5564.00   12.62162   8.22623    0.000
 5565.00   15.29504   8.16830    0.000
 5566.00   19.11558   8.10894    0.000
 5567.00   17.49120   8.07060    0.000
 5568.00   13.20449   8.04807    0.000
 5569.00   13.62272   8.03144    0.000
 5570.00   16.02893   8.02462    0.000
 5571.00   14.90481   8.02647    0.000
 5572.00   12.50347   8.03372    0.000
 5573.00   13.63853   8.05405    0.000
 5574.00   15.85574   8.07476    0.000
 5575.00   14.14316   8.06942    0.000
 5576.00   11.42998   8.06432    0.000
 5577.00   12.05687   8.10861    0.000
 5578.00   13.37557   8.18455    0.000
 5579.00   15.01416   8.24409    0.000
 5580.00   16.70492   8.28407    0.000
 5581.00   17.35601   8.32031    0.000
 5582.00   17.88008   8.35119    0.000
 5583.00   16.23189   8.36489    0.000
 5584.00   14.40120   8.35172    0.000
 5585.00   11.90527   8.32074    0.000
 5586.00    9.37715   8.28771    0.000
 5587.00   11.66429   8.23158    0.000
 5588.00   13.99770   8.10455    0.000
 5589.00   14.78927   7.89925    0.000
 5590.00   15.59111   7.68182    0.000
 5591.00   16.59720   7.54874    0.000
 5592.00   17.67977   7.55451    0.000
 5593.00   19.65044   7.67690    0.000
 5594.00   21.07206   7.83555    0.000
 5595.00   18.08095   7.94868    0.000
 5596.00   15.56306   7.99657    0.000
 5597.00   15.90413   8.03486    0.000
 5598.00   16.08954   8.12333    0.000
 5599.00   15.53289   8.23034    0.000
 5600.00   14.65071   8.25453    0.000
 5601.00   12.50412   8.16490    0.000
 5602.00   11.15170   8.03949    0.000
 5603.00   12.36879   7.94471    0.000
 5604.00   13.35183   7.87886    0.000
 5605.00   13.69381   7.85223    0.000
 5606.00   13.20275   7.92271    0.000
 5607.00   10.75695   8.11742    0.000
 5608.00    9.77641   8.37229    0.000
 5609.00   11.76840   8.58456    0.000
 5610.00   12.71263   8.70079    0.000
 5611.00   11.80662   8.73472    0.000
 5612.00   12.26075   8.73061    0.000
 5613.00   14.81654   8.72840    0.000
 5614.00   15.03442   8.73988    0.000
 5615.00   12.07968   8.72843    0.000
 5616.00   10.28082   8.61841    0.000
 5617.00    9.86298   8.37369    0.000
 5618.00   10.48280   8.09227    0.000
 5619.00   12.19573   7.95417    0.000
 5620.00   14.43535   8.02345    0.000
 5621.00   17.16438   8.18371    0.000
 5622.00   18.17324   8.30731    0.000
 5623.00   17.77299   8.38332    0.000
 5624.00   17.39935   8.44471    0.000
 5625.00   17.04489   8.46498    0.000
 5626.00   16.25707   8.38984    0.000
 5627.00   15.19499   8.24597    0.000
 5628.00   15.66349   8.15167    0.000
 5629.00   16.97888   8.18937    0.000
 5630.00   16.34891   8.32294    0.000
 5631.00   14.78289   8.47273    0.000
 5632.00   13.49336   8.60116    0.000
 5633.00   12.31869   8.69844    0.000
 5634.00   11.40374   8.75192    0.000
 5635.00   10.58107   8.75516    0.000
 5636.00   10.44018   8.71649    0.000
 5637.00   10.50382   8.65094    0.000
 5638.00   11.35182   8.57054    0.000
 5639.00   12.39520   8.48669    0.000
 5640.00   12.48702   8.42139    0.000
 5641.00   12.38661   8.39856    0.000
 5642.00   11.52472   8.40979    0.000
 5643.00   10.54225   8.41577    0.000
 5644.00   10.03752   8.40324    0.000
 5645.00    9.58904   8.40494    0.000
 5646.00   13.44402   8.44378    0.000
 5647.00   17.64277   8.50310    0.000
 5648.00   15.82758   8.56162    0.000
 5649.00   13.74473   8.61393    0.000
 5650.00   13.13023   8.65453    0.000
 5651.00   12.53199   8.67203    0.000
 5652.00   11.91140   8.66989    0.000
 5653.00   11.41117   8.67752    0.000
 5654.00   13.12911   8.71793    0.000
 5655.00   14.61331   8.76768    0.000
 5656.00   13.50929   8.77403    0.000
 5657.00   12.52349   8.71814    0.000
 5658.00   12.45477   8.63223    0.000
 5659.00   12.62198   8.53129    0.000
 5660.00   14.17423   8.38411    0.000
 5661.00   15.34104   8.21426    0.000
 5662.00   14.71462   8.13941    0.000
 5663.00   13.96346   8.21001    0.000
 5664.00   12.73807   8.32270    0.000
 5665.00   12.16761   8.38272    0.000
 5666.00   13.67529   8.42929    0.000
 5667.00   14.70098   8.52602    0.000
 5668.00   14.43004   8.63935    0.000
 5669.00   13.53958   8.69017    0.000
 5670.00   11.21964   8.66287    0.000
 5671.00   10.25605   8.61543    0.000
 5672.00   12.00056   8.60692    0.000
 5673.00   13.37699   8.65203    0.000
 5674.00   14.11327   8.73984    0.000
 5675.00   13.70028   8.85415    0.000
 5676.00   11.53753   8.96208    0.000
 5677.00   10.99820   9.02364    0.000
 5678.00   12.63029   9.03679    0.000
 5679.00   13.42672   9.03845    0.000
 5680.00   13.23882   9.04551    0.000
 5681.00   12.57890   9.03723    0.000
 5682.00   11.42873   9.00194    0.000
 5683.00   11.47531   8.94773    0.000
 5684.00   12.61833   8.87094    0.000
 5685.00   13.30260   8.77367    0.000
 5686.00   13.61641   8.70008    0.000
 5687.00   12.97168   8.69184    0.000
 5688.00   11.64581   8.72009    0.000
 5689.00   11.03989   8.71796    0.000
 5690.00   10.88284   8.67250    0.000
 5691.00   10.13988   8.64334    0.000
 5692.00    9.07771   8.68958    0.000
 5693.00   10.42052   8.80804    0.000
 5694.00   12.90196   8.94877    0.000
 5695.00   15.07637   9.06292    0.000
 5696.00   17.12539   9.12396    0.000
 5697.00   17.93238   9.13266    0.000
 5698.00   18.30615   9.11392    0.000
 5699.00   18.71744   9.08490    0.000
 5700.00   19.13976   9.03400    0.000
 5701.00   16.86429   8.95268    0.000
 5702.00   13.93166   8.86060    0.000
 5703.00   14.04559   8.77611    0.000
 5704.00   14.75943   8.70715    0.000
 5705.00   14.81544   8.67985    0.000
 5706.00   14.77041   8.71552    0.000
 5707.00   16.62613   8.77600    0.000
 5708.00   18.69728   8.78554    0.000
 5709.00   18.24824   8.70919    0.000
 5710.00   17.60823   8.57661    0.000
 5711.00   16.04313   8.43951    0.000
 5712.00   14.44041   8.34347    0.000
 5713.00   15.03373   8.31932    0.000
 5714.00   15.61175   8.37228    0.000
 5715.00   14.85309   8.49714    0.000
 5716.00   14.06240   8.68282    0.000
 5717.00   12.72138   8.88340    0.000
 5718.00   11.56883   9.03884    0.000
 5719.00   12.41008   9.12875    0.000
 5720.00   12.98622   9.17212    0.000
 5721.00   11.57547   9.20078    0.000
 5722.00   10.57384   9.24190    0.000
 5723.00   11.90730   9.30225    0.000
 5724.00   13.32377   9.37109    0.000
 5725.00   15.11728   9.43391    0.000
 5726.00   15.95005   9.47263    0.000
 5727.00   13.20765   9.46849    0.000
 5728.00   11.06631   9.41251    0.000
 5729.00   10.79576   9.31722    0.000
 5730.00   11.09102   9.22936    0.000
 5731.00   12.88150   9.20501    0.000
 5732.00   14.41331   9.24018    0.000
 5733.00   15.35820   9.26670    0.000
 5734.00   15.76343   9.25049    0.000
 5735.00   15.10816   9.24154    0.000
 5736.00   14.91713   9.29255    0.000
 5737.00   15.52131   9.38090    0.000
 5738.00   15.44239   9.44469    0.000
 5739.00   14.33867   9.45576    0.000
 5740.00   13.24469   9.43327    0.000
 5741.00   12.16354   9.40960    0.000
 5742.00   12.37428   9.39942    0.000
 5743.00   14.08526   9.39712    0.000
 5744.00   15.50921   9.39203    0.000
 5745.00   16.63924   9.38410    0.000
 5746.00   17.15361   9.39148    0.000
 5747.00   17.11188   9.43346    0.000
 5748.00   16.78229   9.49323    0.000
 5749.00   16.22353   9.51495    0.000
 5750.00   16.38675   9.46571    0.000
 5751.00   17.05558   9.39246    0.000
 5752.00   17.94401   9.37550    0.000
 5753.00   18.96734   9.41869    0.000
 5754.00   19.94992   9.43303    0.000
 5755.00   20.91063   9.34699    0.000
 5756.00   19.18095   9.20054    0.000
 5757.00   16.19803   9.11360    0.000
 5758.00   15.23507   9.17040    0.000
 5759.00   15.08291   9.34068    0.000
 5760.00   15.55293   9.51614    0.000
 5761.00   16.23598   9.60437    0.000
 5762.00   16.40571   9.57659    0.000
 5763.00   16.42751   9.45645    0.000
 5764.00   16.75070   9.29908    0.000
 5765.00   17.14567   9.17886    0.000
 5766.00   17.38739   9.16844    0.000
 5767.00   17.59971   9.28736    0.000
 5768.00   17.34305   9.46912    0.000
 5769.00   17.01654   9.61801    0.000
 5770.00   15.40871   9.69228    0.000
 5771.00   13.66125   9.70773    0.000
 5772.00   14.14373   9.69177    0.000
 5773.00   14.78611   9.66064    0.000
 5774.00   14.77624   9.62171    0.000
 5775.00   14.74233   9.58144    0.000
 5776.00   15.02574   9.54856    0.000
 5777.00   15.33896   9.53038    0.000
 5778.00   16.67159   9.53427    0.000
 5779.00   17.94668   9.56293    0.000
 5780.00   18.29622   9.59411    0.000
 5781.00   18.45992   9.57999    0.000
 5782.00   16.74209   9.47852    0.000
 5783.00   14.98454   9.29197    0.000
 5784.00   12.93911   9.08719    0.000
 5785.00   11.29393   8.95432    0.000
 5786.00   11.87109   8.92044    0.000
 5787.00   12.50616   8.93785    0.000
 5788.00   13.39803   8.97597    0.000
 5789.00   14.05589   9.06411    0.000
 5790.00   13.86104   9.21652    0.000
 5791.00   13.95383   9.37889   -2.000
 5792.00   14.92493   9.47971   -2.000
 5793.00   15.34031   9.49830   -2.000
 5794.00   14.31286   9.48076   -2.000
 5795.00   13.63550   9.49760   -2.000
 5796.00   13.73948   9.57595   -2.000
 5797.00   13.91573   9.68089   -2.000
 5798.00   14.23176   9.75300   -2.000
 5799.00   14.60817   9.74929   -2.000
 5800.00   15.08643   9.68335   -2.000
 5801.00   14.92754   9.63723   -2.000
 5802.00   13.82676   9.68927   -2.000
 5803.00   13.33325   9.82598   -2.000
 5804.00   13.62893   9.96042   -2.000
 5805.00   14.47077  10.01779   -2.000
 5806.00   15.93791   9.97692   -2.000
 5807.00   15.84391   9.86992   -2.000
 5808.00   14.17362   9.76531   -2.000
 5809.00   12.79561   9.72024   -2.000
 5810.00   11.67790   9.73889   -2.000
 5811.00   11.61594   9.78807    0.000
 5812.00   12.38248   9.84046    0.000
 5813.00   13.37626   9.88851    0.000
 5814.00   14.52685   9.92695    0.000
 5815.00   15.00130   9.94332    0.000
 5816.00   15.06665   9.92500    0.000
 5817.00   14.88656   9.86609    0.000
 5818.00   14.57685   9.78134    0.000
 5819.00   14.94346   9.72002    0.000
 5820.00   15.62001   9.73825    0.000
 5821.00   15.97746   9.84005    0.000
 5822.00   16.20903   9.96724    0.000
 5823.00   16.34630  10.05815    0.000
 5824.00   16.45188  10.09363    0.000
 5825.00   15.97029  10.08864    0.000
 5826.00   15.32292  10.07009    0.000
 5827.00   14.51810  10.06291    0.000
 5828.00   13.67663  10.07503    0.000
 5829.00   13.86762  10.09492    0.000
 5830.00   14.25156  10.11178    0.000
 5831.00   14.96152  10.12863    0.000
 5832.00   15.71852  10.14952    0.000
 5833.00   16.81174  10.16652    0.000
 5834.00   17.94014  10.16908    0.000
 5835.00   17.16330  10.15628    0.000
 5836.00   16.25756  10.13105    0.000
 5837.00   16.19493  10.09855    0.000
 5838.00   16.16018  10.07564    0.000
 5839.00   15.10191  10.07611    0.000
 5840.00   14.06108  10.08643    0.000
 5841.00   13.59166  10.08952    0.000
 5842.00   13.21513  10.10167    0.000
 5843.00   14.24233  10.14827    0.000
 5844.00   15.23886  10.21842    0.000
 5845.00   15.93779  10.27459    0.000
 5846.00   16.53544  10.29161    0.000
 5847.00   16.42278  10.26669    0.000
 5848.00   16.07331  10.20725    0.000
 5849.00   14.44405  10.12629    0.000
 5850.00   13.42030  10.04790    0.000
 5851.00   15.02013  10.00102    0.000
 5852.00   15.94776   9.99302    0.000
 5853.00   14.47638   9.99329    0.000
 5854.00   13.25562   9.95554    0.000
 5855.00   12.78583   9.86326    0.000
 5856.00   12.26444   9.75568    0.000
 5857.00   11.61141   9.69142    0.000
 5858.00   11.22153   9.67132    0.000
 5859.00   11.40934   9.63062    0.000
 5860.00   12.06394   9.54173    0.000
 5861.00   13.60741   9.47593    0.000
 5862.00   15.32919   9.51502    0.000
 5863.00   17.34731   9.64296    0.000
 5864.00   18.07051   9.77165    0.000
 5865.00   16.90729   9.84421    0.000
 5866.00   15.88597   9.87623    0.000
 5867.00   15.04642   9.90215    0.000
 5868.00   14.98833   9.91700    0.000
 5869.00   15.81234   9.90376    0.000
 5870.00   15.65276   9.89208    0.000
 5871.00   14.51399   9.93415    0.000
 5872.00   13.77845  10.03073    0.000
 5873.00   13.39695  10.12701    0.000
 5874.00   13.91958  10.17376    0.000
 5875.00   15.14160  10.16660    0.000
 5876.00   16.29167  10.13655    0.000
 5877.00   17.39279  10.11564    0.000
 5878.00   16.85553  10.10697    0.000
 5879.00   15.34177  10.09059    0.000
 5880.00   15.01761  10.05333    0.000
 5881.00   15.31197   9.99707    0.000
 5882.00   14.40877   9.92981    0.000
 5883.00   12.96571   9.87102    0.000
 5884.00   13.01106   9.84691    0.000
 5885.00   13.63340   9.85635    0.000
 5886.00   14.09853   9.86505    0.000
 5887.00   14.51182   9.85276    0.000
 5888.00   13.41935   9.82523    0.000
 5889.00   11.91046   9.75037    0.000
 5890.00   11.45680   9.51838    0.000
 5891.00   11.24311   9.02402    0.000
 5892.00   11.76307   8.33927    0.000
 5893.00   12.41649   7.77978    0.000
 5894.00   12.98792   7.66862    0.000
 5895.00   13.54791   7.98868    0.000
 5896.00   14.09216   8.38410    0.000
 5897.00   14.63483   8.51194    0.000
 5898.00   14.30940   8.32907    0.000
 5899.00   13.92872   8.10334    0.000
 5900.00   13.34464   8.15471    0.000
 5901.00   12.76135   8.53177    0.000
 5902.00   14.51012   9.01311    0.000
 5903.00   16.21565   9.40054    0.000
 5904.00   16.70142   9.66047    0.000
 5905.00   17.05419   9.82763    0.000
 5906.00   15.51258   9.92454    0.000
 5907.00   14.01737   9.96579    0.000
 5908.00   12.95428   9.97110    0.000
 5909.00   12.05795   9.97025    0.000
 5910.00   12.29436   9.99247    0.000
 5911.00   12.69413  10.03951    0.000
 5912.00   13.95353  10.08767    0.000
 5913.00   14.95311  10.12238    0.000
 5914.00   14.85250  10.14122    0.000
 5915.00   14.94830  10.12348    0.000
 5916.00   15.73080  10.04195    0.000
 5917.00   15.82585   9.91834    0.000
 5918.00   13.89936   9.82583    0.000
 5919.00   12.06453   9.81992    0.000
 5920.00   10.45949   9.89273    0.000
 5921.00    9.51210   9.99677    0.000
 5922.00    9.98502  10.08878    0.000
 5923.00   10.77994  10.14650    0.000
 5924.00   12.17854  10.16452    0.000
 5925.00   12.99504  10.15718    0.000
 5926.00   12.85860  10.15716    0.000
 5927.00   12.98536  10.18632    0.000
 5928.00   13.48997  10.23285    0.000
 5929.00   13.58974  10.26511    0.000
 5930.00   13.17828  10.25573    0.000
 5931.00   12.51922  10.19796    0.000
 5932.00   11.58463  10.11843    0.000
 5933.00   11.06651  10.07244    0.000
 5934.00   10.95719  10.10147    0.000
 5935.00   11.08105  10.17949    0.000
 5936.00   11.40678  10.22814    0.000
 5937.00   11.84897  10.20959    0.000
 5938.00   12.37998  10.17498    0.000
 5939.00   11.60828  10.19409    0.000
 5940.00    9.96351  10.26960    0.000
 5941.00    9.12435  10.34805    0.000
 5942.00    8.75814  10.37951    0.000
 5943.00    8.56364  10.34589    0.000
 5944.00    8.45702  10.27151    0.000
 5945.00    8.55238  10.21728    0.000
 5946.00    8.73730  10.23050    0.000
 5947.00    9.91689  10.30268    0.000
 5948.00   11.47534  10.38776    0.000
 5949.00   11.54701  10.43543    0.000
 5950.00   11.13762  10.41053    0.000
 5951.00   10.22552  10.32221    0.000
 5952.00    9.17728  10.23549    0.000
 5953.00    9.83960  10.21247    0.000
 5954.00   10.88187  10.23791    0.000
 5955.00   11.53456  10.24823    0.000
 5956.00   12.11829  10.23167    0.000
 5957.00   10.66158  10.23201    0.000
 5958.00    8.92919  10.25541    0.000
 5959.00    8.14002  10.25872    0.000
 5960.00    7.44148  10.23726    0.000
 5961.00    8.96965  10.24412    0.000
 5962.00   10.63068  10.31518    0.000
 5963.00   12.46178  10.42925    0.000
 5964.00   14.27479  10.53969    0.000
 5965.00   12.61251  10.61210    0.000
 5966.00   11.05979  10.63518    0.000
 5967.00   12.29718  10.61433    0.000
 5968.00   13.56177  10.56818    0.000
 5969.00   15.19244  10.53127    0.000
 5970.00   16.43653  10.53888    0.000
 5971.00   14.22063  10.59277    0.000
 5972.00   12.30522  10.66157    0.000
 5973.00   12.36812  10.71911    0.000
 5974.00   12.54661  10.75637    0.000
 5975.00   13.31762  10.76863    0.000
 5976.00   13.69786  10.74988    0.000
 5977.00   12.46063  10.69175    0.000
 5978.00   11.52550  10.59126    0.000
 5979.00   11.62538  10.47145    0.000
 5980.00   11.78242  10.38246    0.000
 5981.00   12.10444  10.36660    0.000
 5982.00   12.40157  10.42716    0.000
 5983.00   12.63735  10.52547    0.000
 5984.00   12.68148  10.59648    0.000
 5985.00   12.31838  10.58221    0.000
 5986.00   12.09060  10.47695    0.000
 5987.00   12.11262  10.34542    0.000
 5988.00   12.26437  10.28205    0.000
 5989.00   12.62534  10.32562    0.000
 5990.00   13.21987  10.42812    0.000
 5991.00   14.14488  10.52628    0.000
 5992.00   15.07034  10.59742    0.000
 5993.00   15.99638  10.63743    0.000
 5994.00   16.38031  10.65068    0.000
 5995.00   16.16943  10.66845    0.000
 5996.00   14.87963  10.72350    0.000
 5997.00   12.54569  10.79652    0.000
 5998.00   11.62588  10.82800    0.000
 5999.00   11.91290  10.78564    0.000
 6000.00   13.05533  10.69690    0.000
 6001.00   14.84068  10.62300    0.000
 6002.00   13.84757  10.60705    0.000
 6003.00   11.01958  10.63688    0.000
 6004.00    9.65647  10.66093    0.000
 6005.00    9.14037  10.64504    0.000
 6006.00    9.57520  10.61058    0.000
 6007.00   10.48910  10.60095    0.000
 6008.00   10.49414  10.60812    0.000
 6009.00   10.10286  10.57568    0.000
 6010.00   10.13174  10.48509    0.000
 6011.00   10.31784  10.40103    0.000
 6012.00   11.06766  10.41393    0.000
 6013.00   11.99641  10.53227    0.000
 6014.00   11.81230  10.65528    0.000
 6015.00   11.33314  10.68755    0.000
 6016.00   12.43684  10.64262    0.000
 6017.00   13.88379  10.60118    0.000
 6018.00   14.78246  10.59901    0.000
 6019.00   15.58677  10.60618    0.000
 6020.00   14.61236  10.60187    0.000
 6021.00   13.40571  10.59571    0.000
 6022.00   11.88690  10.58060    0.000
 6023.00   10.33941  10.54372    0.000
 6024.00   10.04841  10.51146    0.000
 6025.00    9.82741  10.52068    0.000
 6026.00   10.08466  10.57071    0.000
 6027.00   10.34121  10.64017    0.000
 6028.00    9.48677  10.71858    0.000
 6029.00    8.67088  10.79502    0.000
 6030.00    8.74973  10.85735    0.000
 6031.00    8.87939  10.91591    0.000
 6032.00    9.65739  10.98129    0.000
 6033.00   10.43382  11.03769    0.000
 6034.00   11.19668  11.07318    0.000
 6035.00   11.90522  11.10162    0.000
 6036.00   12.26690  11.13479    0.000
 6037.00   12.73464  11.16440    0.000
 6038.00   13.73235  11.18117    0.000
 6039.00   14.81968  11.18790    0.000
 6040.00   16.26975  11.18837    0.000
 6041.00   17.31171  11.17806    0.000
 6042.00   16.98330  11.15228    0.000
 6043.00   16.12293  11.12014    0.000
 6044.00   13.75510  11.10129    0.000
 6045.00   11.99332  11.11114    0.000
 6046.00   11.69963  11.15454    0.000
 6047.00   12.22445  11.21969    0.000
 6048.00   14.46052  11.28174    0.000
 6049.00   15.99205  11.32370    0.000
 6050.00   16.24305  11.34459    0.000
 6051.00   15.78117  11.35015    0.000
 6052.00   14.18663  11.35014    0.000
 6053.00   13.19097  11.35471    0.000
 6054.00   13.03042  11.35709    0.000
 6055.00   14.20946  11.33650    0.000
 6056.00   17.03241  11.28584    0.000
 6057.00   17.98887  11.21985    0.000
 6058.00   16.92619  11.15566    0.000
 6059.00   15.01160  11.10725    0.000
 6060.00   12.28411  11.09498    0.000
 6061.00   10.21257  11.13241    0.000
 6062.00    8.69292  11.20549    0.000
 6063.00    8.19071  11.27589    0.000
 6064.00    8.44226  11.30400    0.000
 6065.00   10.02546  11.26823    0.000
 6066.00   12.47517  11.17011    0.000
 6067.00   12.73887  11.03399    0.000
 6068.00   11.75771  10.91910    0.000
 6069.00   11.17788  10.91339    0.000
 6070.00   10.79705  11.05160    0.000
 6071.00   10.86594  11.25937    0.000
 6072.00   11.12769  11.43060    0.000
 6073.00   11.49685  11.52450    0.000
 6074.00   11.90550  11.56555    0.000
 6075.00   12.71841  11.58720    0.000
 6076.00   13.65717  11.60084    0.000
 6077.00   13.13424  11.60222    0.000
 6078.00   12.23200  11.58137    0.000
 6079.00   12.62987  11.52555    0.000
 6080.00   13.30290  11.42931    0.000
 6081.00   13.81301  11.31156    0.000
 6082.00   14.29586  11.21687    0.000
 6083.00   13.71497  11.17103    0.000
 6084.00   12.99997  11.14828    0.000
 6085.00   12.85053  11.12232    0.000
 6086.00   12.75067  11.10854    0.000
 6087.00   12.37520  11.12231    0.000
 6088.00   11.98545  11.15054    0.000
 6089.00   11.64655  11.18614    0.000
 6090.00   11.31758  11.23326    0.000
 6091.00   11.64855  11.27086    0.000
 6092.00   12.01185  11.25840    0.000
 6093.00   13.06409  11.19528    0.000
 6094.00   14.00581  11.13586    0.000
 6095.00   13.60772  11.12805    0.000
 6096.00   13.12825  11.17646    0.000
 6097.00   11.97372  11.26556    0.000
 6098.00   10.82776  11.36686    0.000
 6099.00    9.73500  11.43779    0.000
 6100.00    9.22651  11.46216    0.000
 6101.00   11.56485  11.46850    0.000
 6102.00   13.63309  11.47610    0.000
 6103.00   14.63190  11.44138    0.000
 6104.00   15.22655  11.28875    0.000
 6105.00   14.49083  11.02618    0.000
 6106.00   13.64394  10.81339    0.000
 6107.00   12.48774  10.82048    0.000
 6108.00   11.65651  11.02494    0.000
 6109.00   11.59919  11.25223    0.000
 6110.00   11.90696  11.37764    0.000
 6111.00   12.96583  11.41605    0.000
 6112.00   13.66151  11.44089    0.000
 6113.00   13.70714  11.47391    0.000
 6114.00   13.53402  11.49261    0.000
 6115.00   13.01847  11.50497    0.000
 6116.00   12.53121  11.54296    0.000
 6117.00   12.08283  11.59883    0.000
 6118.00   11.62714  11.62627    0.000
 6119.00   11.16260  11.60557    0.000
 6120.00   11.36018  11.56804    0.000
 6121.00   12.26394  11.53300    0.000
 6122.00   13.32465  11.46198    0.000
 6123.00   14.53302  11.31121    0.000
 6124.00   14.54441  11.10279    0.000
 6125.00   13.56297  10.93853    0.000
 6126.00   13.10908  10.93395    0.000
 6127.00   13.04040  11.09123    0.000
 6128.00   13.29529  11.28090    0.000
 6129.00   13.75763  11.38456    0.000
 6130.00   13.48661  11.39512    0.000
 6131.00   12.80432  11.37937    0.000
 6132.00   12.11292  11.40223    0.000
 6133.00   11.41707  11.48248    0.000
 6134.00   12.03923  11.58645    0.000
 6135.00   13.21712  11.65995    0.000
 6136.00   13.84578  11.65785    0.000
 6137.00   14.27620  11.53799    0.000
 6138.00   13.72928  11.26970    0.000
 6139.00   12.88404  10.89706    0.000
 6140.00   11.34176  10.58976    0.000
 6141.00    9.62247  10.54676    0.000
 6142.00    9.43711  10.78416    0.000
 6143.00    9.56848  11.09200    0.000
 6144.00   11.37256  11.26535    0.000
 6145.00   13.44846  11.31532    0.000
 6146.00   12.87611  11.38556    0.000
 6147.00   11.98171  11.53418    0.000
 6148.00   11.10978  11.68899    0.000
 6149.00   10.23972  11.76455    0.000
 6150.00   10.53433  11.73997    0.000
 6151.00   10.88471  11.64502    0.000
 6152.00   10.14857  11.53119    0.000
 6153.00    9.40939  11.45387    0.000
 6154.00    9.40762  11.44943    0.000
 6155.00    9.51510  11.50794    0.000
 6156.00   11.77148  11.57175    0.000
 6157.00   13.94074  11.58376    0.000
 6158.00   15.10457  11.54744    0.000
 6159.00   16.08393  11.50984    0.000
 6160.00   15.58736  11.48919    0.000
 6161.00   14.96974  11.45202    0.000
 6162.00   13.62341  11.33633    0.000
 6163.00   12.65451  11.08193    0.000
 6164.00   13.47951  10.69843    0.000
 6165.00   14.04305  10.32535    0.000
 6166.00   13.59378  10.15277    0.000
 6167.00   13.17838  10.24935    0.000
 6168.00   12.87232  10.51056    0.000
 6169.00   12.60199  10.77347    0.000
 6170.00   12.42934  10.92787    0.000
 6171.00   12.17692  10.92771    0.000
 6172.00   11.73776  10.80710    0.000
 6173.00   11.29284  10.70292    0.000
 6174.00   10.83624  10.74786    0.000
 6175.00   10.54099  10.92481    0.000
 6176.00   10.53013  11.10736    0.000
 6177.00   10.69380  11.21612    0.000
 6178.00   11.12664  11.26087    0.000
 6179.00   11.04839  11.27995    0.000
 6180.00   10.27784  11.30650    0.000
 6181.00    9.88682  11.35831    0.000
 6182.00    9.94848  11.42175    0.000
 6183.00   10.81153  11.47493    0.000
 6184.00   12.51734  11.52260    0.000
 6185.00   13.11927  11.57545    0.000
 6186.00   12.69728  11.61953    0.000
 6187.00   12.39578  11.62907    0.000
 6188.00   12.19281  11.58735    0.000
 6189.00   12.40897  11.49517    0.000
 6190.00   12.92678  11.37722    0.000
 6191.00   13.08458  11.26561    0.000
 6192.00   13.01498  11.15961    0.000
 6193.00   14.05980  11.02573    0.000
 6194.00   15.72005  10.87786    0.000
 6195.00   21.06944  10.81964    0.000
 6196.00   28.19034  10.93305   -2.000
 6197.00   33.18733  11.16598   -2.000
 6198.00   37.30390  11.39453   -2.000
 6199.00   30.36387  11.54464   -2.000
 6200.00   19.50487  11.60363   -2.000
 6201.00    6.53246  11.57044   -2.000
 6202.00   -7.07242  11.46357   -2.000
 6203.00   -7.91051  11.35822   -2.000
 6204.00   -5.57741  11.34501   -2.000
 6205.00   -0.27338  11.43997   -2.000
 6206.00    5.62887  11.57393   -2.000
 6207.00    8.27586  11.67437   -2.000
 6208.00   10.40936  11.72726    0.000
 6209.00   11.79970  11.75776    0.000
 6210.00   13.10297  11.78309    0.000
 6211.00   13.99064  11.79871    0.000
 6212.00   14.84534  11.79078    0.000
 6213.00   13.93861  11.74786    0.000
 6214.00   12.95434  11.66195    0.000
 6215.00   11.87425  11.52190    0.000
 6216.00   10.80054  11.32866    0.000
 6217.00   10.08047  11.12620    0.000
 6218.00    9.41130  10.99056    0.000
 6219.00    9.67174  10.97292    0.000
 6220.00    9.95951  11.04961    0.000
 6221.00   10.54818  11.13299    0.000
 6222.00   11.20850  11.15364    0.000
 6223.00   12.42213  11.13029    0.000
 6224.00   13.69778  11.13462    0.000
 6225.00   15.33618  11.19885    0.000
 6226.00   16.61911  11.28696    0.000
 6227.00   16.25323  11.35373    0.000
 6228.00   15.37427  11.39460    0.000
 6229.00   12.55009  11.42432    0.000
 6230.00   10.08051  11.43517    0.000
 6231.00    8.73335  11.38762    0.000
 6232.00    7.91045  11.24343    0.000
 6233.00    8.49470  11.02858    0.000
 6234.00    8.85560  10.85247    0.000
 6235.00    8.70219  10.82779    0.000
 6236.00    8.62696  10.97876    0.000
 6237.00    8.70752  11.23416    0.000
 6238.00    8.91601  11.48128    0.000
 6239.00    9.34659  11.62488    0.000
 6240.00    9.87667  11.63000    0.000
 6241.00   10.55797  11.52787    0.000
 6242.00   10.59805  11.38403    0.000
 6243.00    9.78203  11.26254    0.000
 6244.00    9.59567  11.19101    0.000
 6245.00   10.14968  11.14410    0.000
 6246.00   11.37555  11.08896    0.000
 6247.00   13.29800  11.03441    0.000
 6248.00   13.57508  11.01516    0.000
 6249.00   12.34740  11.05880    0.000
 6250.00   10.03679  11.17688    0.000
 6251.00    6.85322  11.34957    0.000
 6252.00    5.11165  11.51232    0.000
 6253.00    4.39285  11.58303    0.000
 6254.00    5.59402  11.51564    0.000
 6255.00    7.99002  11.34049    0.000
 6256.00   10.92204  11.15101    0.000
 6257.00   14.14554  11.03076    0.000
 6258.00   17.12043  10.98409    0.000
 6259.00   19.97785  10.95093    0.000
 6260.00   19.88410  10.88964    0.000
 6261.00   18.58775  10.83468    0.000
 6262.00   15.19671  10.86292    0.000
 6263.00   11.07673  11.00589    0.000
 6264.00    9.50739  11.22246    0.000
 6265.00    8.68622  11.44594    0.000
 6266.00    8.46513  11.61725    0.000
 6267.00    8.38979  11.69421    0.000
 6268.00    9.14757  11.68540    0.000
 6269.00   10.06889  11.65758    0.000
 6270.00   11.90293  11.66559    0.000
 6271.00   13.87665  11.69591    0.000
 6272.00   14.70860  11.70877    0.000
 6273.00   15.41178  11.70541    0.000
 6274.00   14.74426  11.72241    0.000
 6275.00   13.97357  11.77674    0.000
 6276.00   12.67955  11.84401    0.000
 6277.00   11.36449  11.89109    0.000
 6278.00   10.33124  11.91029    0.000
 6279.00    9.31020  11.91304    0.000
 6280.00    8.70040  11.90277    0.000
 6281.00    8.17335  11.86445    0.000
 6282.00    9.05609  11.78421    0.000
 6283.00    9.89843  11.68293    0.000
 6284.00   10.31576  11.61672    0.000
 6285.00   10.63166  11.63118    0.000
 6286.00   10.19054  11.71845    0.000
 6287.00    9.79009  11.82764    0.000
 6288.00    9.62099  11.92121    0.000
 6289.00    9.35404  12.00462    0.000
 6290.00    8.64400  12.09816    0.000
 6291.00    8.19061  12.19418    0.000
 6292.00    8.68983  12.25239    0.000
 6293.00    9.12413  12.24011    0.000
 6294.00    9.35690  12.16878    0.000
 6295.00    9.43097  12.08638    0.000
 6296.00    9.08660  12.03755    0.000
 6297.00    8.93758  12.02369    0.000
 6298.00    9.23091  12.00065    0.000
 6299.00    9.64217  11.92972    0.000
 6300.00   10.28472  11.83136    0.000
 6301.00   10.84810  11.76638    0.000
 6302.00   11.27611  11.75656    0.000
 6303.00   11.25794  11.75558    0.000
 6304.00   10.57165  11.72065    0.000
 6305.00    9.97631  11.68230    0.000
 6306.00    9.50067  11.70731    0.000
 6307.00    9.76700  11.81090    0.000
 6308.00   10.89342  11.94909    0.000
 6309.00   11.60759  12.08464    0.000
 6310.00   11.90032  12.21089    0.000
 6311.00   11.63254  12.31358    0.000
 6312.00   10.85937  12.35675    0.000
 6313.00   10.23475  12.32295    0.000
 6314.00    9.72820  12.24338    0.000
 6315.00    9.41707  12.16866    0.000
 6316.00    9.24254  12.11308    0.000
 6317.00    9.26987  12.05129    0.000
 6318.00    9.42095  11.97292    0.000
 6319.00    9.70017  11.89710    0.000
 6320.00   10.04799  11.83502    0.000
 6321.00   10.23804  11.79094    0.000
 6322.00   10.35476  11.79225    0.000
 6323.00   10.46714  11.86512    0.000
 6324.00   10.57778  11.98589    0.000
 6325.00   10.84928  12.10448    0.000
 6326.00   11.17574  12.20525    0.000
 6327.00   11.20552  12.30196    0.000
 6328.00   11.15003  12.39276    0.000
 6329.00   10.81768  12.45471    0.000
 6330.00   10.41958  12.48037    0.000
 6331.00   10.80112  12.48710    0.000
 6332.00   11.33175  12.48868    0.000
 6333.00   12.00414  12.48992    0.000
 6334.00   12.69757  12.50302    0.000
 6335.00   11.59009  12.53542    0.000
 6336.00   10.28734  12.55130    0.000
 6337.00    9.30063  12.48151    0.000
 6338.00    8.33642  12.30838    0.000
 6339.00    9.76807  12.11775    0.000
 6340.00   11.28687  12.02814    0.000
 6341.00   11.01029  12.07985    0.000
 6342.00   10.72904  12.22202    0.000
 6343.00   10.52045  12.37893    0.000
 6344.00   10.31109  12.49154    0.000
 6345.00   10.08934  12.51767    0.000
 6346.00    9.78233  12.44998    0.000
 6347.00    8.61685  12.34312    0.000
 6348.00    7.58763  12.28050    0.000
 6349.00    7.54169  12.30372    0.000
 6350.00    7.50684  12.39304    0.000
 6351.00    7.53335  12.50602    0.000
 6352.00    7.49863  12.61109    0.000
 6353.00    7.19308  12.69031    0.000
 6354.00    7.07333  12.73187    0.000
 6355.00    7.62876  12.72515    0.000
 6356.00    8.19460  12.66047    0.000
 6357.00    8.79209  12.54720    0.000
 6358.00    8.67529  12.42872    0.000
 6359.00    6.70800  12.34565    0.000
 6360.00    4.59657  12.28584    0.000
 6361.00    2.16410  12.20762    0.000
 6362.00    0.45676  12.10660    0.000
 6363.00    0.14938  12.01799    0.000
 6364.00    1.52154  11.96342    0.000
 6365.00    5.72196  11.93888    0.000
 6366.00    8.78290  11.94949    0.000
 6367.00   10.16244  12.01477    0.000
 6368.00   10.34809  12.13659    0.000
 6369.00    8.98499  12.29071    0.000
 6370.00    8.69554  12.44783    0.000
 6371.00    9.63314  12.58169    0.000
 6372.00   10.95262  12.67006    0.000
 6373.00   12.65701  12.71329    0.000
 6374.00   13.02225  12.74533    0.000
 6375.00   12.19700  12.80320    0.000
 6376.00   11.12624  12.88479    0.000
 6377.00    9.86318  12.95452    0.000
 6378.00    9.01439  12.98588    0.000
 6379.00    8.45097  12.97827    0.000
 6380.00    8.18423  12.93711    0.000
 6381.00    8.09666  12.86538    0.000
 6382.00    8.04569  12.77909    0.000
 6383.00    8.01403  12.71176    0.000
 6384.00    7.95340  12.69361    0.000
 6385.00    7.87952  12.72454    0.000
 6386.00    8.42955  12.77311    0.000
 6387.00    9.22517  12.80841    0.000
 6388.00    9.35139  12.82999    0.000
 6389.00    9.25318  12.85755    0.000
 6390.00    8.91843  12.89758    0.000
 6391.00    8.51706  12.93478    0.000
 6392.00    8.02303  12.95218    0.000
 6393.00    7.50749  12.93853    0.000
 6394.00    7.63203  12.87200    0.000
 6395.00    7.87579  12.73289    0.000
 6396.00    8.56639  12.56077    0.000
 6397.00    9.32120  12.46343    0.000
 6398.00    9.54516  12.52457    0.000
 6399.00    9.71385  12.71068    0.000
 6400.00   10.18690  12.88586    0.000
 6401.00   10.68039  12.91452    0.000
 6402.00   11.24246  12.77010    0.000
 6403.00   11.80676  12.57476    0.000
 6404.00   10.52738  12.50801    0.000
 6405.00    9.26183  12.64618    0.000
 6406.00    8.43826  12.90086    0.000
 6407.00    7.73348  13.11696    0.000
 6408.00    8.81008  13.20279    0.000
 6409.00    9.85648  13.15929    0.000
 6410.00   10.61134  13.04229    0.000
 6411.00   11.15900  12.93128    0.000
 6412.00   10.25940  12.88208    0.000
 6413.00    9.45043  12.87878    0.000
 6414.00    9.12965  12.86896    0.000
 6415.00    8.86992  12.84218    0.000
 6416.00    8.87402  12.83846    0.000
 6417.00    8.78700  12.88643    0.000
 6418.00    8.37565  12.96828    0.000
 6419.00    8.38570  13.04517    0.000
 6420.00    9.65543  13.08608    0.000
 6421.00   10.61863  13.06492    0.000
 6422.00   10.80152  12.96576    0.000
 6423.00   11.00678  12.81932    0.000
 6424.00   11.26108  12.71700    0.000
 6425.00   11.72583  12.75025    0.000
 6426.00   12.59054  12.92062    0.000
 6427.00   12.37762  13.13385    0.000
 6428.00   10.37722  13.29295    0.000
 6429.00    8.98082  13.37628    0.000
 6430.00    8.46273  13.41054    0.000
 6431.00    8.81365  13.39628    0.000
 6432.00   10.27581  13.29711    0.000
 6433.00   10.58112  13.11143    0.000
 6434.00    9.58294  12.92299    0.000
 6435.00    8.58128  12.84630    0.000
 6436.00    7.57616  12.92603    0.000
 6437.00    7.69072  13.10291    0.000
 6438.00    8.78665  13.27250    0.000
 6439.00    9.37180  13.35273    0.000
 6440.00    9.56254  13.30522    0.000
 6441.00    9.26548  13.15280    0.000
 6442.00    8.63727  13.00026    0.000
 6443.00    8.12619  12.97809    0.000
 6444.00    7.68479  13.12809    0.000
 6445.00    8.12587  13.36583    0.000
 6446.00    9.02489  13.56899    0.000
 6447.00    9.10848  13.68316    0.000
 6448.00    8.82524  13.72950    0.000
 6449.00    7.75223  13.73046    0.000
 6450.00    6.37373  13.65727    0.000
 6451.00    6.50718  13.45483    0.000
 6452.00    7.13806  13.13267    0.000
 6453.00    8.00709  12.82500    0.000
 6454.00    8.94182  12.70669    0.000
 6455.00    8.97267  12.83434    0.000
 6456.00    8.79858  13.08708    0.000
 6457.00    8.83256  13.27832    0.000
 6458.00    8.90427  13.32286    0.000
 6459.00    9.57498  13.28974    0.000
 6460.00   10.32901  13.30339    0.000
 6461.00    9.86643  13.41792    0.000
 6462.00    9.28241  13.57125    0.000
 6463.00    9.84407  13.63763    0.000
 6464.00   10.47807  13.52854    0.000
 6465.00    9.83447  13.28040    0.000
 6466.00    9.15286  13.04968    0.000
 6467.00    8.12258  12.99372    0.000
 6468.00    7.13870  13.14176    0.000
 6469.00    7.44591  13.38469    0.000
 6470.00    7.82483  13.58660    0.000
 6471.00    9.21774  13.68163    0.000
 6472.00   10.56164  13.67406    0.000
 6473.00   11.45143  13.59849    0.000
 6474.00   12.23562  13.50664    0.000
 6475.00   12.30530  13.45148    0.000
 6476.00   12.12627  13.44920    0.000
 6477.00   10.64275  13.47023    0.000
 6478.00    9.41948  13.48303    0.000
 6479.00    9.29509  13.49499    0.000
 6480.00    9.44481  13.53360    0.000
 6481.00   10.55043  13.59459    0.000
 6482.00   11.34267  13.62892    0.000
 6483.00   11.21555  13.58343    0.000
 6484.00   11.26323  13.44730    0.000
 6485.00   11.74823  13.27213    0.000
 6486.00   12.22098  13.15077    0.000
 6487.00   12.66732  13.15374    0.000
 6488.00   12.91195  13.27042    0.000
 6489.00   12.77916  13.42442    0.000
 6490.00   12.23500  13.54417    0.000
 6491.00   11.01868  13.60050    0.000
 6492.00   10.40708  13.59011    0.000
 6493.00   10.66205  13.51534    0.000
 6494.00   10.73425  13.37674    0.000
 6495.00   10.57607  13.16031    0.000
 6496.00   10.26152  12.84289    0.000
 6497.00    9.77327  12.44463    0.000
 6498.00    9.56648  12.06801    0.000
 6499.00    9.63547  11.85105    0.000
 6500.00    9.55156  11.86150    0.000
 6501.00    9.33553  12.04813    0.000
 6502.00    9.71520  12.31307    0.000
 6503.00   10.54827  12.59412    0.000
 6504.00   11.78440  12.86909    0.000
 6505.00   13.29015  13.12359    0.000
 6506.00   13.28920  13.33400    0.000
 6507.00   12.40538  13.48805    0.000
 6508.00   11.13166  13.59477    0.000
 6509.00    9.65877  13.66139    0.000
 6510.00    8.53763  13.68481    0.000
 6511.00    7.57214  13.67087    0.000
 6512.00    7.78087  13.64879    0.000
 6513.00    8.43587  13.65274    0.000
 6514.00    9.18992  13.68851    0.000
 6515.00    9.97595  13.72858    0.000
 6516.00   10.46985  13.73849    0.000
 6517.00   10.88485  13.70083    0.000
 6518.00   10.85577  13.61985    0.000
 6519.00   10.72835  13.51616    0.000
 6520.00   10.20951  13.42060    0.000
 6521.00    9.62162  13.36697    0.000
 6522.00    8.95089  13.38123    0.000
 6523.00    8.26901  13.46734    0.000
 6524.00    8.71376  13.59881    0.000
 6525.00    9.26616  13.72568    0.000
 6526.00   10.49810  13.80860    0.000
 6527.00   11.77025  13.84226    0.000
 6528.00   11.95341  13.83414    0.000
 6529.00   12.10617  13.79022    0.000
 6530.00   11.81885  13.73179    0.000
 6531.00   11.54328  13.70036    0.000
 6532.00   11.56361  13.72250    0.000
 6533.00   11.52331  13.77301    0.000
 6534.00   10.67239  13.79605    0.000
 6535.00    9.77446  13.76859    0.000
 6536.00    8.45787  13.72556    0.000
 6537.00    7.40751  13.72143    0.000
 6538.00    8.10321  13.77528    0.000
 6539.00    8.74258  13.85592    0.000
 6540.00    9.09408  13.92099    0.000
 6541.00    9.13711  13.96203    0.000
 6542.00    7.90686  13.99889    0.000
 6543.00    7.12531  14.03704    0.000
 6544.00    7.87708  14.04965    0.000
 6545.00    8.70079  14.00836    0.000
 6546.00    9.73170  13.91339    0.000
 6547.00   10.84168  13.78173    0.000
 6548.00   12.14611  13.62953    0.000
 6549.00   12.80263  13.48782    0.000
 6550.00   12.08526  13.40862    0.000
 6551.00   11.26794  13.42666    0.000
 6552.00   10.26647  13.51400    0.000
 6553.00    9.57122  13.59083    0.000
 6554.00    9.36889  13.60139    0.000
 6555.00    9.20984  13.54705    0.000
 6556.00    9.11191  13.45020    0.000
 6557.00    9.54661  13.32714    0.000
 6558.00   10.64315  13.19870    0.000
 6559.00   11.79365  13.10110    0.000
 6560.00   13.00323  13.05877    0.000
 6561.00   13.90778  13.04076    0.000
 6562.00   14.51763  12.94968    0.000
 6563.00   14.60283  12.64629    0.000
 6564.00   14.24107  12.02814    0.000
 6565.00   12.73682  11.18318    0.000
 6566.00   10.37541  10.46338    0.000
 6567.00    8.90023  10.29190    0.000
 6568.00    8.00922  10.80917    0.000
 6569.00    7.33918  11.71174    0.000
 6570.00    6.79668  12.52598    0.000
 6571.00    7.26156  13.01450    0.000
 6572.00    8.23293  13.22335    0.000
 6573.00    9.60171  13.28578    0.000
 6574.00   11.14341  13.29521    0.000
 6575.00   10.96987  13.27836    0.000
 6576.00   10.15596  13.22891    0.000
 6577.00    9.87909  13.17474    0.000
 6578.00    9.77227  13.18716    0.000
 6579.00   10.03803  13.31307    0.000
 6580.00   10.40231  13.52405    0.000
 6581.00   10.60008  13.73392    0.000
 6582.00   10.76186  13.85710    0.000
 6583.00   10.27929  13.87285    0.000
 6584.00    9.68620  13.83229    0.000
 6585.00    8.81679  13.80752    0.000
 6586.00    7.91146  13.83500    0.000
 6587.00    8.55997  13.89343    0.000
 6588.00    9.35040  13.93573    0.000
 6589.00   10.22630  13.95148    0.000
 6590.00   11.10692  13.97303    0.000
 6591.00   10.75198  14.02640    0.000
 6592.00   10.37386  14.09405    0.000
 6593.00   10.30838  14.11123    0.000
 6594.00   10.23538  14.01025    0.000
 6595.00    9.98987  13.78424    0.000
 6596.00    9.80020  13.51895    0.000
 6597.00   10.31843  13.35788    0.000
 6598.00   10.66472  13.39320    0.000
 6599.00    9.53711  13.57619    0.000
 6600.00    8.65326  13.76326    0.000
 6601.00    9.32011  13.86699    0.000
 6602.00    9.80747  13.92014    0.000
 6603.00    9.40083  13.99233    0.000
 6604.00    9.27853  14.10131    0.000
 6605.00   10.30392  14.20065    0.000
 6606.00   11.03317  14.23233    0.000
 6607.00   10.77049  14.18494    0.000
 6608.00   10.41647  14.09225    0.000
 6609.00    9.80420  13.99206    0.000
 6610.00    9.27632  13.89998    0.000
 6611.00    8.95243  13.81864    0.000
 6612.00    8.76345  13.77008    0.000
 6613.00    8.85593  13.79763    0.000
 6614.00    8.73027  13.91535    0.000
 6615.00    8.20891  14.07041    0.000
 6616.00    7.83166  14.18274    0.000
 6617.00    7.68294  14.23054    0.000
 6618.00    7.74914  14.25881    0.000
 6619.00    8.11450  14.30432    0.000
 6620.00    8.89261  14.35519    0.000
 6621.00   10.17635  14.38692    0.000
 6622.00   10.77237  14.40656    0.000
 6623.00   10.62574  14.43122    0.000
 6624.00   10.50575  14.45208    0.000
 6625.00   10.41114  14.43791    0.000
 6626.00   10.41867  14.36525    0.000
 6627.00   10.51199  14.24654    0.000
 6628.00   10.29000  14.13267    0.000
 6629.00    9.83482  14.07951    0.000
 6630.00    9.66933  14.10346    0.000
 6631.00    9.69198  14.16585    0.000
 6632.00    9.85556  14.21039    0.000
 6633.00   10.09926  14.21173    0.000
 6634.00    9.68901  14.16767    0.000
 6635.00    8.95516  14.08148    0.000
 6636.00    8.65448  13.97275    0.000
 6637.00    8.53916  13.88871    0.000
 6638.00    8.09925  13.88525    0.000
 6639.00    7.54032  13.98024    0.000
 6640.00    7.75878  14.12408    0.000
 6641.00    8.21865  14.24053    0.000
 6642.00    8.86941  14.29527    0.000
 6643.00    9.56957  14.30584    0.000
 6644.00    8.74765  14.29609    0.000
 6645.00    7.60458  14.26242    0.000
 6646.00    8.28626  14.19313    0.000
 6647.00    9.27211  14.11169    0.000
 6648.00   10.00865  14.08001    0.000
 6649.00   10.71390  14.13016    0.000
 6650.00   10.31498  14.21863    0.000
 6651.00    9.81986  14.28837    0.000
 6652.00    7.97132  14.32832    0.000
 6653.00    6.05335  14.34867    0.000
 6654.00    5.27178  14.34840    0.000
 6655.00    4.53415  14.32809    0.000
 6656.00    5.48078  14.30593    0.000
 6657.00    6.37943  14.30133    0.000
 6658.00    6.26653  14.31440    0.000
 6659.00    6.12533  14.33242    0.000
 6660.00    5.64318  14.34557    0.000
 6661.00    5.51002  14.35009    0.000
 6662.00    8.25901  14.34369    0.000
 6663.00   10.57715  14.31602    0.000
 6664.00   10.23483  14.25153    0.000
 6665.00    9.80613  14.14779    0.000
 6666.00    8.95788  14.03030    0.000
 6667.00    8.10487  13.94648    0.000
 6668.00    7.23300  13.93871    0.000
 6669.00    6.52249  14.00354    0.000
 6670.00    6.34184  14.09189    0.000
 6671.00    6.48231  14.17365    0.000
 6672.00    7.51432  14.25983    0.000
 6673.00    8.35580  14.35959    0.000
 6674.00    8.74454  14.45534    0.000
 6675.00    8.93718  14.52169    0.000
 6676.00    8.72724  14.55176    0.000
 6677.00    8.53040  14.55282    0.000
 6678.00    8.35695  14.51735    0.000
 6679.00    8.28803  14.41402    0.000
 6680.00    8.38245  14.22924    0.000
 6681.00    8.45178  14.01645    0.000
 6682.00    8.48667  13.88483    0.000
 6683.00    8.65417  13.90975    0.000
 6684.00    8.98181  14.05175    0.000
 6685.00    8.84964  14.20623    0.000
 6686.00    8.22791  14.31950    0.000
 6687.00    8.14136  14.39868    0.000
 6688.00    8.55742  14.45319    0.000
 6689.00    8.45583  14.48105    0.000
 6690.00    7.92566  14.48525    0.000
 6691.00    8.01898  14.48080    0.000
 6692.00    8.56676  14.48419    0.000
 6693.00    8.49980  14.50264    0.000
 6694.00    8.03943  14.52861    0.000
 6695.00    8.98471  14.54650    0.000
 6696.00   10.71677  14.54496    0.000
 6697.00   11.43093  14.51437    0.000
 6698.00   11.64938  14.44755    0.000
 6699.00   11.11894  14.35604    0.000
 6700.00   10.27340  14.27929    0.000
 6701.00    9.16710  14.26462    0.000
 6702.00    7.96690  14.32522    0.000
 6703.00    7.09707  14.42818    0.000
 6704.00    6.32783  14.52134    0.000
 6705.00    5.82979  14.55929    0.000
 6706.00    5.40042  14.52972    0.000
 6707.00    6.18696  14.46487    0.000
 6708.00    7.22379  14.41696    0.000
 6709.00    7.27040  14.41908    0.000
 6710.00    7.15668  14.46230    0.000
 6711.00    8.58981  14.51093    0.000
 6712.00   10.21018  14.53733    0.000
 6713.00   11.60356  14.53752    0.000
 6714.00   12.97810  14.51860    0.000
 6715.00   12.37534  14.48843    0.000
 6716.00   11.67884  14.44409    0.000
 6717.00    9.17475  14.36859    0.000
 6718.00    6.68194  14.25330    0.000
 6719.00    6.25812  14.10998    0.000
 6720.00    5.94179  13.97468    0.000
 6721.00    7.71984  13.90629    0.000
 6722.00    9.31541  13.95197    0.000
 6723.00    8.81761  14.09461    0.000
 6724.00    8.39020  14.25461    0.000
 6725.00    8.52345  14.36963    0.000
 6726.00    8.67681  14.43980    0.000
 6727.00    8.95075  14.48575    0.000
 6728.00    9.23209  14.50610    0.000
 6729.00    9.54853  14.49720    0.000
 6730.00    9.64507  14.48334    0.000
 6731.00    8.89206  14.49947    0.000
 6732.00    8.22288  14.55108    0.000
 6733.00    7.82364  14.61220    0.000
 6734.00    7.89460  14.65558    0.000
 6735.00    9.24761  14.66881    0.000
 6736.00    9.97386  14.65755    0.000
 6737.00    9.23564  14.64270    0.000
 6738.00    8.91506  14.64248    0.000
 6739.00    9.43832  14.65135    0.000
 6740.00    9.58156  14.64352    0.000
 6741.00    9.05625  14.60145    0.000
 6742.00    9.14334  14.54074    0.000
 6743.00   10.17318  14.49862    0.000
 6744.00   10.80034  14.49189    0.000
 6745.00   10.88305  14.50114    0.000
 6746.00   10.45401  14.50214    0.000
 6747.00    9.41574  14.50144    0.000
 6748.00    8.41925  14.51953    0.000
 6749.00    7.46661  14.54621    0.000
 6750.00    8.11082  14.54884    0.000
 6751.00   10.23359  14.51394    0.000
 6752.00   10.07705  14.45619    0.000
 6753.00    8.06005  14.40281    0.000
 6754.00    6.75379  14.37843    0.000
 6755.00    5.95810  14.39373    0.000
 6756.00    6.33949  14.43579    0.000
 6757.00    7.46302  14.49105    0.000
 6758.00    8.10230  14.56678    0.000
 6759.00    8.47467  14.66226    0.000
 6760.00   12.34259  14.76368    0.000
 6761.00   17.88565  14.85928    0.000
 6762.00   16.58394  14.93660    0.000
 6763.00   12.45093  14.98523    0.000
 6764.00   10.73173  15.00488    0.000
 6765.00    9.86613  15.00368    0.000
 6766.00   11.44022  14.99290    0.000
 6767.00   13.74260  14.97828    0.000
 6768.00   14.53373  14.94596    0.000
 6769.00   14.95053  14.87642    0.000
 6770.00   14.91440  14.77669    0.000
 6771.00   14.78736  14.68647    0.000
 6772.00   13.39388  14.64740    0.000
 6773.00   11.80138  14.66106    0.000
 6774.00   10.48002  14.69410    0.000
 6775.00    9.19029  14.73423    0.000
 6776.00    8.90513  14.80381    0.000
 6777.00    8.69917  14.91179    0.000
 6778.00    9.22324  15.03366    0.000
 6779.00    9.77909  15.13617    0.000
 6780.00    8.27334  15.20293    0.000
 6781.00    6.81560  15.23809    0.000
 6782.00    8.60321  15.25358    0.000
 6783.00   10.15883  15.24798    0.000
 6784.00    7.51546  15.19956    0.000
 6785.00    5.16383  15.09241    0.000
 6786.00    6.00546  14.93878    0.000
 6787.00    7.01010  14.78231    0.000
 6788.00    9.26828  14.67747    0.000
 6789.00   10.94302  14.65676    0.000
 6790.00    9.21697  14.71182    0.000
 6791.00    7.70429  14.80803    0.000
 6792.00    7.17839  14.90463    0.000
 6793.00    6.69597  14.96941    0.000
 6794.00    6.37794  14.99748    0.000
 6795.00    6.31720  15.00009    0.000
 6796.00    7.06888  14.98045    0.000
 6797.00    8.09605  14.94414    0.000
 6798.00    9.86104  14.91635    0.000
 6799.00   11.41127  14.92047    0.000
 6800.00   12.46804  14.95496    0.000
 6801.00   13.24187  15.00774    0.000
 6802.00   13.45302  15.06462    0.000
 6803.00   11.48933  15.11808    0.000
 6804.00    5.75763  15.16574    0.000
 6805.00    2.67649  15.19893    0.000
 6806.00    3.61588  15.20820    0.000
 6807.00    4.87246  15.19284    0.000
 6808.00    6.55179  15.16583    0.000
 6809.00    7.82457  15.14617    0.000
 6810.00    8.62019  15.13637    0.000
 6811.00   10.04568  15.13329    0.000
 6812.00   12.12307  15.13968    0.000
 6813.00   12.22462  15.14851    0.000
 6814.00   10.52241  15.15845    0.000
 6815.00   10.23107  15.17768    0.000
 6816.00   11.07499  15.19350    0.000
 6817.00   12.36370  15.18732    0.000
 6818.00   13.96731  15.16577    0.000
 6819.00   13.50902  15.16139    0.000
 6820.00   11.76995  15.19819    0.000
 6821.00   10.34810  15.25299    0.000
 6822.00    9.09841  15.28198    0.000
 6823.00    9.88540  15.27731    0.000
 6824.00   11.63274  15.27342    0.000
 6825.00   12.02151  15.30707    0.000
 6826.00   11.85786  15.37786    0.000
 6827.00    9.10916  15.45175    0.000
 6828.00    5.46296  15.49553    0.000
 6829.00    6.09129  15.49246    0.000
 6830.00    7.97027  15.44063    0.000
 6831.00    8.49712  15.35834    0.000
 6832.00    8.69645  15.29103    0.000
 6833.00   10.41063  15.28596    0.000
 6834.00   12.42120  15.34285    0.000
 6835.00   13.08556  15.41626    0.000
 6836.00   13.54471  15.46837    0.000
 6837.00   11.88721  15.50015    0.000
 6838.00    9.99214  15.52756    0.000
 6839.00   10.33811  15.54224    0.000
 6840.00   10.85160  15.51771    0.000
 6841.00   11.75701  15.44079    0.000
 6842.00   12.67798  15.31774    0.000
 6843.00   11.72918  15.16872    0.000
 6844.00   10.82364  15.02866    0.000
 6845.00   12.14979  14.93886    0.000
 6846.00   13.23675  14.94018    0.000
 6847.00   10.28339  15.04245    0.000
 6848.00    7.53946  15.20559    0.000
 6849.00    6.98641  15.36618    0.000
 6850.00    6.73334  15.47687    0.000
 6851.00    8.70937  15.53337    0.000
 6852.00    9.88841  15.55591    0.000
 6853.00    6.55010  15.55910    0.000
 6854.00    3.87129  15.55235    0.000
 6855.00    4.16998  15.53854    0.000
 6856.00    5.08842  15.50517    0.000
 6857.00    8.30092  15.43403    0.000
 6858.00    9.84891  15.32490    0.000
 6859.00    6.24110  15.22085    0.000
 6860.00    3.91326  15.17916    0.000
 6861.00    4.95293  15.20285    0.000
 6862.00    5.94356  15.24595    0.000
 6863.00    6.82335  15.26828    0.000
 6864.00    8.03751  15.25560    0.000
 6865.00    9.90615  15.24267    0.000
 6866.00   10.78107  15.29244    0.000
 6867.00    9.96028  15.41551    0.000
 6868.00    9.93654  15.54187    0.000
 6869.00   11.10412  15.59112    0.000
 6870.00   10.82494  15.54812    0.000
 6871.00    8.64520  15.45973    0.000
 6872.00    7.66755  15.39180    0.000
 6873.00    8.08089  15.38307    0.000
 6874.00    8.58166  15.41261    0.000
 6875.00    9.17165  15.43239    0.000
 6876.00    8.86272  15.43477    0.000
 6877.00    7.74470  15.45074    0.000
 6878.00    8.06624  15.49487    0.000
 6879.00    9.52965  15.55837    0.000
 6880.00    9.97902  15.63720    0.000
 6881.00    9.72083  15.72162    0.000
 6882.00    8.18354  15.78412    0.000
 6883.00    5.86353  15.79268    0.000
 6884.00    5.53560  15.73825    0.000
 6885.00    6.27215  15.64390    0.000
 6886.00    7.66694  15.56102    0.000
 6887.00    9.36709  15.53755    0.000
 6888.00    8.58931  15.57975    0.000
 6889.00    6.82120  15.65180    0.000
 6890.00    6.17045  15.72714    0.000
 6891.00    5.90050  15.81244    0.000
 6892.00    6.58868  15.90760    0.000
 6893.00    7.55155  15.99335    0.000
 6894.00    7.33121  16.05636    0.000
 6895.00    6.83070  16.09197    0.000
 6896.00    7.27494  16.09423    0.000
 6897.00    7.89926  16.07002    0.000
 6898.00    8.16386  16.03848    0.000
 6899.00    8.37531  16.01183    0.000
 6900.00    4.70349  15.99864    0.000
 6901.00    0.61273  16.00281    0.000
 6902.00    3.20642  16.01506    0.000
 6903.00    6.27260  16.01986    0.000
 6904.00    6.81903  16.02073    0.000
 6905.00    7.27499  16.04397    0.000
 6906.00    6.50765  16.09503    0.000
 6907.00    5.83191  16.14710    0.000
 6908.00    8.46884  16.18120    0.000
 6909.00   10.87769  16.20929    0.000
 6910.00    9.67645  16.25372    0.000
 6911.00    8.43515  16.31165    0.000
 6912.00    6.79279  16.35386    0.000
 6913.00    5.21453  16.36040    0.000
 6914.00    4.09700  16.32707    0.000
 6915.00    3.16820  16.25742    0.000
 6916.00    3.28011  16.16308    0.000
 6917.00    3.93571  16.05925    0.000
 6918.00    6.98867  15.97497    0.000
 6919.00    9.52150  15.94757    0.000
 6920.00   10.16900  15.97612    0.000
 6921.00   10.03851  16.03720    0.000
 6922.00    7.54372  16.11975    0.000
 6923.00    6.48196  16.20964    0.000
 6924.00    9.12444  16.29208    0.000
 6925.00   10.85511  16.34006    0.000
 6926.00   10.55918  16.32131    0.000
 6927.00   10.02879  16.22965    0.000
 6928.00    9.04665  16.10555    0.000
 6929.00    7.72962  16.02602    0.000
 6930.00    5.84974  16.04184    0.000
 6931.00    6.05436  16.14051    0.000
 6932.00    9.32920  16.26071    0.000
 6933.00   11.70686  16.34472    0.000
 6934.00   12.92277  16.36970    0.000
 6935.00   11.88792  16.34432    0.000
 6936.00    8.28533  16.29618    0.000
 6937.00    6.09034  16.26285    0.000
 6938.00    5.31161  16.27803    0.000
 6939.00    5.60667  16.33212    0.000
 6940.00    6.85461  16.38856    0.000
 6941.00    6.91110  16.43040    0.000
 6942.00    6.03597  16.46639    0.000
 6943.00    8.20476  16.50821    0.000
 6944.00   12.46660  16.54662    0.000
 6945.00   11.95877  16.55098    0.000
 6946.00    8.57582  16.49413    0.000
 6947.00    6.43686  16.38208    0.000
 6948.00    4.95233  16.26064    0.000
 6949.00    5.47517  16.20047    0.000
 6950.00    6.91415  16.24889    0.000
 6951.00    7.04717  16.37355    0.000
 6952.00    6.66726  16.49578    0.000
 6953.00    8.14696  16.55811    0.000
 6954.00   10.24867  16.54382    0.000
 6955.00    9.80897  16.47821    0.000
 6956.00    8.65545  16.41209    0.000
 6957.00    7.28767  16.37989    0.000
 6958.00    5.87030  16.39451    0.000
 6959.00    3.57518  16.45636    0.000
 6960.00    1.11713  16.54490    0.000
 6961.00    5.06086  16.62778    0.000
 6962.00    9.92085  16.68660    0.000
 6963.00    8.00345  16.72528    0.000
 6964.00    5.38415  16.75848    0.000
 6965.00    4.34983  16.79707    0.000
 6966.00    3.42114  16.83581    0.000
 6967.00    6.08659  16.86101    0.000
 6968.00    8.86660  16.86331    0.000
 6969.00    7.84590  16.85026    0.000
 6970.00    6.86325  16.85164    0.000
 6971.00    7.04644  16.88757    0.000
 6972.00    7.13890  16.93811    0.000
 6973.00    5.88074  16.96306    0.000
 6974.00    4.84115  16.94967    0.000
 6975.00    5.90032  16.92251    0.000
 6976.00    6.75180  16.91236    0.000
 6977.00    6.15846  16.90591    0.000
 6978.00    5.81755  16.85168    0.000
 6979.00    6.83169  16.71408    0.000
 6980.00    7.35099  16.49849    0.000
 6981.00    5.73864  16.25277    0.000
 6982.00    5.61524  16.06640    0.000
 6983.00   10.77823  16.04575    0.000
 6984.00   13.72339  16.22285    0.000
 6985.00   10.05458  16.51453    0.000
 6986.00    7.27481  16.80167    0.000
 6987.00    6.75323  17.00818    0.000
 6988.00    5.70136  17.11852    0.000
 6989.00    3.49009  17.15498    0.001
 6990.00    1.90093  17.14075   -1.000
 6991.00    1.49185  17.08990   -1.000
 6992.00    1.45720  17.01988   -1.000
 6993.00    2.04249  16.96554   -1.000
 6994.00    2.89453  16.96354   -1.000
 6995.00    4.13374  17.01550   -1.000
 6996.00    5.16296  17.08511   -1.000
 6997.00    5.92414  17.13059   -1.000
 6998.00    6.04083  17.14309   -1.000
 6999.00    5.43265  17.14222   -1.000
 7000.00    4.88192  17.13538   -1.000
 7001.00    4.38816  17.10237   -1.000
 7002.00    3.77034  17.02521    0.001
 7003.00    3.04396  16.92713    0.000
 7004.00    2.11797  16.86868    0.000
 7005.00    1.03811  16.88280    0.000
 7006.00    3.67065  16.93266    0.000
 7007.00    8.81877  16.95184    0.000
 7008.00   10.19303  16.92033    0.000
 7009.00    9.32650  16.88176    0.000
 7010.00    7.67876  16.88843    0.000
 7011.00    5.62644  16.95336    0.000
 7012.00    5.18486  17.04710    0.000
 7013.00    5.46637  17.12811    0.000
 7014.00    4.85160  17.16950    0.000
 7015.00    3.89090  17.17516    0.000
 7016.00    4.46524  17.15929    0.000
 7017.00    5.54341  17.10582    0.000
 7018.00    6.52058  16.98032    0.000
 7019.00    7.46997  16.79335    0.000
 7020.00    7.49368  16.64566    0.000
 7021.00    7.30811  16.66322    0.000
 7022.00    7.44541  16.86070    0.000
 7023.00    7.64104  17.12306    0.000
 7024.00    7.03719  17.31373    0.000
 7025.00    6.32259  17.35973    0.000
 7026.00    4.49545  17.27336    0.000
 7027.00    2.55787  17.13045    0.000
 7028.00    5.54907  17.02909    0.000
 7029.00    8.84903  17.02918    0.000
 7030.00    6.54860  17.11708    0.000
 7031.00    4.08434  17.23360    0.000
 7032.00    0.31667  17.33578    0.000
 7033.00   -3.21702  17.41258    0.000
 7034.00   -0.32400  17.46626    0.000
 7035.00    2.51521  17.49310    0.000
 7036.00    4.59905  17.49226    0.000
 7037.00    6.03746  17.47951    0.000
 7038.00    1.52527  17.47135    0.000
 7039.00   -1.73182  17.46452    0.000
 7040.00    3.46949  17.43131    0.000
 7041.00    7.57607  17.35828    0.000
 7042.00    5.95969  17.30496    0.000
 7043.00    5.38001  17.37069    0.000
 7044.00    9.16498  17.58035    0.000
 7045.00   11.35354  17.84774    0.000
 7046.00    7.98912  18.05414    0.000
 7047.00    6.02591  18.13425    0.000
 7048.00    8.16394  18.11230    0.000
 7049.00    9.15470  18.06980    0.000
 7050.00    7.28151  18.07590   -2.000
 7051.00    6.25308  18.13870   -2.000
 7052.00    7.04160  18.21026   -2.000
 7053.00    8.00052  18.22547   -2.000
 7054.00    9.27768  18.14195   -2.000
 7055.00    9.28954  17.94943   -2.000
 7056.00    7.23779  17.67339   -2.000
 7057.00    6.87263  17.38497   -2.000
 7058.00    8.91997  17.16854   -2.000
 7059.00   10.71743  17.07611   -2.000
 7060.00   12.20048  17.09485   -2.000
 7061.00   11.74615  17.14772   -2.000
 7062.00    9.14340  17.15181   -2.000
 7063.00    7.75029  17.08155   -2.000
 7064.00    7.54032  16.98498   -2.000
 7065.00    7.80125  16.93417   -2.000
 7066.00    8.46837  16.95805   -2.000
 7067.00    7.13647  17.02945   -2.000
 7068.00    4.28580  17.09132   -2.000
 7069.00    6.25592  17.08830   -2.000
 7070.00   11.44504  17.01037   -2.000
 7071.00    9.26068  16.90230   -2.000
 7072.00    2.76402  16.83867   -2.000
 7073.00    4.38522  16.88462   -2.000
 7074.00   10.14491  17.03505   -2.000
 7075.00   10.77574  17.22351   -2.000
 7076.00    9.14193  17.38043   -2.000
 7077.00    9.05197  17.47470   -2.000
 7078.00    9.54743  17.51326   -2.000
 7079.00    7.90246  17.52065   -2.000
 7080.00    5.56823  17.52131   -2.000
 7081.00    4.15709  17.53432   -2.000
 7082.00    2.99462  17.56577   -2.000
 7083.00    3.91626  17.60296   -2.000
 7084.00    5.29805  17.61727   -2.000
 7085.00    7.04790  17.56521   -2.000
 7086.00    8.86243  17.41421   -2.000
 7087.00    8.08148  17.17746   -2.000
 7088.00    6.95282  16.92240   -2.000
 7089.00    7.66184  16.73223   -2.000
 7090.00    8.54547  16.63012   -2.000
 7091.00    6.30221  16.57146   -2.000
 7092.00    3.87550  16.51238   -2.000
 7093.00    6.01881  16.44506   -2.000
 7094.00    8.26693  16.39593   -2.000
 7095.00    9.45165  16.38993   -2.000
 7096.00   10.43584  16.41502   -2.000
 7097.00    6.43402  16.44684   -2.000
 7098.00    2.75158  16.47345   -2.000
 7099.00    3.31067  16.49574   -2.000
 7100.00    3.53283  16.53574   -2.000
 7101.00    0.76870  16.61096   -2.000
 7102.00   -0.86552  16.72567   -2.000
 7103.00    4.88223  16.85232   -2.000
 7104.00    9.51239  16.94308   -2.000
 7105.00    8.44997  16.97709   -2.000
 7106.00    7.56014  16.97078   -2.000
 7107.00    7.38068  16.97340   -2.000
 7108.00    7.08208  17.01012   -2.000
 7109.00    6.37734  17.06218   -2.000
 7110.00    5.72231  17.09496   -2.000
 7111.00    5.21011  17.09636   -2.000
 7112.00    6.75238  17.07415   -2.000
 7113.00   13.33560  17.03168   -2.000
 7114.00   15.86542  16.97173   -2.000
 7115.00    9.81756  16.92128   -2.000
 7116.00    6.58025  16.92113   -2.000
 7117.00    8.51081  16.98712   -2.000
 7118.00    8.06586  17.09346   -2.000
 7119.00    3.80422  17.20023   -2.000
 7120.00    5.39611  17.28111   -2.000
 7121.00   15.23972  17.32791   -2.000
 7122.00   17.63030  17.34296   -2.000
 7123.00   10.77618  17.32674   -2.000
 7124.00    6.19032  17.28659   -2.000
 7125.00    4.08440  17.23781   -2.000
 7126.00    4.89238  17.20158   -2.000
 7127.00    8.51042  17.18386   -2.000
 7128.00  -36.55231  17.15187   -2.000
 7129.00 -123.01193  17.07660   -2.000
 7130.00 -111.17858  16.96886   -2.000
 7131.00  -25.73464  16.86341   -2.000
 7132.00    7.30983  16.77652   -2.000
 7133.00    5.87767  16.69074   -2.000
 7134.00    6.30160  16.60485   -2.000
 7135.00    7.79466  16.56489   -2.000
 7136.00    9.17892  16.61650   -2.000
 7137.00   10.50859  16.75524   -2.000
 7138.00    8.87383  16.92834   -2.000
 7139.00    5.95179  17.07359   -2.000
 7140.00    5.15543  17.16428   -2.000
 7141.00    5.15091  17.19880   -2.000
 7142.00    5.68518  17.19027   -2.000
 7143.00    6.38965  17.17332   -2.000
 7144.00    7.81459  17.18266   -2.000
 7145.00    9.42953  17.22540   -2.000
 7146.00   10.45287  17.27865   -2.000
 7147.00   11.34869  17.31357   -2.000
 7148.00    8.00922  17.31079   -2.000
 7149.00    3.94589  17.26290   -2.000
 7150.00    4.64447  17.16448   -2.000
 7151.00    5.95943  17.02952   -2.000
 7152.00    5.28959  16.92479   -2.000
 7153.00    4.43952  16.92213   -2.000
 7154.00    4.00149  17.03568   -2.000
 7155.00    3.58601  17.22433   -2.000
 7156.00    5.60036  17.41931   -2.000
 7157.00    7.69659  17.56618   -2.000
 7158.00   12.61938  17.65171   -2.000
 7159.00   17.20768  17.69929   -2.000
 7160.00   14.20356  17.74291   -2.000
 7161.00   11.47842  17.78269   -2.000
 7162.00   12.26700  17.78976   -2.000
 7163.00   12.22473  17.75266   -2.000
 7164.00    5.09433  17.69290   -2.000
 7165.00   -0.56499  17.63207   -2.000
 7166.00    3.09920  17.54408   -2.000
 7167.00    6.33649  17.39396   -2.000
 7168.00    7.45414  17.21511   -2.000
 7169.00    7.96511  17.11019   -2.000
 7170.00    6.03413  17.15772   -2.000
 7171.00    5.33112  17.33120   -2.000
 7172.00    8.73076  17.53189   -2.000
 7173.00   11.46581  17.68076   -2.000
 7174.00   12.32610  17.77363   -2.000
 7175.00   11.70130  17.84577   -2.000
 7176.00    7.49444  17.91008   -2.000
 7177.00    4.77309  17.94421   -2.000
 7178.00    5.14490  17.92460   -2.000
 7179.00    6.94058  17.86102   -2.000
 7180.00   11.31423  17.79749   -2.000
 7181.00   12.61353  17.76443   -2.000
 7182.00    9.04649  17.73595   -2.000
 7183.00    7.18338  17.66399   -2.000
 7184.00    7.68763  17.55013   -2.000
 7185.00    7.87166  17.47135   -2.000
 7186.00    7.66410  17.51123   -2.000
 7187.00    7.67611  17.65766   -2.000
 7188.00    7.92480  17.80133   -2.000
 7189.00    9.29853  17.82714   -2.000
 7190.00   11.74198  17.70015   -2.000
 7191.00   12.37613  17.49700   -2.000
 7192.00   11.49345  17.34090   -2.000
 7193.00   10.40661  17.31119   -2.000
 7194.00    9.16908  17.40426   -2.000
 7195.00    7.61542  17.54263   -2.000
 7196.00    5.85682  17.65410   -2.000
 7197.00    8.65360  17.72463   -2.000
 7198.00   14.03459  17.77466   -2.000
 7199.00   15.17483  17.81287   -2.000
 7200.00   14.22074  17.82730   -2.000
 7201.00    9.68485  17.82514   -2.000
 7202.00    3.61951  17.83131   -2.000
 7203.00    1.51601  17.85303   -2.000
 7204.00    0.86209  17.86711   -2.000
 7205.00    3.65108  17.85871   -2.000
 7206.00    7.50662  17.86165   -2.000
 7207.00    4.67568  17.90713   -2.000
 7208.00    0.11895  17.95932   -2.000
 7209.00    3.41285  17.93196   -2.000
 7210.00    8.35812  17.77884   -2.000
 7211.00   10.41687  17.57734   -2.000
 7212.00   11.99621  17.46723   -2.000
 7213.00    7.71085  17.53168   -2.000
 7214.00    2.69269  17.73889   -2.000
 7215.00    5.64141  17.96608   -2.000
 7216.00    9.28017  18.10531   -2.000
 7217.00    8.03964  18.13131   -2.000
 7218.00    6.55122  18.09478   -2.000
