###################################################################
## OUTPUT of StarlightChains_v04.for    [Cid@UFSC - 01/Apr/2007] ##
###################################################################

## Some input info
KUG0210-078._45_41.txt                   [arq_obs]
Base.CB07.vall.4m                        [arq_base]
Masks.EmLines.NEW.gm                     [arq_masks]
StCv04.C11.config                        [arq_config]
   66                                    [N_base]
    0                                    [N_YAV_components = # of components with extra extinction!]
    0                                    [i_FitPowerLaw (1/0 = Yes/No)]
-9.99                                    [alpha_PowerLaw]
CCM                                      [red_law_option]
 1.458241                                [q_norm = A(l_norm)/A(V)]

## (Re)Sampling Parameters
 3741.00                                 [l_ini (A)]
 7218.00                                 [l_fin (A)]
    1.00                                 [dl    (A)]     (OBS: dl_cushion =    50.00 A)

## Normalization info
 4020.00                                 [l_norm (A) - for base]
 4010.00                                 [llow_norm (A) - window for f_obs]
 4060.00                                 [lupp_norm (A) - window for f_obs]
9.724959E-18                             [fobs_norm (in input units)]

## S/N
 3691.00                                 [llow_SN (A) - window for S/N]
 7268.00                                 [lupp_SN (A) - window for S/N]
   4.371                                 [S/N in S/N window]
   4.815                                 [S/N in norm. window]
   0.010                                 [S/N_err in S/N window]
   0.011                                 [S/N_err in norm. window]
  1.0000                                 [fscale_chi2]

## etc...
    -2007869                             [idum_orig]
  2427                                   [NOl_eff]
  2406                                   [Nl_eff]
    21    NSIGMA                         [Ntot_cliped & clip_method]
  5725580                                [Nglobal_steps]
   7                                     [N_chains]
  41                                     [NEX0s_base = N_base in EX0s-fits]
 0   0   1       21   2.0   1.856E+03    [Clip-Bug, RC-Crash & Burn-In warning-flags, n_censored_weights, wei_nsig_threshold & wei_limit]
    64     63.218     62.646      0.572  [idt_all, wdt_TotTime, wdt_UsrTime & wdt_SysTime (sec)]

## Synthesis Results - Best model ##

 7.74837E-06                             [chi2/Nl_eff]
    19.85059                             [adev (%)]

   112.24776                             [sum-of-x (%)]
 6.92251E-18                             [Flux_tot (units of input spectrum!)]
 2.96281E-13                             [Mini_tot (???)]
 1.49266E-13                             [Mcor_tot (???)]

 480.11                                  [v0_min  (km/s)]
 442.67                                  [vd_min  (km/s)]
-0.3391                                  [AV_min  (mag)]
 0.0000                                  [YAV_min (mag)]

# j     x_j(%)      Mini_j(%)     Mcor_j(%)     age_j(yr)     Z_j      (L/M)_j    YAV?  Mstars   component_j        a/Fe...       SSP_chi2r SSP_adev(%)   SSP_AV   SSP_x(%)
  1      0.9671     1.8400E-03    3.6523E-03    1.000000E+06  0.00400  1.094E-02    0   1.0000   age020_m42            0.0000     1.0683E-05    23.4619   2.9114    90.0929
  2      0.0000     0.0000E+00    0.0000E+00    3.160000E+06  0.00400  4.007E-02    0   0.9999   age045_m42            0.0000     9.3662E-06    21.9791   2.1263    98.5979
  3      0.0000     0.0000E+00    0.0000E+00    5.010000E+06  0.00400  2.539E-02    0   0.9488   age055_m42            0.0000     9.8921E-06    22.6582   2.4730    95.2156
  4      0.0000     0.0000E+00    0.0000E+00    6.610000E+06  0.00400  2.620E-02    0   0.9220   age061_m42            0.0000     9.3509E-06    22.0063   2.0540    98.8631
  5      3.3705     5.3069E-03    9.3350E-03    1.000000E+07  0.00400  1.322E-02    0   0.8862   age070_m42            0.0000     9.8611E-06    23.5178   1.8299    99.2776
  6      0.0000     0.0000E+00    0.0000E+00    1.445000E+07  0.00400  7.883E-03    0   0.8571   age078_m42            0.0000     1.0121E-05    23.7201   2.1641    96.3806
  7      0.0000     0.0000E+00    0.0000E+00    2.512000E+07  0.00400  5.251E-03    0   0.8174   age090_m42            0.0000     9.8667E-06    23.6974   1.7051    99.7574
  8      0.0000     0.0000E+00    0.0000E+00    4.000000E+07  0.00400  3.649E-03    0   0.7851   age104_m42            0.0000     9.5920E-06    23.2662   1.4634   101.1466
  9      0.0000     0.0000E+00    0.0000E+00    5.500000E+07  0.00400  3.098E-03    0   0.7629   age110_m42            0.0000     9.2348E-06    22.2545   1.5809   102.3271
 10      0.7826     7.3114E-03    1.0459E-02    1.015200E+08  0.00400  2.228E-03    0   0.7207   age116_m42            0.0000     9.0206E-06    21.5703   1.5741   103.4176
 11      0.0000     0.0000E+00    0.0000E+00    2.861200E+08  0.00400  1.093E-03    0   0.6648   age125_m42            0.0000     8.9035E-06    21.7855   1.0089   106.5213
 12      2.0830     6.5725E-02    8.3037E-02    5.088000E+08  0.00400  6.597E-04    0   0.6365   age130_m42            0.0000     8.5597E-06    20.7115   0.9592   108.7953
 13      5.3195     5.1936E-01    5.9771E-01    1.434000E+09  0.00400  2.132E-04    0   0.5798   age139_m42            0.0000     7.8543E-06    20.0776  -0.0213   111.4122
 14      0.0000     0.0000E+00    0.0000E+00    4.250000E+09  0.00400  5.895E-05    0   0.5377   age158_m42            0.0000     7.8591E-06    19.9284  -0.4671   106.9480
 15      0.0000     0.0000E+00    0.0000E+00    7.500000E+09  0.00400  3.510E-05    0   0.5212   age171_m42            0.0000     7.8491E-06    19.6350  -0.6676   106.5465
 16      0.0000     0.0000E+00    0.0000E+00    1.300000E+10  0.00400  2.005E-05    0   0.5034   age193_m42            0.0000     7.9038E-06    19.4315  -0.8417   106.2006
 17     14.6317     1.9971E+01    1.9690E+01    1.800000E+10  0.00400  1.525E-05    0   0.4967   age213_m42            0.0000     7.9560E-06    19.5773  -0.8591   105.5619
 18      2.5193     4.2359E-03    8.4079E-03    1.000000E+06  0.00800  1.238E-02    0   1.0000   age020_m52            0.0000     1.0688E-05    23.4560   2.9060    90.3108
 19      0.0000     0.0000E+00    0.0000E+00    3.160000E+06  0.00800  3.074E-02    0   0.9966   age045_m52            0.0000     1.0515E-05    23.2868   2.8233    91.3507
 20      0.0080     6.2762E-06    1.1764E-05    5.010000E+06  0.00800  2.668E-02    0   0.9443   age055_m52            0.0000     1.0058E-05    22.8917   2.5647    94.0238
 21      0.0000     0.0000E+00    0.0000E+00    6.610000E+06  0.00800  2.136E-02    0   0.9177   age061_m52            0.0000     9.7616E-06    23.5071   1.3406   100.0025
 22      0.0000     0.0000E+00    0.0000E+00    1.000000E+07  0.00800  1.215E-02    0   0.8827   age070_m52            0.0000     1.0203E-05    24.2431   2.0326    98.2477
 23      0.0000     0.0000E+00    0.0000E+00    1.445000E+07  0.00800  8.717E-03    0   0.8552   age078_m52            0.0000     1.0018E-05    23.6511   2.1263    97.8744
 24      0.0000     0.0000E+00    0.0000E+00    2.512000E+07  0.00800  5.592E-03    0   0.8162   age090_m52            0.0000     9.8417E-06    23.7468   1.7686   100.9903
 25      0.0000     0.0000E+00    0.0000E+00    4.000000E+07  0.00800  3.896E-03    0   0.7841   age104_m52            0.0000     9.4834E-06    23.0983   1.6580   102.5692
 26      0.0000     0.0000E+00    0.0000E+00    1.015200E+08  0.00800  2.148E-03    0   0.7226   age116_m52            0.0000     9.0518E-06    22.0338   1.5603   103.6357
 27     10.3755     2.1760E-01    2.8865E-01    2.861200E+08  0.00800  9.925E-04    0   0.6683   age125_m52            0.0000     8.6048E-06    20.7295   1.0253   109.7818
 28      0.0000     0.0000E+00    0.0000E+00    9.047900E+08  0.00800  3.141E-04    0   0.6138   age135_m52            0.0000     7.8406E-06    19.4880   0.1786   116.1322
 29      0.0000     0.0000E+00    0.0000E+00    1.434000E+09  0.00800  1.719E-04    0   0.5853   age139_m52            0.0000     7.6951E-06    19.9072  -0.3805   112.8820
 30      0.0000     0.0000E+00    0.0000E+00    2.500000E+09  0.00800  7.872E-05    0   0.5600   age150_m52            0.0000     7.6535E-06    19.2858  -0.6761   110.6017
 31      0.0000     0.0000E+00    0.0000E+00    4.250000E+09  0.00800  4.336E-05    0   0.5426   age158_m52            0.0000     7.7664E-06    19.3304  -0.6866   109.3453
 32      0.0000     0.0000E+00    0.0000E+00    6.250000E+09  0.00800  3.159E-05    0   0.5319   age166_m52            0.0000     7.7439E-06    18.9092  -0.9153   110.1766
 33      0.0000     0.0000E+00    0.0000E+00    1.300000E+10  0.00800  1.361E-05    0   0.5073   age193_m52            0.0000     8.9402E-06    21.4388  -1.0000    99.8596
 34      0.0000     0.0000E+00    0.0000E+00    1.800000E+10  0.00800  9.886E-06    0   0.4990   age213_m52            0.0000     9.8772E-06    22.5306  -1.0000    96.5157
 35      0.0000     5.2601E-08    1.0441E-07    1.000000E+06  0.02000  1.544E-02    0   1.0000   age020_m62            0.0000     1.0721E-05    23.5073   2.9046    90.4524
 36      0.0000     0.0000E+00    0.0000E+00    3.160000E+06  0.02000  3.762E-02    0   0.9858   age045_m62            0.0000     1.0639E-05    23.3994   2.8389    91.4224
 37      0.0427     2.6965E-05    5.0002E-05    5.010000E+06  0.02000  3.296E-02    0   0.9342   age055_m62            0.0000     9.6411E-06    22.2309   2.4140    97.0770
 38      0.0000     0.0000E+00    0.0000E+00    8.710000E+06  0.02000  1.154E-02    0   0.8861   age067_m62            0.0000     1.2220E-05    28.3134   1.5959    97.5034
 39      0.0000     0.0000E+00    0.0000E+00    1.445000E+07  0.02000  7.663E-03    0   0.8472   age078_m62            0.0000     1.0586E-05    25.3054   1.7096    99.5705
 40      0.0000     0.0000E+00    0.0000E+00    2.512000E+07  0.02000  4.532E-03    0   0.8099   age090_m62            0.0000     1.0561E-05    25.3802   1.7006    99.3970
 41      0.0000     0.0000E+00    0.0000E+00    5.500000E+07  0.02000  2.733E-03    0   0.7595   age110_m62            0.0000     9.5645E-06    23.2170   1.6461   101.6382
 42      8.0738     1.2276E-01    1.7020E-01    1.609000E+08  0.02000  1.369E-03    0   0.6985   age120_m62            0.0000     8.9817E-06    21.4872   1.4197   106.8419
 43      0.0000     0.0000E+00    0.0000E+00    2.861200E+08  0.02000  9.013E-04    0   0.6714   age125_m62            0.0000     8.7594E-06    20.4413   1.1286   111.5148
 44      9.0556     3.7489E-01    4.7989E-01    5.088000E+08  0.02000  5.028E-04    0   0.6449   age130_m62            0.0000     8.2218E-06    19.1773   0.6956   116.4750
 45      3.9525     3.3885E-01    4.1559E-01    9.047900E+08  0.02000  2.428E-04    0   0.6179   age135_m62            0.0000     7.6909E-06    19.1531   0.1053   115.7735
 46      0.0000     0.0000E+00    0.0000E+00    1.434000E+09  0.02000  1.263E-04    0   0.5908   age139_m62            0.0000     7.6824E-06    19.2747  -0.3288   113.5867
 47      0.0000     0.0000E+00    0.0000E+00    2.500000E+09  0.02000  5.985E-05    0   0.5673   age150_m62            0.0000     7.7240E-06    18.9623  -0.7194   112.7014
 48      0.0000     0.0000E+00    0.0000E+00    4.250000E+09  0.02000  3.271E-05    0   0.5468   age158_m62            0.0000     7.7706E-06    18.4252  -1.0000   111.4222
 49      0.0000     0.0000E+00    0.0000E+00    1.000000E+10  0.02000  1.360E-05    0   0.5167   age181_m62            0.0000     9.3404E-06    20.5597  -1.0000   101.9756
 50      3.9352     1.1498E+01    1.1441E+01    1.800000E+10  0.02000  7.124E-06    0   0.5013   age213_m62            0.0000     1.1407E-05    23.0711  -1.0000    95.3260
 51      0.0000     0.0000E+00    0.0000E+00    1.000000E+06  0.05000  2.592E-02    0   0.9998   age020_m72            0.0000     1.0845E-05    23.6911   2.9024    90.2626
 52      0.0000     0.0000E+00    0.0000E+00    3.160000E+06  0.05000  4.845E-02    0   0.9577   age045_m72            0.0000     1.0172E-05    22.8288   2.6977    93.4966
 53      0.2984     2.0219E-04    3.6710E-04    5.010000E+06  0.05000  3.072E-02    0   0.9147   age055_m72            0.0000     1.0565E-05    24.5969   2.2734    96.1055
 54      0.0000     0.0000E+00    0.0000E+00    6.610000E+06  0.05000  1.455E-02    0   0.8877   age061_m72            0.0000     1.3386E-05    30.1959   1.6681    97.1738
 55      0.0000     0.0000E+00    0.0000E+00    1.000000E+07  0.05000  9.074E-03    0   0.8524   age070_m72            0.0000     1.0656E-05    24.7424   2.4479    95.8859
 56      0.0000     0.0000E+00    0.0000E+00    2.512000E+07  0.05000  4.250E-03    0   0.7902   age090_m72            0.0000     1.0077E-05    24.1097   2.1286    98.7121
 57      0.0000     0.0000E+00    0.0000E+00    4.000000E+07  0.05000  3.087E-03    0   0.7618   age104_m72            0.0000     9.9925E-06    24.1287   1.8979   100.6297
 58      0.1390     1.7014E-03    2.3965E-03    1.015200E+08  0.05000  1.700E-03    0   0.7096   age116_m72            0.0000     9.2224E-06    22.1541   1.5817   105.7038
 59      0.0000     0.0000E+00    0.0000E+00    2.861200E+08  0.05000  7.384E-04    0   0.6633   age125_m72            0.0000     8.5230E-06    19.7506   0.9660   114.1798
 60     19.9868     1.0894E+00    1.3778E+00    5.088000E+08  0.05000  3.819E-04    0   0.6372   age130_m72            0.0000     7.9008E-06    19.0819   0.4372   117.3039
 61      0.0000     0.0000E+00    0.0000E+00    9.047900E+08  0.05000  1.676E-04    0   0.6110   age135_m72            0.0000     7.6619E-06    18.9390  -0.2810   115.7239
 62      1.2736     3.0000E-01    3.4978E-01    1.434000E+09  0.05000  8.837E-05    0   0.5874   age139_m72            0.0000     7.7554E-06    18.8922  -0.7357   114.9811
 63     12.5319     6.1624E+00    6.8474E+00    2.500000E+09  0.05000  4.233E-05    0   0.5598   age150_m72            0.0000     7.8815E-06    18.3598  -1.0000   112.5550
 64      0.0000     0.0000E+00    0.0000E+00    6.250000E+09  0.05000  1.435E-05    0   0.5249   age166_m72            0.0000     1.0107E-05    21.8499  -1.0000    98.9305
 65      0.0000     0.0000E+00    0.0000E+00    1.300000E+10  0.05000  6.513E-06    0   0.5036   age193_m72            0.0000     1.3386E-05    25.3928  -1.0000    91.7344
 66     12.9010     5.9319E+01    5.8224E+01    1.800000E+10  0.05000  4.527E-06    0   0.4945   age213_m72            0.0000     1.5810E-05    27.4558  -1.0000    86.7432


## Synthesis Results - Average & Chains ##

# j      x_j: min, <> & last-chain-values for 1 ...  7 chains
  1      0.9671      0.6398      1.1407      0.7557      1.5049      1.8119      0.2010      3.1655      1.5417
  2      0.0000      0.7153      2.5592      1.5917      0.4747      1.1085      3.5343      0.0000      1.9109
  3      0.0000      0.8758      0.9421      0.0000      2.0019      1.3011      1.4709      0.0000      0.9348
  4      0.0000      0.9830      3.2755      0.7667      0.6876      2.6228      0.0609      2.6463      1.3238
  5      3.3705      0.6695      2.9272      0.7083      0.0000      0.4906      0.9899      0.5879      1.0685
  6      0.0000      0.7376      0.0000      0.8604      2.1080      5.6876      0.7092      0.0000      2.3084
  7      0.0000      0.7424      0.0000      0.2783      5.1023      0.0000      2.3945      0.9835      0.6270
  8      0.0000      0.6712      0.0000      2.4203      0.0000      3.0598      2.3470      1.4540      3.0532
  9      0.0000      0.6392      4.3959      0.1217      1.8205      1.6649      1.8875      0.0000      0.3506
 10      0.7826      0.8188      0.0000      0.0000      0.0000      3.6545      6.5280      1.5592      0.0000
 11      0.0000      0.6736      0.0000      0.0420      2.4690      0.0000      1.3797      0.2882      0.0000
 12      2.0830      0.9276      0.0000      0.0000      0.7993      7.4449      0.6398      0.0833      1.9168
 13      5.3195      0.6402      0.0000      1.0984      1.0314      0.5301      0.3275      0.0000      0.5694
 14      0.0000      0.7674      2.4641      1.5278      0.0000      0.0000      0.3252      0.6386      0.6184
 15      0.0000      0.6001      1.2165      0.7046      0.1375      0.0000      0.0000      0.7865      2.2826
 16      0.0000      0.9963      2.6797      1.8536      3.2486      0.2368      0.2771      2.8984      0.0000
 17     14.6317      0.5903      0.5279      1.6976      0.0000      0.7736      0.7519      1.6010      0.0000
 18      2.5193      0.8871      3.6857      0.4145      0.6827      2.5781      2.2912      0.1312      0.0000
 19      0.0000      0.7911      3.6647      0.9225      3.0330      0.5244      0.0000      2.7005      1.3489
 20      0.0080      0.7850      2.1359      0.9695      0.7658      1.4735      1.0742      1.0304      1.5208
 21      0.0000      0.6402      0.0000      0.0000      0.0000      1.0630      0.9513      0.8715      0.0000
 22      0.0000      1.0059      0.2973      4.3132      2.7660      1.8348      0.0000      0.9700      2.4148
 23      0.0000      0.9052      2.7275      1.7554      0.0000      0.0000      4.7369      2.8168      0.3467
 24      0.0000      0.7169      0.9086      0.4723      1.4836      0.2163      0.0185      2.0321      1.0793
 25      0.0000      0.5724      1.4867      0.2666      0.0000      1.8318      2.2368      1.5438      1.9622
 26      0.0000      0.6382      0.1171      1.3813      1.2036      0.0000      0.9762      2.1527      3.0856
 27     10.3755      0.9660      0.0000      0.7201      0.0000      1.3081      1.4193      0.6888      1.4480
 28      0.0000      0.8227      0.8887      1.3610      0.0000      0.7327      0.0300      1.8226      0.0000
 29      0.0000      0.7339      2.0971      0.0000      2.2997      0.0000      0.4368      0.7613      0.5117
 30      0.0000      0.6498      0.6504      0.3726      0.4129      0.0000      0.0982      1.0289      1.4655
 31      0.0000      0.6953      0.0000      0.3996      0.7770      0.0740      0.0000      0.3347      0.5730
 32      0.0000      0.8934      0.0853      2.1890      0.0000      3.1232      3.1895      1.9894      0.0000
 33      0.0000      0.6030      1.6661      0.8048      0.9276      0.0000      0.0000      1.0760      4.3596
 34      0.0000      0.7644      0.3834      1.0457      0.1135      0.0000      1.8966      0.9848      0.6052
 35      0.0000      0.9309      1.4050      3.5261      0.4713      3.0847      2.5215      7.6477      0.5833
 36      0.0000      1.5834      0.0000      0.0000      0.6886      1.3378      4.0107      1.7032      2.7201
 37      0.0427      1.0696      2.1632      0.0000      3.5157      0.9072      3.2342      0.1962      2.0869
 38      0.0000      0.8638      0.4364      0.6504      0.0000      0.4013      0.0000      2.3569      0.4688
 39      0.0000      0.8515      3.3053      1.5834      0.0000      0.0000      1.7881      0.4571      1.4735
 40      0.0000      0.5844      0.0000      0.4327      2.6508      1.9420      0.0000      1.1147      0.8821
 41      0.0000      0.7193      0.0000      1.4464      0.0000      0.0000      1.7399      2.3581      0.8249
 42      8.0738      0.6070      0.3694      2.5937      0.8473      0.9582      0.5534      0.0000      0.9566
 43      0.0000      0.5804      2.2227      0.8510      0.4674      0.0000      2.8375      0.2308      0.3660
 44      9.0556      0.9043      2.2903      0.1204      2.8412      1.3717      2.2227      3.7078      0.6314
 45      3.9525      0.7723      1.4922      1.5086      0.5895      2.1120      1.6307      0.0359      1.3094
 46      0.0000      0.9814      0.0000      0.0000      0.5496      0.3591      2.3031      0.0000      2.1764
 47      0.0000      1.2146      4.0180      3.9228      0.0000      2.4609      0.3771      0.0000      3.4295
 48      0.0000      1.0588      0.0699      1.3061      0.3951      0.0892      1.9722      0.4595      0.3655
 49      0.0000      0.8496      0.4693      2.9428      0.5190      0.0000      1.9592      0.0000      0.5228
 50      3.9352      0.9237      0.0000      1.2003      0.8225      3.1174      0.0000      1.4728      0.5438
 51      0.0000      6.4592      3.6975      5.0493      1.0811      3.1296      0.3080      0.9755      1.5584
 52      0.0000      1.1439      2.1605      0.7613      1.9176      0.8035      0.1032      0.0000      1.8240
 53      0.2984      0.7013      2.1476      0.7682      0.2507      0.5369      1.4081      1.0030      0.0000
 54      0.0000      0.9057      1.1581      4.3759      1.4519      1.7987      0.0000      3.2389      1.2389
 55      0.0000      0.6375      0.7388      3.3942      1.2187      1.3159      0.9855      0.0000      0.0000
 56      0.0000      1.0171      1.5508      0.2618      3.8996      0.3020      2.2240      2.1713      0.4546
 57      0.0000      0.5701      1.2845      0.1271      1.6609      0.1941      0.3669      2.1057      0.8934
 58      0.1390      0.7668      1.5496      0.7589      0.1568      1.4569      0.0000      0.1931      8.5588
 59      0.0000      0.8772      0.0000      5.6292      3.7437      1.6979      0.9807      2.0525      0.2709
 60     19.9868      0.8006      0.0000      0.0000      0.0000      4.9177      0.6383      0.0000      0.2300
 61      0.0000      0.7175      0.0000      1.9936      0.0000      0.0000      1.0114      2.2057      0.1268
 62      1.2736      1.0179      0.0000      2.4465      1.6839      3.5037      1.9884      0.0000      3.8312
 63     12.5319      1.1769      1.7173      2.2796      2.6893      1.9391      1.1829      0.6883      3.2072
 64      0.0000      0.7647      0.5701      1.4610      0.5043      0.0000      3.5961      0.0000      0.0000
 65      0.0000      0.8003      0.0000      0.0000      4.7600      0.0000      1.3794      2.7393      1.4704
 66     12.9010     35.8045     18.5728      9.1300     19.8340      9.3612      7.8905     17.0107     10.8084

# j      m_j: min, <> & last-chain-values for 1 ...  7 chains
  1  3.6523E-03  1.3526E-03  4.4097E-03  4.2257E-03  4.8265E-03  1.1532E-02  1.2568E-03  1.1595E-02  8.1009E-03
  2  0.0000E+00  4.1282E-04  2.7009E-03  2.4300E-03  4.1561E-04  1.9262E-03  6.0320E-03  0.0000E+00  2.7412E-03
  3  0.0000E+00  7.5695E-04  1.4890E-03  0.0000E+00  2.6248E-03  3.3855E-03  3.7593E-03  0.0000E+00  2.0080E-03
  4  0.0000E+00  8.0009E-04  4.8751E-03  1.6506E-03  8.4898E-04  6.4270E-03  1.4660E-04  3.7317E-03  2.6779E-03
  5  9.3350E-03  1.0380E-03  8.2990E-03  2.9049E-03  0.0000E+00  2.2902E-03  4.5386E-03  1.5793E-03  4.1175E-03
  6  0.0000E+00  1.8548E-03  0.0000E+00  5.7230E-03  8.0416E-03  4.3060E-02  5.2737E-03  0.0000E+00  1.4428E-02
  7  0.0000E+00  2.6728E-03  0.0000E+00  2.6502E-03  2.7867E-02  0.0000E+00  2.5494E-02  6.1348E-03  5.6110E-03
  8  0.0000E+00  3.3400E-03  0.0000E+00  3.1858E-02  0.0000E+00  4.5841E-02  3.4538E-02  1.2536E-02  3.7763E-02
  9  0.0000E+00  3.6403E-03  4.5783E-02  1.8328E-03  1.5729E-02  2.8548E-02  3.1790E-02  0.0000E+00  4.9628E-03
 10  1.0459E-02  6.1258E-03  0.0000E+00  0.0000E+00  0.0000E+00  8.2314E-02  1.4442E-01  2.0210E-02  0.0000E+00
 11  0.0000E+00  9.4756E-03  0.0000E+00  1.5624E-03  5.2689E-02  0.0000E+00  5.7396E-02  7.0254E-03  0.0000E+00
 12  8.3037E-02  2.0701E-02  0.0000E+00  0.0000E+00  2.7056E-02  5.0017E-01  4.2220E-02  3.2219E-03  1.0631E-01
 13  5.9771E-01  4.0269E-02  0.0000E+00  1.8275E-01  9.8409E-02  1.0037E-01  6.0912E-02  0.0000E+00  8.9014E-02
 14  0.0000E+00  1.6188E-01  9.5056E-01  8.5255E-01  0.0000E+00  0.0000E+00  2.0285E-01  2.3342E-01  3.2424E-01
 15  0.0000E+00  2.0611E-01  7.6396E-01  6.4008E-01  7.1625E-02  0.0000E+00  0.0000E+00  4.6797E-01  1.9484E+00
 16  0.0000E+00  5.7853E-01  2.8455E+00  2.8471E+00  2.8617E+00  4.1395E-01  4.7588E-01  2.9160E+00  0.0000E+00
 17  1.9690E+01  4.4466E-01  7.2721E-01  3.3827E+00  0.0000E+00  1.7544E+00  1.6750E+00  2.0896E+00  0.0000E+00
 18  8.4079E-03  1.6573E-03  1.2591E-02  2.0481E-03  1.9347E-03  1.4501E-02  1.2658E-02  4.2456E-04  0.0000E+00
 19  0.0000E+00  5.9322E-04  5.0249E-03  1.8298E-03  3.4500E-03  1.1839E-03  0.0000E+00  3.5084E-03  2.5140E-03
 20  1.1764E-05  6.4257E-04  3.1973E-03  2.0993E-03  9.5102E-04  3.6314E-03  2.6004E-03  1.4615E-03  3.0942E-03
 21  0.0000E+00  6.3618E-04  0.0000E+00  0.0000E+00  0.0000E+00  3.1800E-03  2.7954E-03  1.5004E-03  0.0000E+00
 22  0.0000E+00  1.6902E-03  9.1360E-04  1.9170E-02  7.0505E-03  9.2818E-03  0.0000E+00  2.8237E-03  1.0085E-02
 23  0.0000E+00  2.0540E-03  1.1317E-02  1.0536E-02  0.0000E+00  0.0000E+00  3.1785E-02  1.1074E-02  1.9551E-03
 24  0.0000E+00  2.4201E-03  5.6086E-03  4.2172E-03  7.5974E-03  2.1987E-03  1.8487E-04  1.1886E-02  9.0561E-03
 25  0.0000E+00  2.6646E-03  1.2655E-02  3.2821E-03  0.0000E+00  2.5671E-02  3.0789E-02  1.2450E-02  2.2701E-02
 26  0.0000E+00  4.9653E-03  1.6663E-03  2.8428E-02  1.4206E-02  0.0000E+00  2.2461E-02  2.9019E-02  5.9671E-02
 27  2.8865E-01  1.5045E-02  0.0000E+00  2.9666E-02  0.0000E+00  6.1334E-02  6.5365E-02  1.8587E-02  5.6049E-02
 28  0.0000E+00  3.7182E-02  7.3448E-02  1.6271E-01  0.0000E+00  9.9694E-02  4.0122E-03  1.4272E-01  0.0000E+00
 29  0.0000E+00  5.7795E-02  3.0199E-01  0.0000E+00  2.7472E-01  0.0000E+00  1.0172E-01  1.0387E-01  1.0016E-01
 30  0.0000E+00  1.0692E-01  1.9568E-01  1.6214E-01  1.0305E-01  0.0000E+00  4.7765E-02  2.9329E-01  5.9931E-01
 31  0.0000E+00  2.0125E-01  0.0000E+00  3.0592E-01  3.4115E-01  6.4490E-02  0.0000E+00  1.6783E-01  4.1222E-01
 32  0.0000E+00  3.4792E-01  6.0722E-02  2.2549E+00  0.0000E+00  3.6618E+00  3.6730E+00  1.3422E+00  0.0000E+00
 33  0.0000E+00  5.1982E-01  2.6265E+00  1.8352E+00  1.2132E+00  0.0000E+00  0.0000E+00  1.6072E+00  9.3415E+00
 34  0.0000E+00  8.9240E-01  8.1850E-01  3.2292E+00  2.0093E-01  0.0000E+00  6.5476E+00  1.9919E+00  1.7562E+00
 35  1.0441E-07  1.3944E-03  3.8486E-03  1.3972E-02  1.0710E-03  1.3911E-02  1.1169E-02  1.9848E-02  2.1717E-03
 36  0.0000E+00  9.5963E-04  0.0000E+00  0.0000E+00  6.3305E-04  2.4410E-03  7.1881E-03  1.7885E-03  4.0975E-03
 37  5.0002E-05  7.0118E-04  2.5931E-03  0.0000E+00  3.4962E-03  1.7905E-03  6.2697E-03  2.2286E-04  3.4002E-03
 38  0.0000E+00  1.5340E-03  1.4172E-03  3.0554E-03  0.0000E+00  2.1459E-03  0.0000E+00  7.2520E-03  2.0692E-03
 39  0.0000E+00  2.1773E-03  1.5455E-02  1.0709E-02  0.0000E+00  0.0000E+00  1.3521E-02  2.0252E-03  9.3650E-03
 40  0.0000E+00  2.4156E-03  0.0000E+00  4.7305E-03  1.6621E-02  2.4166E-02  0.0000E+00  7.9821E-03  9.0616E-03
 41  0.0000E+00  4.6234E-03  0.0000E+00  2.4591E-02  0.0000E+00  0.0000E+00  3.3070E-02  2.6259E-02  1.3178E-02
 42  1.7020E-01  7.1635E-03  7.9711E-03  8.0961E-02  1.5168E-02  3.4042E-02  1.9313E-02  0.0000E+00  2.8056E-02
 43  0.0000E+00  9.9991E-03  7.0025E-02  3.8782E-02  1.2217E-02  0.0000E+00  1.4457E-01  6.8909E-03  1.5675E-02
 44  4.7989E-01  2.6827E-02  1.2424E-01  9.4490E-03  1.2786E-01  1.2251E-01  1.9499E-01  1.9057E-01  4.6553E-02
 45  4.1559E-01  4.5457E-02  1.6061E-01  2.3487E-01  5.2638E-02  3.7426E-01  2.8384E-01  3.6582E-03  1.9155E-01
 46  0.0000E+00  1.0617E-01  0.0000E+00  0.0000E+00  9.0203E-02  1.1696E-01  7.3683E-01  0.0000E+00  5.8523E-01
 47  0.0000E+00  2.6627E-01  1.6108E+00  2.2748E+00  0.0000E+00  1.6243E+00  2.4449E-01  0.0000E+00  1.8687E+00
 48  0.0000E+00  4.0936E-01  4.9397E-02  1.3357E+00  2.3171E-01  1.0381E-01  2.2549E+00  3.0781E-01  3.5122E-01
 49  0.0000E+00  7.4658E-01  7.5413E-01  6.8399E+00  6.9177E-01  0.0000E+00  5.0909E+00  0.0000E+00  1.1419E+00
 50  1.1441E+01  1.5033E+00  0.0000E+00  5.1673E+00  2.0308E+00  1.5275E+01  0.0000E+00  4.1528E+00  2.1997E+00
 51  0.0000E+00  5.7624E-03  6.0319E-03  1.1915E-02  1.4631E-03  8.4056E-03  8.1251E-04  1.5077E-03  3.4555E-03
 52  0.0000E+00  5.2298E-04  1.8062E-03  9.2065E-04  1.3299E-03  1.1059E-03  1.3949E-04  0.0000E+00  2.0726E-03
 53  3.6710E-04  4.8299E-04  2.7044E-03  1.3994E-03  2.6189E-04  1.1132E-03  2.8675E-03  1.1967E-03  0.0000E+00
 54  0.0000E+00  1.2781E-03  2.9882E-03  1.6333E-02  3.1080E-03  7.6415E-03  0.0000E+00  7.9185E-03  4.3450E-03
 55  0.0000E+00  1.3850E-03  2.9351E-03  1.9506E-02  4.0168E-03  8.6073E-03  6.3316E-03  0.0000E+00  0.0000E+00
 56  0.0000E+00  4.3738E-03  1.2195E-02  2.9781E-03  2.5439E-02  3.9098E-03  2.8282E-02  1.6177E-02  4.8590E-03
 57  0.0000E+00  3.2541E-03  1.3407E-02  1.9189E-03  1.4381E-02  3.3355E-03  6.1929E-03  2.0822E-02  1.2674E-02
 58  2.3965E-03  7.4026E-03  2.7357E-02  1.9379E-02  2.2962E-03  4.2345E-02  0.0000E+00  3.2295E-03  2.0537E-01
 59  0.0000E+00  1.8225E-02  0.0000E+00  3.0935E-01  1.1799E-01  1.0620E-01  6.0253E-02  7.3881E-02  1.3990E-02
 60  1.3778E+00  3.0897E-02  0.0000E+00  0.0000E+00  0.0000E+00  5.7134E-01  7.2845E-02  0.0000E+00  2.2059E-02
 61  0.0000E+00  6.0496E-02  0.0000E+00  4.4462E-01  0.0000E+00  0.0000E+00  2.5219E-01  3.2221E-01  2.6567E-02
 62  3.4978E-01  1.5648E-01  0.0000E+00  9.9486E-01  3.9270E-01  1.6217E+00  9.0398E-01  0.0000E+00  1.4639E+00
 63  6.8474E+00  3.5998E-01  9.6051E-01  1.8443E+00  1.2478E+00  1.7857E+00  1.0700E+00  3.6473E-01  2.4382E+00
 64  0.0000E+00  6.4696E-01  8.8194E-01  3.2693E+00  6.4716E-01  0.0000E+00  8.9965E+00  0.0000E+00  0.0000E+00
 65  0.0000E+00  1.4313E+00  0.0000E+00  0.0000E+00  1.2913E+01  0.0000E+00  7.2946E+00  8.4876E+00  6.5360E+00
 66  5.8224E+01  9.0457E+01  8.5803E+01  6.1013E+01  7.6014E+01  7.1202E+01  5.8950E+01  7.4459E+01  6.7870E+01

# AV, chi2 & Mass for <> & i_chain = 1 ...  7 solutions
AV      -0.3391      2.3723      2.1460      2.1677      2.1861      2.2042      2.1904      2.1836      2.1306
chi2 7.7484E-06  5.2172E-04  1.5951E-04  1.3467E-04  2.2306E-04  9.6030E-05  1.1166E-04  1.8029E-04  1.2928E-04
Mass 1.4927E-13  1.0175E-11  4.1058E-12  2.9220E-12  5.2227E-12  2.6965E-12  2.6946E-12  4.5579E-12  2.9589E-12
 480.11                                  [v0_min (km/s) before EX0s...]
 442.67                                  [vd_min (km/s) before EX0s...]


## Synthetic spectrum (Best Model) ##l_obs f_obs f_syn wei
 3478    [Nl_obs]
 3741.00   -0.23757   0.54111    0.000
 3742.00   -0.28801   0.54247    0.000
 3743.00   -0.24061   0.54481    0.000
 3744.00   -0.16682   0.54851    0.000
 3745.00   -0.07766   0.55218    0.000
 3746.00    0.16053   0.55556    0.026
 3747.00    0.47442   0.55756    0.025
 3748.00    0.34676   0.55794    0.026
 3749.00    0.02494   0.55716    0.028
 3750.00    0.27045   0.55564    0.027
 3751.00    0.73015   0.55416    0.026
 3752.00    0.92710   0.55201    0.025
 3753.00    1.03983   0.55196    0.025
 3754.00    0.91725   0.55188    0.024
 3755.00    0.73161   0.55391    0.024
 3756.00    0.70897   0.55887    0.024
 3757.00    0.72210   0.56653    0.023
 3758.00    0.65393   0.57610    0.023
 3759.00    0.57156   0.58585    0.023
 3760.00    0.42275   0.59704    0.030
 3761.00    0.26510   0.60717    0.043
 3762.00    0.28505   0.61663    0.031
 3763.00    0.32169   0.62360    0.023
 3764.00    0.55882   0.62899    0.023
 3765.00    0.80752   0.63367    0.023
 3766.00    0.49133   0.63701    0.023
 3767.00    0.16631   0.63820    0.022
 3768.00    0.39437   0.63785    0.022
 3769.00    0.62427   0.63639    0.022
 3770.00    0.89896   0.63369    0.023
 3771.00    1.13716   0.63184    0.023
 3772.00    0.89714   0.62948    0.023
 3773.00    0.66944   0.62807    0.022
 3774.00    0.54983   0.62897    0.023
 3775.00    0.46822   0.63212    0.023
 3776.00    0.63304   0.63705    0.023
 3777.00    0.78640   0.64484    0.024
 3778.00    0.88178   0.65579    0.024
 3779.00    0.90921   0.66845    0.023
 3780.00    0.65848   0.68257    0.023
 3781.00    0.39989   0.69771    0.023
 3782.00    0.11469   0.71313    0.023
 3783.00    0.02042   0.72849    0.023
 3784.00    0.47221   0.74269    0.024
 3785.00    0.74118   0.75479    0.024
 3786.00    0.56350   0.76505    0.024
 3787.00    0.38269   0.77178    0.023
 3788.00    0.19529   0.77549    0.023
 3789.00    0.21860   0.77536    0.023
 3790.00    0.62785   0.77157    0.023
 3791.00    0.82016   0.76464    0.022
 3792.00    0.66519   0.75333    0.022
 3793.00    0.51486   0.74078    0.022
 3794.00    0.37106   0.72559    0.021
 3795.00    0.39039   0.70967    0.021
 3796.00    0.61135   0.69259    0.021
 3797.00    0.62766   0.67582    0.021
 3798.00    0.42100   0.65962    0.021
 3799.00    0.29715   0.64418    0.021
 3800.00    0.25288   0.63156    0.021
 3801.00    0.24616   0.62082    0.022
 3802.00    0.27125   0.61457    0.021
 3803.00    0.26059   0.61164    0.021
 3804.00    0.22326   0.61320    0.021
 3805.00    0.28079   0.61935    0.021
 3806.00    0.40049   0.62944    0.022
 3807.00    0.41498   0.64284    0.022
 3808.00    0.36910   0.65747    0.021
 3809.00    0.55044   0.67431    0.022
 3810.00    0.84535   0.69082    0.022
 3811.00    0.97612   0.70730    0.024
 3812.00    1.03590   0.72289    0.027
 3813.00    0.89250   0.73695    0.025
 3814.00    0.67374   0.74979    0.023
 3815.00    0.77510   0.75991    0.022
 3816.00    0.97708   0.76713    0.022
 3817.00    0.98864   0.77062    0.024
 3818.00    0.95026   0.77202    0.027
 3819.00    1.00555   0.77056    0.025
 3820.00    1.08091   0.76743    0.023
 3821.00    0.75894   0.76288    0.022
 3822.00    0.36953   0.75670    0.021
 3823.00    0.18863   0.74935    0.021
 3824.00    0.03448   0.74015    0.021
 3825.00    0.22386   0.72974    0.021
 3826.00    0.44408   0.71812    0.021
 3827.00    0.43199   0.70614    0.021
 3828.00    0.40742   0.69295    0.021
 3829.00    0.24603   0.67852    0.021
 3830.00    0.08363   0.66295    0.022
 3831.00    0.06837   0.64664    0.021
 3832.00    0.06307   0.62996    0.021
 3833.00    0.27880   0.61288    0.021
 3834.00    0.48890   0.59624    0.021
 3835.00    0.62901   0.58004    0.021
 3836.00    0.74167   0.56461    0.022
 3837.00    0.62236   0.55070    0.022
 3838.00    0.51627   0.53870    0.023
 3839.00    0.49331   0.53032    0.022
 3840.00    0.54636   0.52563    0.021
 3841.00    0.97440   0.52490    0.021
 3842.00    1.24306   0.52808    0.021
 3843.00    0.87371   0.53551    0.021
 3844.00    0.45167   0.54657    0.022
 3845.00   -0.14551   0.56092    0.000
 3846.00   -0.48610   0.57886    0.000
 3847.00   -0.10613   0.59848    0.000
 3848.00    0.12476   0.62039    0.000
 3849.00   -0.00242   0.64246    0.000
 3850.00   -0.12049   0.66421    0.000
 3851.00   -0.21969   0.68521    0.000
 3852.00   -0.03539   0.70471    0.000
 3853.00    0.66024   0.72232    0.000
 3854.00    1.05664   0.73776    0.000
 3855.00    0.98113   0.75165    0.000
 3856.00    0.87228   0.76300    0.000
 3857.00    0.71728   0.77221    0.000
 3858.00    0.64440   0.77986    0.000
 3859.00    0.67156   0.78560    0.000
 3860.00    0.88213   0.78978    0.000
 3861.00    1.28972   0.79393    0.000
 3862.00    1.50611   0.79632    0.000
 3863.00    1.54136   0.79845    0.000
 3864.00    1.43685   0.80107    0.000
 3865.00    1.21560   0.80376    0.000
 3866.00    1.01961   0.80652    0.000
 3867.00    0.84222   0.80866    0.000
 3868.00    0.81786   0.81098    0.000
 3869.00    0.89235   0.81181    0.000
 3870.00    0.97306   0.81287    0.000
 3871.00    1.05730   0.81334    0.000
 3872.00    1.04604   0.81250    0.000
 3873.00    0.98780   0.81127    0.000
 3874.00    0.88952   0.80841    0.000
 3875.00    0.77423   0.80445    0.000
 3876.00    0.64959   0.79862    0.000
 3877.00    0.52154   0.79251    0.000
 3878.00    0.42095   0.78558    0.000
 3879.00    0.32881   0.77785    0.000
 3880.00    0.31453   0.76920    0.000
 3881.00    0.32023   0.75921   -1.000
 3882.00    0.36210   0.74708   -1.000
 3883.00    0.41153   0.73446   -1.000
 3884.00    0.47832   0.72184   -1.000
 3885.00    0.54797   0.70777   -1.000
 3886.00    0.51935   0.69370   -1.000
 3887.00    0.47855   0.67959   -1.000
 3888.00    0.38854   0.66626   -1.000
 3889.00    0.29431   0.65225   -1.000
 3890.00   -0.04170   0.63912    0.000
 3891.00   -0.38976   0.62854    0.000
 3892.00    0.02715   0.61978    0.021
 3893.00    0.45133   0.61457    0.020
 3894.00    0.53622   0.61327    0.020
 3895.00    0.61141   0.61510    0.020
 3896.00    0.48802   0.62074    0.020
 3897.00    0.40314   0.62857    0.020
 3898.00    0.77371   0.63973    0.020
 3899.00    1.07158   0.65216    0.020
 3900.00    0.77715   0.66688    0.019
 3901.00    0.56346   0.68432    0.019
 3902.00    0.84290   0.70054    0.019
 3903.00    1.05768   0.71811    0.019
 3904.00    0.96127   0.73465    0.018
 3905.00    0.87602   0.75193    0.017
 3906.00    0.83445   0.76764    0.017
 3907.00    0.81342   0.78171    0.017
 3908.00    0.85936   0.79706    0.018
 3909.00    0.85554   0.80949    0.018
 3910.00    0.71451   0.82202    0.018
 3911.00    0.63669   0.83444    0.019
 3912.00    0.70814   0.84657    0.019
 3913.00    0.82201   0.85785    0.019
 3914.00    1.02246   0.86722    0.019
 3915.00    1.08921   0.87617    0.020
 3916.00    0.91849   0.88322    0.020
 3917.00    0.69456   0.88813    0.020
 3918.00    0.38797   0.89203    0.019
 3919.00    0.34985   0.89486    0.019
 3920.00    0.67802   0.89475    0.019
 3921.00    0.91936   0.89358    0.020
 3922.00    1.05639   0.88974    0.020
 3923.00    1.01128   0.88398    0.020
 3924.00    0.77329   0.87620    0.019
 3925.00    0.67522   0.86633    0.019
 3926.00    0.70788   0.85650    0.020
 3927.00    0.67210   0.84362    0.020
 3928.00    0.57998   0.83053    0.020
 3929.00    0.40467   0.81486    0.020
 3930.00    0.16907   0.79704    0.020
 3931.00    0.11719   0.77883    0.020
 3932.00    0.18222   0.75912    0.020
 3933.00    0.23258   0.74058    0.020
 3934.00    0.27476   0.72159    0.020
 3935.00    0.45149   0.70403    0.020
 3936.00    0.69336   0.68792    0.020
 3937.00    0.79962   0.67326    0.020
 3938.00    0.84918   0.66292    0.020
 3939.00    0.93660   0.65694    0.021
 3940.00    1.03755   0.65557    0.021
 3941.00    0.87704   0.65821    0.020
 3942.00    0.63751   0.66474    0.020
 3943.00    0.92441   0.67516    0.020
 3944.00    1.34353   0.68809    0.021
 3945.00    1.18559   0.70289    0.021
 3946.00    0.90999   0.72026    0.021
 3947.00    0.90426   0.73831    0.021
 3948.00    0.94175   0.75584    0.021
 3949.00    0.52700   0.77353    0.021
 3950.00    0.05826   0.79075    0.021
 3951.00    0.56747   0.80578    0.021
 3952.00    1.15631   0.81767    0.021
 3953.00    1.31212   0.82813    0.021
 3954.00    1.44802   0.83703    0.021
 3955.00    1.31774   0.84338    0.021
 3956.00    1.18393   0.84689    0.021
 3957.00    1.04224   0.84824    0.021
 3958.00    0.90758   0.84694    0.021
 3959.00    0.90624   0.84113    0.021
 3960.00    0.92054   0.83182    0.000
 3961.00    1.11117   0.82045    0.000
 3962.00    1.25338   0.80642    0.000
 3963.00    1.01511   0.78855    0.000
 3964.00    0.79811   0.76708    0.000
 3965.00    0.70733   0.74243    0.000
 3966.00    0.65856   0.71574    0.000
 3967.00    0.80702   0.68768    0.000
 3968.00    0.87819   0.65958    0.000
 3969.00    0.65312   0.63223    0.000
 3970.00    0.52973   0.60517    0.000
 3971.00    0.73130   0.57998    0.000
 3972.00    0.89562   0.55774    0.000
 3973.00    0.95904   0.54068    0.000
 3974.00    0.93063   0.53029    0.000
 3975.00    0.68901   0.52608    0.000
 3976.00    0.56850   0.52806    0.000
 3977.00    0.69125   0.53578    0.000
 3978.00    0.83660   0.54893    0.000
 3979.00    1.02147   0.56797    0.000
 3980.00    1.08078   0.59152    0.000
 3981.00    0.94785   0.61894    0.020
 3982.00    0.82675   0.64973    0.020
 3983.00    0.72155   0.68129    0.020
 3984.00    0.72925   0.71340    0.020
 3985.00    0.87066   0.74452    0.020
 3986.00    0.94090   0.77364    0.020
 3987.00    0.93683   0.80208    0.020
 3988.00    0.89288   0.82811    0.020
 3989.00    0.81221   0.85291    0.020
 3990.00    0.75547   0.87508    0.020
 3991.00    0.71815   0.89392    0.019
 3992.00    0.59394   0.91229    0.019
 3993.00    0.40765   0.92653    0.019
 3994.00    0.55569   0.93950    0.020
 3995.00    0.91335   0.95182    0.020
 3996.00    0.94426   0.96244    0.020
 3997.00    0.79609   0.97263    0.019
 3998.00    0.76271   0.97948    0.019
 3999.00    0.78400   0.98647    0.020
 4000.00    0.83158   0.99217    0.020
 4001.00    0.88997   0.99640    0.020
 4002.00    1.10176   1.00068    0.020
 4003.00    1.36742   1.00525    0.020
 4004.00    1.36840   1.00984    0.020
 4005.00    1.29094   1.01251    0.020
 4006.00    1.14563   1.01525    0.020
 4007.00    0.98366   1.01816    0.020
 4008.00    1.15396   1.02078    0.020
 4009.00    1.39032   1.02200    0.020
 4010.00    1.09229   1.02494    0.020
 4011.00    0.71121   1.02936    0.020
 4012.00    0.74621   1.03319    0.020
 4013.00    0.82906   1.03673    0.020
 4014.00    0.91025   1.03945    0.020
 4015.00    0.99132   1.04372    0.020
 4016.00    1.11061   1.04763    0.020
 4017.00    1.23152   1.05245    0.020
 4018.00    1.13219   1.05762    0.020
 4019.00    1.03569   1.06199    0.020
 4020.00    1.15104   1.06641    0.020
 4021.00    1.26922   1.06827    0.019
 4022.00    1.43739   1.07102    0.020
 4023.00    1.57462   1.07434    0.020
 4024.00    1.37891   1.07605    0.020
 4025.00    1.19857   1.07711    0.019
 4026.00    1.13490   1.07636    0.019
 4027.00    1.05585   1.07535    0.019
 4028.00    0.88806   1.07331    0.019
 4029.00    0.76266   1.07035    0.019
 4030.00    0.83157   1.06838    0.019
 4031.00    0.90003   1.06547    0.019
 4032.00    0.96679   1.06176    0.019
 4033.00    1.00000   1.05775    0.019
 4034.00    0.92804   1.05262    0.018
 4035.00    0.87836   1.04911    0.018
 4036.00    0.88792   1.04693    0.018
 4037.00    0.94641   1.04440    0.018
 4038.00    1.11663   1.04349    0.019
 4039.00    1.16291   1.04252    0.019
 4040.00    0.96415   1.04260    0.019
 4041.00    0.95001   1.04378    0.019
 4042.00    1.25390   1.04389    0.019
 4043.00    1.34461   1.04492    0.019
 4044.00    1.11371   1.04579    0.019
 4045.00    0.98812   1.04641    0.019
 4046.00    1.00213   1.04773    0.019
 4047.00    0.99540   1.04722    0.019
 4048.00    0.96444   1.04530    0.019
 4049.00    0.95453   1.04225    0.019
 4050.00    0.96629   1.03965    0.019
 4051.00    0.85898   1.04044    0.019
 4052.00    0.64355   1.04039    0.019
 4053.00    0.70808   1.03872    0.019
 4054.00    0.99669   1.03669    0.019
 4055.00    1.15875   1.03497    0.019
 4056.00    1.23170   1.03512    0.020
 4057.00    1.18810   1.03546    0.020
 4058.00    1.07252   1.03539    0.020
 4059.00    1.12417   1.03432    0.020
 4060.00    1.26607   1.03239    0.020
 4061.00    1.07668   1.02921    0.019
 4062.00    0.73203   1.02647    0.019
 4063.00    0.90183   1.02444    0.019
 4064.00    1.27948   1.02193    0.020
 4065.00    1.24636   1.01893    0.020
 4066.00    1.07160   1.01456    0.019
 4067.00    1.01737   1.00992    0.019
 4068.00    0.99814   1.00650    0.019
 4069.00    0.96085   1.00566    0.019
 4070.00    0.91923   1.00409    0.019
 4071.00    0.84947   1.00111    0.019
 4072.00    0.77427   0.99891    0.019
 4073.00    0.99884   0.99741    0.019
 4074.00    1.26858   0.99725    0.019
 4075.00    1.18019   0.99531    0.019
 4076.00    1.05219   0.99319    0.019
 4077.00    1.28080   0.99423    0.019
 4078.00    1.53553   0.99465    0.019
 4079.00    1.22684   0.99327    0.019
 4080.00    0.89659   0.99053    0.019
 4081.00    0.91122   0.98847    0.019
 4082.00    0.93349   0.99030    0.019
 4083.00    1.17157   0.99243    0.019
 4084.00    1.38937   0.99351    0.019
 4085.00    1.27292   0.99466    0.019
 4086.00    1.15119   0.99447    0.018
 4087.00    0.97500   0.99541    0.018
 4088.00    0.79158   0.99785    0.018
 4089.00    0.55509   0.99958    0.018
 4090.00    0.38540   1.00125    0.018
 4091.00    0.59042   1.00041    0.018
 4092.00    0.79653   0.99716    0.000
 4093.00    1.00752   0.99304    0.000
 4094.00    1.15062   0.98638    0.000
 4095.00    1.04436   0.97902    0.000
 4096.00    0.96432   0.96942    0.000
 4097.00    0.96489   0.95702    0.000
 4098.00    1.00597   0.94257    0.000
 4099.00    1.15287   0.92453    0.000
 4100.00    1.31744   0.90634    0.000
 4101.00    1.52171   0.88806    0.000
 4102.00    1.58914   0.87010    0.000
 4103.00    1.39031   0.85319    0.000
 4104.00    1.15317   0.83528    0.000
 4105.00    0.85104   0.81932    0.000
 4106.00    0.70997   0.80783    0.000
 4107.00    0.80830   0.80103    0.000
 4108.00    0.82059   0.79742    0.000
 4109.00    0.72046   0.79608    0.000
 4110.00    0.71190   0.79757    0.000
 4111.00    0.80874   0.80331    0.000
 4112.00    0.89341   0.81433    0.000
 4113.00    0.96572   0.82695    0.018
 4114.00    1.02512   0.84053    0.018
 4115.00    1.07295   0.85567    0.018
 4116.00    1.04008   0.87066    0.018
 4117.00    0.94353   0.88664    0.018
 4118.00    0.92589   0.90198    0.025
 4119.00    0.96301   0.91606    0.092
 4120.00    0.90402   0.92940   -1.000
 4121.00    0.78655   0.94124   -1.000
 4122.00    0.79625   0.95194   -1.000
 4123.00    0.87350   0.96094   -1.000
 4124.00    0.93746   0.96897   -1.000
 4125.00    0.99528   0.97552   -1.000
 4126.00    0.99633   0.98065    0.048
 4127.00    0.97483   0.98412    0.020
 4128.00    0.98897   0.98668    0.018
 4129.00    1.01519   0.98987    0.018
 4130.00    1.04003   0.99134    0.018
 4131.00    1.06449   0.99121    0.018
 4132.00    1.00675   0.99110    0.018
 4133.00    0.92972   0.99163    0.018
 4134.00    0.89581   0.99219    0.018
 4135.00    0.87003   0.99218    0.018
 4136.00    1.04235   0.99063    0.018
 4137.00    1.24360   0.99111    0.018
 4138.00    1.20419   0.99311    0.019
 4139.00    1.13922   0.99430    0.019
 4140.00    1.13137   0.99633    0.019
 4141.00    1.12747   0.99568    0.019
 4142.00    1.01312   0.99754    0.018
 4143.00    0.89495   1.00048    0.018
 4144.00    1.22943   1.00191    0.019
 4145.00    1.54926   1.00391    0.019
 4146.00    1.35551   1.00210    0.019
 4147.00    1.16172   1.00158    0.019
 4148.00    0.96748   1.00223    0.018
 4149.00    0.76450   1.00249    0.018
 4150.00    0.47533   1.00284    0.018
 4151.00    0.26821   0.99997    0.018
 4152.00    0.64358   0.99789    0.018
 4153.00    1.00516   0.99720    0.019
 4154.00    1.29142   0.99811    0.019
 4155.00    1.46290   0.99946    0.018
 4156.00    1.13265   0.99827    0.018
 4157.00    0.86896   0.99834    0.018
 4158.00    0.84467   0.99848    0.018
 4159.00    0.87430   1.00050    0.018
 4160.00    1.06664   1.00376    0.018
 4161.00    1.21245   1.00511    0.018
 4162.00    1.23877   1.00828    0.018
 4163.00    1.29525   1.00995    0.018
 4164.00    1.41835   1.01248    0.018
 4165.00    1.45820   1.01588    0.018
 4166.00    1.33859   1.01778    0.018
 4167.00    1.27151   1.02103    0.018
 4168.00    1.29221   1.02184    0.018
 4169.00    1.21493   1.02185    0.018
 4170.00    0.99413   1.02146    0.018
 4171.00    0.83372   1.01960    0.017
 4172.00    0.75111   1.01859    0.017
 4173.00    0.71056   1.01596    0.017
 4174.00    0.71775   1.01140    0.017
 4175.00    0.79274   1.00660    0.017
 4176.00    0.93558   1.00123    0.017
 4177.00    1.02295   0.99716    0.017
 4178.00    1.06135   0.99413    0.017
 4179.00    1.07186   0.98980    0.017
 4180.00    1.06069   0.98579    0.017
 4181.00    1.06842   0.98211    0.017
 4182.00    1.08907   0.98064    0.017
 4183.00    1.03744   0.98150    0.017
 4184.00    0.94248   0.98179    0.017
 4185.00    1.06329   0.98211    0.017
 4186.00    1.29694   0.98216    0.017
 4187.00    1.46354   0.98475    0.017
 4188.00    1.59972   0.98833    0.017
 4189.00    1.49228   0.99107    0.017
 4190.00    1.28977   0.99357    0.017
 4191.00    1.15723   0.99443    0.017
 4192.00    1.04792   0.99765    0.017
 4193.00    1.01145   1.00048    0.017
 4194.00    0.99530   1.00178    0.017
 4195.00    0.95835   1.00265    0.017
 4196.00    0.91663   1.00175    0.017
 4197.00    1.02464   1.00254    0.017
 4198.00    1.16015   1.00229    0.017
 4199.00    1.07282   1.00071    0.017
 4200.00    0.95397   0.99849    0.017
 4201.00    0.96409   0.99574    0.017
 4202.00    0.98736   0.99475    0.017
 4203.00    1.05646   0.99277    0.017
 4204.00    1.12853   0.99095    0.017
 4205.00    1.07720   0.98960    0.017
 4206.00    1.02247   0.98864    0.017
 4207.00    1.22048   0.99010    0.017
 4208.00    1.40881   0.99138    0.017
 4209.00    1.31302   0.99312    0.017
 4210.00    1.22540   0.99659    0.017
 4211.00    1.25659   0.99967    0.017
 4212.00    1.28634   1.00363    0.017
 4213.00    1.30234   1.00794    0.017
 4214.00    1.30760   1.01127    0.017
 4215.00    1.23899   1.01577    0.017
 4216.00    1.16923   1.01960    0.017
 4217.00    1.09335   1.02133    0.018
 4218.00    1.03243   1.02342    0.017
 4219.00    1.03540   1.02440    0.017
 4220.00    1.04016   1.02526    0.017
 4221.00    1.05124   1.02613    0.017
 4222.00    1.05946   1.02388    0.017
 4223.00    1.05925   1.02118    0.017
 4224.00    1.01520   1.01799    0.017
 4225.00    0.86051   1.01440    0.017
 4226.00    0.86097   1.01068    0.017
 4227.00    1.19860   1.00530    0.017
 4228.00    1.33740   0.99936    0.017
 4229.00    1.10125   0.99293    0.017
 4230.00    0.92230   0.98810    0.016
 4231.00    0.83751   0.98386    0.016
 4232.00    0.76624   0.98009    0.016
 4233.00    0.71445   0.97769    0.016
 4234.00    0.71324   0.97474    0.016
 4235.00    0.77622   0.97453    0.016
 4236.00    0.84474   0.97658    0.016
 4237.00    0.91945   0.97861    0.016
 4238.00    1.02406   0.98254    0.016
 4239.00    1.15817   0.98592    0.016
 4240.00    1.24927   0.98952    0.016
 4241.00    1.30294   0.99572    0.016
 4242.00    1.30637   1.00063    0.016
 4243.00    1.27129   1.00599    0.017
 4244.00    1.05706   1.01102    0.017
 4245.00    0.72209   1.01433    0.017
 4246.00    0.79091   1.01931    0.017
 4247.00    1.09813   1.02251    0.018
 4248.00    1.27184   1.02543    0.018
 4249.00    1.37682   1.02722    0.018
 4250.00    1.26649   1.02722    0.018
 4251.00    1.06009   1.02854    0.018
 4252.00    1.02510   1.02696    0.018
 4253.00    1.05584   1.02555    0.017
 4254.00    0.95657   1.02367    0.017
 4255.00    0.81494   1.02045    0.017
 4256.00    0.66465   1.01939    0.017
 4257.00    0.51200   1.01531    0.017
 4258.00    0.65149   1.01245    0.017
 4259.00    0.85645   1.01199    0.017
 4260.00    0.87988   1.01020    0.017
 4261.00    0.87083   1.01029    0.017
 4262.00    0.84927   1.00857    0.017
 4263.00    0.82599   1.00823    0.017
 4264.00    0.81884   1.01156    0.017
 4265.00    0.81326   1.01271    0.017
 4266.00    0.82336   1.01380    0.017
 4267.00    0.83442   1.01418    0.017
 4268.00    0.86335   1.01441    0.017
 4269.00    0.89198   1.01669    0.016
 4270.00    0.76767   1.01687    0.016
 4271.00    0.65145   1.01492    0.016
 4272.00    0.74892   1.01302    0.016
 4273.00    0.84990   1.00962    0.016
 4274.00    0.99902   1.00635    0.016
 4275.00    1.13388   1.00401    0.017
 4276.00    1.13918   0.99936    0.017
 4277.00    1.14977   0.99567    0.017
 4278.00    1.19561   0.99199    0.017
 4279.00    1.23473   0.98783    0.017
 4280.00    1.23909   0.98844    0.017
 4281.00    1.15485   0.98735    0.016
 4282.00    0.70078   0.98551   -2.000
 4283.00    0.32879   0.98639   -2.000
 4284.00    0.24014   0.98563   -2.000
 4285.00    0.19591   0.98844   -2.000
 4286.00    0.28079   0.98995   -2.000
 4287.00    0.44937   0.98695   -2.000
 4288.00    0.82552   0.98692   -2.000
 4289.00    1.22477   0.98569   -2.000
 4290.00    1.67339   0.98442   -2.000
 4291.00    1.82599   0.98215   -2.000
 4292.00    1.42894   0.97549   -2.000
 4293.00    1.18079   0.97036   -2.000
 4294.00    1.17414   0.96662   -2.000
 4295.00    1.03428   0.96235   -2.000
 4296.00    0.70491   0.95496   -2.000
 4297.00    0.54448   0.94657   -2.000
 4298.00    0.59547   0.93962    0.016
 4299.00    0.73278   0.93377    0.016
 4300.00    0.96528   0.92879    0.016
 4301.00    1.07390   0.91782    0.016
 4302.00    1.06199   0.90778    0.016
 4303.00    1.12232   0.90173    0.016
 4304.00    1.24464   0.89374    0.017
 4305.00    1.21165   0.88754    0.016
 4306.00    1.06131   0.87755    0.016
 4307.00    1.00833   0.86815    0.016
 4308.00    1.02002   0.86585    0.016
 4309.00    1.04892   0.86116    0.016
 4310.00    1.08783   0.85767    0.016
 4311.00    1.04027   0.85655    0.016
 4312.00    0.94888   0.85572    0.016
 4313.00    1.07861   0.86125    0.016
 4314.00    1.30538   0.86669    0.016
 4315.00    1.18966   0.87220    0.016
 4316.00    0.94491   0.88224    0.016
 4317.00    0.81515   0.89259    0.016
 4318.00    0.72215   0.90597    0.016
 4319.00    0.70555   0.91878    0.016
 4320.00    0.70937   0.92970    0.016
 4321.00    0.67991   0.94233    0.016
 4322.00    0.64317   0.95317    0.016
 4323.00    0.65564   0.96455    0.016
 4324.00    0.67667   0.97363    0.016
 4325.00    0.81049   0.97751    0.016
 4326.00    0.95923   0.98147    0.016
 4327.00    0.90177   0.98231    0.016
 4328.00    0.82504   0.98214    0.017
 4329.00    0.84469   0.98301    0.017
 4330.00    0.86985   0.97883    0.000
 4331.00    0.92431   0.97424    0.000
 4332.00    0.97859   0.96802    0.000
 4333.00    0.93460   0.96051    0.000
 4334.00    0.89860   0.95765    0.000
 4335.00    1.05462   0.95239    0.000
 4336.00    1.19467   0.94409    0.000
 4337.00    1.12682   0.93443    0.000
 4338.00    1.06365   0.92452    0.000
 4339.00    1.04128   0.91680    0.000
 4340.00    1.08368   0.90791    0.000
 4341.00    1.54435   0.89720    0.000
 4342.00    1.83275   0.88572    0.000
 4343.00    1.25201   0.87599    0.000
 4344.00    0.79563   0.86722    0.000
 4345.00    0.84689   0.85891    0.000
 4346.00    0.83371   0.85380    0.000
 4347.00    0.60257   0.85010    0.000
 4348.00    0.49208   0.84952    0.000
 4349.00    0.72587   0.85300    0.000
 4350.00    0.96193   0.85689    0.000
 4351.00    1.20352   0.86340    0.017
 4352.00    1.38402   0.87341    0.021
 4353.00    1.43604   0.88287    0.053
 4354.00    1.56647   0.89385   -1.000
 4355.00    1.84025   0.90733   -1.000
 4356.00    1.89626   0.92105   -1.000
 4357.00    1.60434   0.93463   -1.000
 4358.00    1.36578   0.94480   -1.000
 4359.00    1.20202   0.95514   -1.000
 4360.00    1.04558   0.96992    0.073
 4361.00    0.89815   0.98284    0.022
 4362.00    0.81306   0.99277    0.016
 4363.00    0.79575   1.00318    0.016
 4364.00    0.82226   1.01379    0.017
 4365.00    0.89080   1.02366    0.017
 4366.00    0.89520   1.03135    0.017
 4367.00    0.84534   1.03881    0.017
 4368.00    0.96192   1.04753    0.017
 4369.00    1.20247   1.05335    0.017
 4370.00    1.19527   1.05597    0.017
 4371.00    1.02596   1.05933    0.017
 4372.00    0.89427   1.06245    0.017
 4373.00    0.78412   1.06344    0.017
 4374.00    0.90635   1.06145    0.017
 4375.00    1.14448   1.05870    0.017
 4376.00    1.11435   1.05743    0.017
 4377.00    0.96845   1.05366    0.017
 4378.00    0.93444   1.04885    0.017
 4379.00    0.94183   1.04525    0.017
 4380.00    0.79301   1.04049    0.017
 4381.00    0.59521   1.03392    0.017
 4382.00    0.83052   1.02581    0.017
 4383.00    1.17913   1.02054    0.017
 4384.00    1.28544   1.01717    0.017
 4385.00    1.33999   1.01060    0.017
 4386.00    1.13189   1.00288    0.017
 4387.00    0.87937   0.99661    0.016
 4388.00    0.91503   0.99413    0.017
 4389.00    0.98751   0.99108    0.017
 4390.00    1.04969   0.98437    0.017
 4391.00    1.11096   0.98112    0.017
 4392.00    0.99284   0.98209    0.017
 4393.00    0.86517   0.98516    0.016
 4394.00    1.17917   0.98678    0.017
 4395.00    1.49383   0.98761    0.017
 4396.00    1.15887   0.99234    0.017
 4397.00    0.84426   0.99657    0.017
 4398.00    0.97687   1.00115    0.017
 4399.00    1.08215   1.00745    0.017
 4400.00    0.84972   1.01255    0.017
 4401.00    0.67382   1.01750    0.017
 4402.00    0.97353   1.01895    0.017
 4403.00    1.21932   1.02127    0.017
 4404.00    1.12723   1.02735    0.017
 4405.00    1.06292   1.02904    0.017
 4406.00    1.13528   1.02796    0.017
 4407.00    1.18067   1.02656    0.017
 4408.00    1.11842   1.02684    0.017
 4409.00    1.04637   1.03040    0.017
 4410.00    0.94177   1.02980    0.017
 4411.00    0.85434   1.02624    0.016
 4412.00    0.81502   1.02748    0.016
 4413.00    0.87610   1.03143    0.016
 4414.00    1.17781   1.03346    0.017
 4415.00    1.30868   1.03411    0.017
 4416.00    1.08596   1.03542    0.017
 4417.00    0.99195   1.03990    0.016
 4418.00    1.12963   1.04517    0.017
 4419.00    1.15381   1.04732    0.017
 4420.00    0.99934   1.05086    0.017
 4421.00    0.98072   1.05433    0.017
 4422.00    1.14983   1.05620    0.017
 4423.00    1.24800   1.06066    0.017
 4424.00    1.25987   1.06209    0.017
 4425.00    1.19699   1.06357    0.016
 4426.00    1.05396   1.06794    0.016
 4427.00    0.93488   1.06910    0.016
 4428.00    0.83844   1.07037    0.016
 4429.00    0.93276   1.06917    0.016
 4430.00    1.18615   1.06875    0.017
 4431.00    1.14967   1.07237    0.017
 4432.00    0.90039   1.07064    0.017
 4433.00    0.91716   1.06960    0.017
 4434.00    1.10546   1.07001    0.017
 4435.00    1.07285   1.06915    0.017
 4436.00    0.91564   1.07004    0.017
 4437.00    1.15186   1.06600    0.018
 4438.00    1.58122   1.06534    0.019
 4439.00    1.66242   1.06955    0.020
 4440.00    1.59589   1.06823    0.019
 4441.00    1.67064   1.06784    0.020
 4442.00    1.79674   1.06795    0.020
 4443.00    1.50537   1.06863    0.019
 4444.00    1.08562   1.07238    0.017
 4445.00    0.99968   1.07240    0.017
 4446.00    0.99920   1.07348    0.017
 4447.00    0.98004   1.07812    0.017
 4448.00    0.95698   1.07933    0.016
 4449.00    0.92297   1.07863    0.016
 4450.00    0.88716   1.07983    0.016
 4451.00    1.08994   1.08118    0.016
 4452.00    1.32214   1.08233    0.016
 4453.00    1.28774   1.08257    0.016
 4454.00    1.23067   1.07987    0.016
 4455.00    0.99599   1.07890    0.016
 4456.00    0.75254   1.07721    0.016
 4457.00    0.97263   1.07057    0.016
 4458.00    1.19689   1.06706    0.016
 4459.00    1.22023   1.06478    0.016
 4460.00    1.23991   1.05943    0.016
 4461.00    1.18543   1.05432    0.000
 4462.00    1.14203   1.04905    0.000
 4463.00    1.22890   1.04494    0.000
 4464.00    1.30514   1.04225    0.000
 4465.00    1.29512   1.03908    0.000
 4466.00    1.28555   1.03702    0.000
 4467.00    1.27878   1.03802    0.000
 4468.00    1.24577   1.03813    0.000
 4469.00    1.08689   1.03768    0.000
 4470.00    0.96924   1.04190    0.000
 4471.00    1.01267   1.04558    0.000
 4472.00    1.05699   1.04898    0.000
 4473.00    1.10423   1.05513    0.000
 4474.00    1.15879   1.05986    0.000
 4475.00    1.23351   1.06592    0.000
 4476.00    1.27331   1.07170    0.000
 4477.00    1.23080   1.07614    0.000
 4478.00    1.17675   1.08300    0.000
 4479.00    1.09922   1.08846    0.000
 4480.00    1.05048   1.09288    0.000
 4481.00    1.05277   1.09752    0.000
 4482.00    1.02274   1.10008    0.015
 4483.00    0.94257   1.10243    0.016
 4484.00    0.93691   1.10504    0.016
 4485.00    1.03274   1.10723    0.016
 4486.00    1.18705   1.10841    0.016
 4487.00    1.41149   1.10849    0.016
 4488.00    1.39742   1.10858    0.016
 4489.00    1.13118   1.10857    0.016
 4490.00    0.93494   1.10811    0.016
 4491.00    0.80398   1.10720    0.016
 4492.00    0.91266   1.10675    0.016
 4493.00    1.21836   1.10747    0.016
 4494.00    1.31640   1.10813    0.016
 4495.00    1.26416   1.10719    0.016
 4496.00    1.25202   1.10577    0.016
 4497.00    1.26536   1.10666    0.016
 4498.00    1.27665   1.10798    0.016
 4499.00    1.28682   1.10925    0.016
 4500.00    1.14135   1.11115    0.016
 4501.00    0.92069   1.11300    0.016
 4502.00    0.88080   1.11735    0.016
 4503.00    0.91632   1.12033    0.016
 4504.00    0.92993   1.12261    0.016
 4505.00    0.93571   1.12887    0.016
 4506.00    0.99374   1.13396    0.016
 4507.00    1.06752   1.13905    0.015
 4508.00    1.20201   1.14398    0.015
 4509.00    1.35169   1.14768    0.015
 4510.00    1.37079   1.15383    0.015
 4511.00    1.36333   1.15660    0.015
 4512.00    1.28106   1.15868    0.015
 4513.00    1.18684   1.16302    0.016
 4514.00    1.24489   1.16347    0.015
 4515.00    1.32104   1.16404    0.015
 4516.00    1.19227   1.16322    0.015
 4517.00    1.04693   1.16054    0.015
 4518.00    1.18560   1.16053    0.016
 4519.00    1.33719   1.15670    0.016
 4520.00    1.35189   1.15264    0.015
 4521.00    1.36144   1.15004    0.015
 4522.00    1.19386   1.14373    0.015
 4523.00    1.03137   1.14045    0.015
 4524.00    0.96454   1.13472    0.015
 4525.00    0.92050   1.12632    0.015
 4526.00    1.13189   1.12360    0.015
 4527.00    1.31619   1.11639    0.016
 4528.00    1.28855   1.10850    0.015
 4529.00    1.24132   1.10333    0.015
 4530.00    1.07823   1.09436    0.015
 4531.00    0.98022   1.09018    0.015
 4532.00    1.18685   1.08409    0.015
 4533.00    1.30464   1.07476    0.015
 4534.00    1.08287   1.07297    0.015
 4535.00    0.90091   1.06822    0.015
 4536.00    0.84584   1.06336    0.015
 4537.00    0.81656   1.06238    0.016
 4538.00    0.85694   1.05944    0.015
 4539.00    0.93550   1.06192    0.015
 4540.00    1.10257   1.06350    0.015
 4541.00    1.16697   1.06288    0.015
 4542.00    1.02557   1.06792    0.016
 4543.00    0.90113   1.06990    0.016
 4544.00    0.80629   1.07272    0.015
 4545.00    0.87996   1.07762    0.015
 4546.00    1.21111   1.07889    0.016
 4547.00    1.34399   1.08390    0.016
 4548.00    1.21069   1.08672    0.015
 4549.00    1.13194   1.08688    0.015
 4550.00    1.11765   1.09047    0.000
 4551.00    1.15018   1.08871    0.000
 4552.00    1.23153   1.08860    0.000
 4553.00    1.25364   1.09270    0.000
 4554.00    1.22131   1.09011    0.000
 4555.00    1.17509   1.08975    0.000
 4556.00    1.11760   1.09145    0.000
 4557.00    1.03144   1.09019    0.000
 4558.00    0.92483   1.09297    0.000
 4559.00    0.92317   1.09290    0.000
 4560.00    0.98719   1.09304    0.000
 4561.00    0.99526   1.09962    0.000
 4562.00    0.97273   1.10042    0.000
 4563.00    0.98153   1.10167    0.000
 4564.00    1.00522   1.10767    0.000
 4565.00    0.99067   1.10852    0.000
 4566.00    0.96043   1.11190    0.000
 4567.00    0.97335   1.11692    0.000
 4568.00    1.00140   1.11810    0.000
 4569.00    1.15625   1.12311    0.000
 4570.00    1.34859   1.12469    0.000
 4571.00    1.30786   1.12467    0.000
 4572.00    1.21004   1.13019    0.000
 4573.00    1.10630   1.12864    0.000
 4574.00    1.00139   1.12711    0.000
 4575.00    0.99639   1.13131    0.000
 4576.00    1.00685   1.12994    0.000
 4577.00    0.90374   1.13023    0.000
 4578.00    0.78762   1.13059    0.000
 4579.00    1.09235   1.12720    0.000
 4580.00    1.42941   1.12847    0.000
 4581.00    1.37730   1.12538    0.000
 4582.00    1.30899   1.11956    0.000
 4583.00    1.25381   1.12116    0.000
 4584.00    1.20256   1.11957    0.000
 4585.00    1.31492   1.11420    0.000
 4586.00    1.40775   1.11283    0.000
 4587.00    1.15936   1.11100    0.000
 4588.00    0.93345   1.10800    0.000
 4589.00    0.94795   1.10643    0.000
 4590.00    0.97646   1.10396    0.000
 4591.00    1.11096   1.10247    0.000
 4592.00    1.21204   1.10347    0.000
 4593.00    1.12103   1.10165    0.000
 4594.00    1.04567   1.09973    0.000
 4595.00    1.04183   1.10160    0.000
 4596.00    1.06807   1.10081    0.000
 4597.00    1.20689   1.09958    0.000
 4598.00    1.33141   1.10156    0.000
 4599.00    1.41123   1.10076    0.000
 4600.00    1.40522   1.10063    0.000
 4601.00    1.17135   1.10248    0.000
 4602.00    1.00964   1.10048    0.000
 4603.00    1.01238   1.10162    0.000
 4604.00    1.06659   1.10417    0.000
 4605.00    1.22237   1.10304    0.000
 4606.00    1.28654   1.10599    0.000
 4607.00    1.19316   1.10813    0.000
 4608.00    1.10731   1.10910    0.000
 4609.00    1.03280   1.11406    0.000
 4610.00    1.03861   1.11601    0.000
 4611.00    1.15069   1.11931    0.000
 4612.00    1.24712   1.12433    0.000
 4613.00    1.32530   1.12635    0.000
 4614.00    1.31919   1.13128    0.000
 4615.00    1.22646   1.13434    0.000
 4616.00    1.19331   1.13714    0.000
 4617.00    1.21416   1.14275    0.000
 4618.00    1.22139   1.14348    0.000
 4619.00    1.21774   1.14694    0.000
 4620.00    1.10454   1.15106    0.000
 4621.00    0.91433   1.14926    0.000
 4622.00    0.89119   1.15248    0.000
 4623.00    0.97106   1.15478    0.000
 4624.00    1.01361   1.15263    0.000
 4625.00    1.03607   1.15524    0.000
 4626.00    1.16246   1.15509    0.000
 4627.00    1.33745   1.15351    0.000
 4628.00    1.33023   1.15503    0.000
 4629.00    1.24956   1.15281    0.000
 4630.00    1.20638   1.15202    0.000
 4631.00    1.17608   1.15222    0.000
 4632.00    1.14864   1.14844    0.000
 4633.00    1.12202   1.14752    0.000
 4634.00    1.15426   1.14687    0.000
 4635.00    1.20061   1.14268    0.000
 4636.00    1.12711   1.13964    0.000
 4637.00    1.03047   1.13751    0.000
 4638.00    1.01957   1.13479    0.000
 4639.00    1.02154   1.12973    0.000
 4640.00    1.04917   1.12564    0.000
 4641.00    1.07963   1.12417    0.000
 4642.00    1.22018   1.11845    0.000
 4643.00    1.36873   1.11370    0.000
 4644.00    1.24842   1.11213    0.000
 4645.00    1.11794   1.10658    0.000
 4646.00    1.06176   1.10275    0.000
 4647.00    1.00889   1.09989    0.000
 4648.00    1.06455   1.09471    0.000
 4649.00    1.11451   1.09325    0.000
 4650.00    1.07134   1.09012    0.000
 4651.00    1.04295   1.08677    0.000
 4652.00    1.16578   1.08809    0.000
 4653.00    1.26812   1.08512    0.000
 4654.00    1.22063   1.08375    0.000
 4655.00    1.17433   1.08710    0.000
 4656.00    1.13466   1.08494    0.000
 4657.00    1.10222   1.08532    0.000
 4658.00    1.10204   1.08900    0.000
 4659.00    1.10388   1.08838    0.000
 4660.00    1.11316   1.09103    0.000
 4661.00    1.09207   1.09405    0.000
 4662.00    0.97785   1.09416    0.000
 4663.00    0.96764   1.09690    0.000
 4664.00    1.22866   1.09746    0.000
 4665.00    1.35906   1.09605    0.000
 4666.00    1.19671   1.09688    0.000
 4667.00    1.06005   1.09604    0.000
 4668.00    0.97327   1.09348    0.000
 4669.00    0.98589   1.09093    0.000
 4670.00    1.16686   1.08880    0.000
 4671.00    1.17499   1.08685    0.000
 4672.00    0.92668   1.08430    0.000
 4673.00    0.80192   1.08215    0.000
 4674.00    0.83828   1.07956    0.000
 4675.00    0.94107   1.07787    0.000
 4676.00    1.12018   1.07672    0.000
 4677.00    1.19785   1.07473    0.000
 4678.00    1.17273   1.07614    0.000
 4679.00    1.20675   1.07745    0.000
 4680.00    1.29362   1.07539    0.000
 4681.00    1.35411   1.07701    0.000
 4682.00    1.39384   1.08012    0.000
 4683.00    1.31067   1.08031    0.000
 4684.00    1.14238   1.08180    0.000
 4685.00    1.03101   1.08410    0.000
 4686.00    0.95419   1.08462    0.000
 4687.00    1.04629   1.08517    0.000
 4688.00    1.22794   1.08651    0.000
 4689.00    1.25394   1.08732    0.000
 4690.00    1.20830   1.08766    0.000
 4691.00    1.22141   1.08832    0.000
 4692.00    1.25779   1.08819    0.000
 4693.00    1.17671   1.08827    0.000
 4694.00    1.05597   1.08901    0.000
 4695.00    0.92094   1.08847    0.000
 4696.00    0.78187   1.08871    0.000
 4697.00    0.85056   1.08898    0.000
 4698.00    0.96788   1.08770    0.000
 4699.00    1.08638   1.08765    0.000
 4700.00    1.20510   1.08631    0.000
 4701.00    1.33283   1.08369    0.000
 4702.00    1.46187   1.08339    0.000
 4703.00    1.17276   1.08191    0.000
 4704.00    0.83943   1.07881    0.000
 4705.00    1.12025   1.07669    0.000
 4706.00    1.44324   1.07515    0.000
 4707.00    1.40494   1.07376    0.000
 4708.00    1.35435   1.07115    0.000
 4709.00    1.22673   1.06932    0.000
 4710.00    1.10523   1.06946    0.000
 4711.00    1.18686   1.06736    0.000
 4712.00    1.26541   1.06660    0.000
 4713.00    1.29685   1.06877    0.000
 4714.00    1.31473   1.06887    0.000
 4715.00    1.19971   1.07042    0.000
 4716.00    1.09716   1.07255    0.000
 4717.00    1.08276   1.07405    0.000
 4718.00    1.09448   1.07927    0.000
 4719.00    1.24829   1.08258    0.000
 4720.00    1.36062   1.08447    0.000
 4721.00    1.29218   1.09038    0.000
 4722.00    1.19521   1.09408    0.000
 4723.00    0.99589   1.09669    0.000
 4724.00    0.89511   1.10131    0.000
 4725.00    1.09098   1.10375    0.000
 4726.00    1.21440   1.10627    0.000
 4727.00    1.15221   1.10861    0.000
 4728.00    1.14069   1.10927    0.000
 4729.00    1.24091   1.10983    0.000
 4730.00    1.27965   1.10881    0.000
 4731.00    1.20085   1.10820    0.000
 4732.00    1.17331   1.10723    0.000
 4733.00    1.23127   1.10430    0.000
 4734.00    1.27044   1.10367    0.000
 4735.00    1.28214   1.10129    0.000
 4736.00    1.19546   1.09756    0.000
 4737.00    0.98230   1.09852    0.000
 4738.00    0.95983   1.09614    0.000
 4739.00    1.15338   1.09296    0.000
 4740.00    1.32568   1.09574    0.000
 4741.00    1.47676   1.09499    0.000
 4742.00    1.43958   1.09431    0.000
 4743.00    1.23653   1.09753    0.000
 4744.00    1.17492   1.09715    0.000
 4745.00    1.22313   1.09974    0.000
 4746.00    1.11541   1.10373    0.000
 4747.00    0.90125   1.10277    0.000
 4748.00    1.04017   1.10677    0.000
 4749.00    1.39034   1.11069    0.000
 4750.00    1.47606   1.10902    0.000
 4751.00    1.42374   1.11234    0.000
 4752.00    1.36233   1.11511    0.000
 4753.00    1.29681   1.11313    0.000
 4754.00    1.42640   1.11450    0.000
 4755.00    1.63195   1.11534    0.000
 4756.00    1.40080   1.11336    0.000
 4757.00    1.02494   1.11269    0.000
 4758.00    1.03641   1.11090    0.000
 4759.00    1.15555   1.10895    0.000
 4760.00    1.05335   1.10738    0.000
 4761.00    0.90052   1.10343    0.015
 4762.00    0.94049   1.10111    0.015
 4763.00    1.01578   1.09913    0.015
 4764.00    1.07251   1.09398    0.015
 4765.00    1.12663   1.09118    0.015
 4766.00    1.07697   1.08951    0.015
 4767.00    1.01678   1.08497    0.015
 4768.00    1.20140   1.08240    0.015
 4769.00    1.40185   1.08141    0.015
 4770.00    1.23497   1.07864    0.015
 4771.00    1.05751   1.07777    0.015
 4772.00    1.14891   1.07803    0.015
 4773.00    1.23759   1.07720    0.015
 4774.00    1.24737   1.07777    0.015
 4775.00    1.25470   1.07892    0.015
 4776.00    1.22671   1.08082    0.015
 4777.00    1.18770   1.08333    0.015
 4778.00    1.04503   1.08413    0.015
 4779.00    0.92722   1.08667    0.014
 4780.00    0.97964   1.09050    0.015
 4781.00    1.02304   1.09119    0.015
 4782.00    1.01866   1.09234    0.014
 4783.00    0.98640   1.09579    0.014
 4784.00    0.83542   1.09674    0.014
 4785.00    0.73236   1.09542    0.014
 4786.00    0.79767   1.09719    0.014
 4787.00    0.90022   1.09889    0.014
 4788.00    1.11280   1.09553    0.014
 4789.00    1.22829   1.09551    0.015
 4790.00    1.09929   1.09801    0.014
 4791.00    0.99225   1.09449    0.014
 4792.00    0.93283   1.09402    0.014
 4793.00    0.94350   1.09669    0.014
 4794.00    1.08608   1.09450    0.014
 4795.00    1.20680   1.09525    0.014
 4796.00    1.29161   1.09775    0.014
 4797.00    1.31607   1.09723    0.014
 4798.00    1.25356   1.09930    0.014
 4799.00    1.20082   1.10101    0.014
 4800.00    1.16047   1.10134    0.015
 4801.00    1.10499   1.10395    0.015
 4802.00    1.03260   1.10485    0.015
 4803.00    1.01740   1.10525    0.015
 4804.00    1.05853   1.10743    0.014
 4805.00    1.04578   1.10796    0.014
 4806.00    0.98621   1.10747    0.014
 4807.00    0.98461   1.10764    0.014
 4808.00    1.02737   1.10816    0.014
 4809.00    1.17279   1.10735    0.014
 4810.00    1.38725   1.10593    0.014
 4811.00    1.41756   1.10650    0.014
 4812.00    1.33934   1.10596    0.014
 4813.00    1.30057   1.10434    0.014
 4814.00    1.28206   1.10495    0.014
 4815.00    1.35962   1.10475    0.014
 4816.00    1.47993   1.10378    0.014
 4817.00    1.49046   1.10448    0.014
 4818.00    1.45898   1.10490    0.014
 4819.00    1.32969   1.10467    0.014
 4820.00    1.16859   1.10524    0.014
 4821.00    1.05220   1.10621    0.014
 4822.00    0.94799   1.10574    0.014
 4823.00    0.98556   1.10557    0.014
 4824.00    1.05481   1.10659    0.014
 4825.00    1.00018   1.10457    0.014
 4826.00    0.92348   1.10324    0.014
 4827.00    1.03728   1.10419    0.014
 4828.00    1.17705   1.10101    0.014
 4829.00    1.05593   1.09897    0.014
 4830.00    0.90946   1.09878    0.014
 4831.00    0.95473   1.09438    0.014
 4832.00    1.01162   1.09273    0.014
 4833.00    1.09185   1.09163    0.014
 4834.00    1.17207   1.08634    0.015
 4835.00    1.14115   1.08520    0.015
 4836.00    1.11570   1.08396    0.015
 4837.00    1.23305   1.07906    0.014
 4838.00    1.33715   1.07781    0.014
 4839.00    1.26055   1.07614    0.014
 4840.00    1.19653   1.07244    0.014
 4841.00    1.24624   1.07081    0.014
 4842.00    1.26766   1.06794    0.014
 4843.00    1.10142   1.06537    0.014
 4844.00    0.95657   1.06365    0.014
 4845.00    0.92211   1.05926    0.014
 4846.00    0.91744   1.05691    0.014
 4847.00    1.03680   1.05478    0.014
 4848.00    1.11713   1.04917    0.000
 4849.00    1.06311   1.04637    0.000
 4850.00    1.00635   1.04241    0.000
 4851.00    0.94169   1.03494    0.000
 4852.00    0.90724   1.03148    0.000
 4853.00    0.94757   1.02535    0.000
 4854.00    1.00995   1.01512    0.000
 4855.00    1.11937   1.01002    0.000
 4856.00    1.32117   1.00172    0.000
 4857.00    1.69418   0.98834    0.000
 4858.00    1.95107   0.98079    0.000
 4859.00    2.01997   0.97120    0.000
 4860.00    1.98058   0.95579    0.000
 4861.00    1.78741   0.94648    0.000
 4862.00    1.53482   0.93680    0.000
 4863.00    1.20798   0.92106    0.000
 4864.00    1.02346   0.91236    0.000
 4865.00    0.99564   0.90576    0.000
 4866.00    1.04010   0.89294    0.000
 4867.00    1.15477   0.88699    0.000
 4868.00    1.20444   0.88548    0.000
 4869.00    1.19845   0.87883    0.000
 4870.00    1.13945   0.87709    0.000
 4871.00    1.04046   0.88054    0.000
 4872.00    1.01947   0.88121    0.000
 4873.00    1.05018   0.88382    0.000
 4874.00    1.10532   0.89050    0.000
 4875.00    1.17464   0.89763    0.015
 4876.00    1.27259   0.90417    0.015
 4877.00    1.38501   0.91161    0.015
 4878.00    1.30664   0.92222    0.015
 4879.00    1.14471   0.93150    0.015
 4880.00    1.08671   0.93794    0.015
 4881.00    1.06777   0.94890    0.015
 4882.00    1.05819   0.95907    0.015
 4883.00    1.05159   0.96358    0.015
 4884.00    1.09885   0.97254    0.015
 4885.00    1.16046   0.98207    0.015
 4886.00    1.12824   0.98502    0.015
 4887.00    1.07554   0.99059    0.015
 4888.00    1.15786   0.99831    0.015
 4889.00    1.26358   1.00086    0.015
 4890.00    1.19327   1.00357    0.015
 4891.00    1.09978   1.00958    0.015
 4892.00    1.30115   1.01249    0.015
 4893.00    1.52992   1.01331    0.015
 4894.00    1.44021   1.01929    0.015
 4895.00    1.33244   1.02367    0.015
 4896.00    1.25328   1.02382    0.015
 4897.00    1.17293   1.03079    0.015
 4898.00    0.89167   1.03679    0.015
 4899.00    0.63002   1.03746    0.015
 4900.00    0.83403   1.04552    0.015
 4901.00    1.02820   1.05168    0.015
 4902.00    1.09508   1.05230    0.015
 4903.00    1.14113   1.06044    0.014
 4904.00    1.00608   1.06581    0.015
 4905.00    0.91307   1.06560    0.015
 4906.00    1.09058   1.07186    0.015
 4907.00    1.23868   1.07565    0.015
 4908.00    1.23885   1.07470    0.015
 4909.00    1.22808   1.07759    0.015
 4910.00    1.17278   1.07901    0.015
 4911.00    1.14683   1.07769    0.015
 4912.00    1.21992   1.07728    0.015
 4913.00    1.25083   1.07621    0.015
 4914.00    1.16162   1.07443    0.015
 4915.00    1.06791   1.07164    0.015
 4916.00    0.96328   1.06876    0.015
 4917.00    0.91013   1.06665    0.015
 4918.00    0.96506   1.06282    0.015
 4919.00    1.09112   1.05889    0.015
 4920.00    1.34694   1.05594    0.014
 4921.00    1.39712   1.05205    0.014
 4922.00    1.11935   1.04835    0.014
 4923.00    0.97965   1.04472    0.014
 4924.00    1.03321   1.04169    0.014
 4925.00    1.05220   1.03983    0.014
 4926.00    1.02863   1.03651    0.014
 4927.00    1.02505   1.03554    0.014
 4928.00    1.04317   1.03726    0.014
 4929.00    1.03041   1.03479    0.014
 4930.00    0.98808   1.03512    0.014
 4931.00    0.97399   1.04065    0.014
 4932.00    0.98374   1.03959    0.014
 4933.00    0.92892   1.04058    0.014
 4934.00    0.82609   1.04849    0.014
 4935.00    0.87471   1.04772    0.014
 4936.00    1.02225   1.04834    0.014
 4937.00    1.04809   1.05696    0.014
 4938.00    1.00436   1.05548    0.014
 4939.00    0.97645   1.05490    0.014
 4940.00    0.95641   1.06297    0.000
 4941.00    0.96687   1.06116    0.000
 4942.00    0.99046   1.06027    0.000
 4943.00    1.03274   1.06701    0.000
 4944.00    1.08191   1.06474    0.000
 4945.00    1.04791   1.06482    0.000
 4946.00    0.98789   1.07186    0.000
 4947.00    0.99770   1.07002    0.000
 4948.00    1.02573   1.07064    0.000
 4949.00    1.00542   1.07775    0.000
 4950.00    0.97481   1.07673    0.000
 4951.00    0.94762   1.07719    0.000
 4952.00    0.92099   1.08347    0.000
 4953.00    1.12149   1.08283    0.000
 4954.00    1.35088   1.08243    0.000
 4955.00    1.21369   1.08666    0.000
 4956.00    1.04399   1.08494    0.000
 4957.00    1.09551   1.08311    0.000
 4958.00    1.15871   1.08521    0.000
 4959.00    1.22313   1.08135    0.000
 4960.00    1.28637   1.07820    0.000
 4961.00    1.25540   1.07935    0.000
 4962.00    1.21885   1.07364    0.000
 4963.00    1.06090   1.06939    0.000
 4964.00    0.91376   1.07078    0.000
 4965.00    0.89947   1.06592    0.000
 4966.00    0.89995   1.06193    0.000
 4967.00    1.02407   1.06274    0.000
 4968.00    1.12716   1.05978    0.000
 4969.00    1.09900   1.05736    0.000
 4970.00    1.10280   1.05745    0.000
 4971.00    1.26325   1.05623    0.000
 4972.00    1.38006   1.05532    0.000
 4973.00    1.32309   1.05498    0.000
 4974.00    1.29759   1.05488    0.000
 4975.00    1.37616   1.05428    0.000
 4976.00    1.38375   1.05357    0.000
 4977.00    1.19293   1.05367    0.000
 4978.00    1.08354   1.05197    0.000
 4979.00    1.16889   1.05079    0.000
 4980.00    1.18460   1.05020    0.000
 4981.00    1.05645   1.04652    0.000
 4982.00    0.91636   1.04476    0.000
 4983.00    0.75479   1.04332    0.000
 4984.00    0.70687   1.03761    0.000
 4985.00    0.83749   1.03544    0.000
 4986.00    0.89008   1.03405    0.000
 4987.00    0.83505   1.02725    0.000
 4988.00    0.90011   1.02512    0.000
 4989.00    1.11097   1.02511    0.000
 4990.00    1.14842   1.01873    0.000
 4991.00    1.00026   1.01738    0.000
 4992.00    1.02785   1.01930    0.000
 4993.00    1.22135   1.01430    0.000
 4994.00    1.27714   1.01455    0.000
 4995.00    1.21828   1.01766    0.000
 4996.00    1.11444   1.01343    0.000
 4997.00    0.97764   1.01517    0.000
 4998.00    0.97571   1.01802    0.000
 4999.00    1.06057   1.01327    0.000
 5000.00    1.05485   1.01580    0.000
 5001.00    0.99815   1.01729    0.000
 5002.00    1.13946   1.01115    0.000
 5003.00    1.37780   1.01321    0.000
 5004.00    1.55703   1.01274    0.000
 5005.00    1.71123   1.00534    0.000
 5006.00    1.62774   1.00628    0.000
 5007.00    1.45806   1.00414    0.000
 5008.00    1.39291   0.99601    0.000
 5009.00    1.35984   0.99591    0.000
 5010.00    1.30585   0.99335    0.000
 5011.00    1.24652   0.98539    0.000
 5012.00    1.16073   0.98468    0.000
 5013.00    1.06943   0.98272    0.000
 5014.00    0.90528   0.97542    0.000
 5015.00    0.72920   0.97455    0.000
 5016.00    0.82882   0.97392    0.000
 5017.00    0.96228   0.96791    0.000
 5018.00    0.99711   0.96723    0.000
 5019.00    1.02359   0.96786    0.000
 5020.00    1.00999   0.96350    0.000
 5021.00    0.99442   0.96349    0.000
 5022.00    1.18836   0.96535    0.000
 5023.00    1.38164   0.96280    0.000
 5024.00    1.33721   0.96375    0.000
 5025.00    1.29509   0.96714    0.000
 5026.00    1.29960   0.96648    0.000
 5027.00    1.28963   0.96817    0.000
 5028.00    1.11056   0.97322    0.000
 5029.00    0.95662   0.97407    0.013
 5030.00    1.00545   0.97570    0.014
 5031.00    1.07047   0.98188    0.014
 5032.00    1.23364   0.98369    0.014
 5033.00    1.36495   0.98472    0.014
 5034.00    1.34395   0.99055    0.014
 5035.00    1.30840   0.99209    0.014
 5036.00    1.21616   0.99261    0.013
 5037.00    1.13004   0.99665    0.013
 5038.00    1.06378   0.99669    0.013
 5039.00    1.02504   0.99698    0.013
 5040.00    1.06181   0.99845    0.013
 5041.00    1.06959   0.99666    0.013
 5042.00    1.00918   0.99740    0.013
 5043.00    0.95761   0.99647    0.013
 5044.00    0.92402   0.99352    0.013
 5045.00    0.92691   0.99565    0.013
 5046.00    0.99434   0.99342    0.013
 5047.00    1.02048   0.99041    0.013
 5048.00    0.98270   0.99442    0.013
 5049.00    0.95237   0.99251    0.013
 5050.00    0.93214   0.99037    0.014
 5051.00    0.93422   0.99590    0.014
 5052.00    0.96301   0.99550    0.014
 5053.00    1.01730   0.99480    0.014
 5054.00    1.09851   1.00084    0.014
 5055.00    1.13946   1.00203    0.014
 5056.00    1.14292   1.00273    0.014
 5057.00    1.20035   1.00829    0.013
 5058.00    1.30205   1.01034    0.013
 5059.00    1.28332   1.01202    0.013
 5060.00    1.17761   1.01656    0.014
 5061.00    1.04413   1.01847    0.014
 5062.00    0.89305   1.02041    0.013
 5063.00    0.82517   1.02361    0.013
 5064.00    0.80342   1.02421    0.014
 5065.00    0.81087   1.02570    0.014
 5066.00    0.83240   1.02752    0.014
 5067.00    0.86985   1.02605    0.014
 5068.00    0.91393   1.02638    0.014
 5069.00    0.96343   1.02696    0.014
 5070.00    1.01486   1.02344    0.014
 5071.00    0.92587   1.02220    0.014
 5072.00    0.79465   1.02181    0.014
 5073.00    0.93374   1.01710    0.014
 5074.00    1.14034   1.01437    0.014
 5075.00    1.07989   1.01324    0.014
 5076.00    0.96534   1.00854    0.014
 5077.00    0.79311   1.00492    0.014
 5078.00    0.61172   1.00312    0.014
 5079.00    0.82297   0.99935    0.014
 5080.00    1.08066   0.99578    0.014
 5081.00    1.06915   0.99346    0.014
 5082.00    1.03599   0.99089    0.014
 5083.00    0.96087   0.98842    0.014
 5084.00    0.88387   0.98611    0.013
 5085.00    0.95924   0.98466    0.013
 5086.00    1.03599   0.98398    0.014
 5087.00    1.09152   0.98255    0.014
 5088.00    1.13997   0.98213    0.014
 5089.00    1.05677   0.98330    0.014
 5090.00    0.98030   0.98339    0.013
 5091.00    0.97875   0.98393    0.014
 5092.00    0.98468   0.98626    0.014
 5093.00    1.04891   0.98773    0.014
 5094.00    1.11013   0.98889    0.014
 5095.00    1.15362   0.99123    0.014
 5096.00    1.17095   0.99318    0.013
 5097.00    1.06617   0.99427    0.014
 5098.00    0.96497   0.99554    0.014
 5099.00    0.87746   0.99695    0.014
 5100.00    0.83335   0.99723    0.013
 5101.00    0.92732   0.99691    0.013
 5102.00    0.99876   0.99735    0.013
 5103.00    1.00943   0.99650    0.013
 5104.00    1.01922   0.99482    0.013
 5105.00    1.02693   0.99468    0.013
 5106.00    1.04843   0.99288    0.013
 5107.00    1.09750   0.99067    0.013
 5108.00    1.09224   0.99080    0.013
 5109.00    0.99229   0.98850    0.013
 5110.00    0.93126   0.98670    0.013
 5111.00    0.92962   0.98794    0.013
 5112.00    0.97682   0.98557    0.013
 5113.00    1.08948   0.98468    0.013
 5114.00    1.08260   0.98739    0.013
 5115.00    0.93465   0.98525    0.014
 5116.00    0.82402   0.98517    0.013
 5117.00    0.75223   0.98894    0.013
 5118.00    0.74120   0.98714    0.013
 5119.00    0.78593   0.98724    0.014
 5120.00    0.88894   0.99093    0.014
 5121.00    1.03910   0.98935    0.014
 5122.00    1.12595   0.98886    0.013
 5123.00    1.16772   0.99112    0.013
 5124.00    1.13771   0.98950    0.013
 5125.00    1.06285   0.98801    0.013
 5126.00    1.08968   0.98786    0.013
 5127.00    1.17201   0.98608    0.013
 5128.00    1.15637   0.98390    0.013
 5129.00    1.09424   0.98132    0.013
 5130.00    1.01205   0.97950    0.013
 5131.00    0.92164   0.97767    0.013
 5132.00    0.95772   0.97347    0.013
 5133.00    1.03801   0.97183    0.013
 5134.00    1.06267   0.97155    0.014
 5135.00    1.07092   0.96672    0.014
 5136.00    0.95196   0.96527    0.014
 5137.00    0.80192   0.96721    0.014
 5138.00    0.86249   0.96236    0.014
 5139.00    0.96468   0.96069    0.014
 5140.00    0.95100   0.96475    0.014
 5141.00    0.91945   0.95995    0.013
 5142.00    0.89244   0.95746    0.013
 5143.00    0.86595   0.96291    0.013
 5144.00    0.84640   0.95812    0.014
 5145.00    0.82739   0.95450    0.014
 5146.00    0.75496   0.96041    0.014
 5147.00    0.68032   0.95589    0.014
 5148.00    0.85932   0.95146    0.014
 5149.00    1.03871   0.95705    0.014
 5150.00    1.14657   0.95331    0.014
 5151.00    1.25303   0.94896    0.014
 5152.00    1.33526   0.95368    0.014
 5153.00    1.39512   0.95121    0.014
 5154.00    1.21701   0.94791    0.014
 5155.00    1.05396   0.95140    0.014
 5156.00    1.00423   0.95016    0.014
 5157.00    0.96330   0.94839    0.014
 5158.00    0.97282   0.95031    0.014
 5159.00    0.98750   0.94953    0.014
 5160.00    1.02571   0.94885    0.014
 5161.00    1.04593   0.94862    0.014
 5162.00    0.99902   0.94702    0.014
 5163.00    0.94809   0.94633    0.013
 5164.00    0.88457   0.94335    0.014
 5165.00    0.87010   0.93937    0.014
 5166.00    0.98555   0.93729    0.014
 5167.00    1.02824   0.93154    0.014
 5168.00    0.90550   0.92454    0.014
 5169.00    0.83566   0.92040    0.013
 5170.00    0.87002   0.91285    0.013
 5171.00    0.87978   0.90349    0.013
 5172.00    0.84733   0.89783    0.014
 5173.00    0.89769   0.89049    0.014
 5174.00    1.07251   0.88100    0.014
 5175.00    1.15520   0.87525    0.013
 5176.00    1.11619   0.87009    0.013
 5177.00    1.00546   0.86308    0.013
 5178.00    0.81127   0.85893    0.013
 5179.00    0.76005   0.85687    0.013
 5180.00    0.85550   0.85400    0.013
 5181.00    0.92354   0.85239    0.013
 5182.00    0.96678   0.85267    0.013
 5183.00    1.00346   0.85389    0.012
 5184.00    1.03491   0.85495    0.012
 5185.00    1.07183   0.85598    0.012
 5186.00    1.11258   0.85993    0.012
 5187.00    1.03114   0.86332    0.012
 5188.00    0.87451   0.86396    0.013
 5189.00    0.84660   0.86913    0.013
 5190.00    0.88789   0.87438    0.000
 5191.00    0.98647   0.87444    0.000
 5192.00    1.11181   0.88000    0.000
 5193.00    1.12559   0.88674    0.000
 5194.00    1.09450   0.88643    0.000
 5195.00    1.05855   0.89184    0.000
 5196.00    1.02094   0.89984    0.000
 5197.00    1.02921   0.89937    0.000
 5198.00    1.05074   0.90371    0.000
 5199.00    1.07083   0.91243    0.000
 5200.00    1.09058   0.91207    0.000
 5201.00    1.10155   0.91407    0.000
 5202.00    1.11083   0.92250    0.000
 5203.00    1.15983   0.92268    0.000
 5204.00    1.21477   0.92151    0.000
 5205.00    0.94085   0.92829    0.000
 5206.00    0.63091   0.92948    0.000
 5207.00    0.70689   0.92555    0.000
 5208.00    0.81074   0.92972    0.000
 5209.00    0.97759   0.93226    0.000
 5210.00    1.14679   0.92719    0.000
 5211.00    0.99496   0.92871    0.013
 5212.00    0.84913   0.93268    0.014
 5213.00    0.97578   0.92867    0.014
 5214.00    1.09101   0.92859    0.014
 5215.00    1.02088   0.93380    0.014
 5216.00    0.95547   0.93237    0.014
 5217.00    0.93814   0.93194    0.014
 5218.00    0.93180   0.93777    0.014
 5219.00    1.00543   0.93900    0.014
 5220.00    1.06540   0.93884    0.014
 5221.00    1.04930   0.94455    0.014
 5222.00    1.03536   0.94718    0.014
 5223.00    1.03105   0.94688    0.014
 5224.00    1.00928   0.95195    0.014
 5225.00    0.92377   0.95465    0.014
 5226.00    0.87570   0.95326    0.014
 5227.00    0.94221   0.95741    0.013
 5228.00    0.97361   0.95938    0.013
 5229.00    0.91366   0.95630    0.014
 5230.00    0.90187   0.95965    0.014
 5231.00    0.99780   0.96156    0.013
 5232.00    1.06029   0.95736    0.013
 5233.00    1.05796   0.96027    0.013
 5234.00    1.03974   0.96330    0.013
 5235.00    0.99467   0.95933    0.013
 5236.00    1.00920   0.96186    0.013
 5237.00    1.11202   0.96680    0.013
 5238.00    1.12061   0.96466    0.013
 5239.00    1.00653   0.96662    0.013
 5240.00    0.97966   0.97298    0.013
 5241.00    1.05282   0.97357    0.013
 5242.00    1.03316   0.97475    0.013
 5243.00    0.91963   0.98072    0.013
 5244.00    0.88827   0.98360    0.013
 5245.00    0.93023   0.98413    0.013
 5246.00    0.96413   0.98796    0.013
 5247.00    0.99168   0.99165    0.013
 5248.00    1.01594   0.99169    0.013
 5249.00    1.03793   0.99252    0.013
 5250.00    1.14013   0.99552    0.013
 5251.00    1.29095   0.99524    0.013
 5252.00    1.26942   0.99328    0.013
 5253.00    1.15667   0.99466    0.013
 5254.00    1.09763   0.99452    0.013
 5255.00    1.06325   0.99091    0.013
 5256.00    1.02009   0.99007    0.013
 5257.00    0.97345   0.98994    0.013
 5258.00    1.03213   0.98594    0.013
 5259.00    1.12627   0.98290    0.013
 5260.00    1.16716   0.98232    0.013
 5261.00    1.19297   0.97857    0.013
 5262.00    1.07301   0.97327    0.013
 5263.00    0.91902   0.97170    0.013
 5264.00    0.98375   0.96852    0.013
 5265.00    1.08950   0.96083    0.014
 5266.00    1.16831   0.95731    0.014
 5267.00    1.24322   0.95511    0.014
 5268.00    1.01287   0.94612    0.014
 5269.00    0.75042   0.94061    0.014
 5270.00    0.79071   0.94007    0.014
 5271.00    0.85165   0.93145    0.014
 5272.00    0.85200   0.92453    0.014
 5273.00    0.85032   0.92680    0.014
 5274.00    0.84342   0.92150    0.014
 5275.00    0.83874   0.91445    0.014
 5276.00    0.90534   0.91950    0.014
 5277.00    0.97261   0.91970    0.014
 5278.00    1.04991   0.91440    0.014
 5279.00    1.11642   0.92119    0.014
 5280.00    1.07776   0.92707    0.014
 5281.00    1.03652   0.92510    0.014
 5282.00    0.97705   0.93236    0.014
 5283.00    0.94826   0.94207    0.013
 5284.00    1.08576   0.94353    0.013
 5285.00    1.18652   0.95015    0.013
 5286.00    1.12763   0.96096    0.014
 5287.00    1.09222   0.96492    0.014
 5288.00    1.14087   0.97049    0.013
 5289.00    1.16181   0.98005    0.013
 5290.00    1.09954   0.98474    0.013
 5291.00    1.04714   0.98930    0.013
 5292.00    1.01998   0.99661    0.013
 5293.00    0.98347   1.00017    0.013
 5294.00    0.92639   1.00327    0.013
 5295.00    0.87270   1.00840    0.013
 5296.00    0.82549   1.01031    0.013
 5297.00    0.80344   1.01153    0.013
 5298.00    0.82329   1.01470    0.013
 5299.00    0.92304   1.01520    0.013
 5300.00    1.13939   1.01461    0.013
 5301.00    1.22977   1.01636    0.013
 5302.00    1.15847   1.01648    0.013
 5303.00    1.11721   1.01473    0.013
 5304.00    1.10990   1.01558    0.012
 5305.00    1.12940   1.01658    0.012
 5306.00    1.17563   1.01494    0.013
 5307.00    1.16487   1.01541    0.013
 5308.00    1.10398   1.01799    0.013
 5309.00    1.07131   1.01744    0.013
 5310.00    1.06052   1.01763    0.013
 5311.00    1.13232   1.02140    0.013
 5312.00    1.26040   1.02218    0.012
 5313.00    1.19328   1.02198    0.012
 5314.00    1.00959   1.02584    0.012
 5315.00    0.90622   1.02720    0.012
 5316.00    0.84470   1.02617    0.012
 5317.00    0.89864   1.02882    0.012
 5318.00    1.00474   1.02976    0.012
 5319.00    1.03637   1.02738    0.012
 5320.00    1.03908   1.02751    0.012
 5321.00    1.00489   1.02736    0.012
 5322.00    0.95850   1.02412    0.012
 5323.00    0.87739   1.02119    0.012
 5324.00    0.78665   1.01873    0.012
 5325.00    0.89092   1.01510    0.013
 5326.00    1.03966   1.01058    0.013
 5327.00    0.98584   1.00607    0.013
 5328.00    0.89504   1.00221    0.013
 5329.00    0.86572   0.99758    0.013
 5330.00    0.84503   0.99227    0.013
 5331.00    0.92691   0.98890    0.013
 5332.00    1.01915   0.98557    0.013
 5333.00    0.95854   0.98050    0.013
 5334.00    0.88813   0.97812    0.013
 5335.00    0.81927   0.97737    0.013
 5336.00    0.75077   0.97356    0.013
 5337.00    0.80987   0.97229    0.013
 5338.00    0.87244   0.97448    0.013
 5339.00    1.03427   0.97251    0.013
 5340.00    1.17956   0.97217    0.013
 5341.00    1.08749   0.97646    0.013
 5342.00    1.01123   0.97619    0.013
 5343.00    1.08287   0.97657    0.013
 5344.00    1.12782   0.98178    0.012
 5345.00    0.99073   0.98255    0.013
 5346.00    0.87651   0.98313    0.013
 5347.00    0.88310   0.98838    0.012
 5348.00    0.89380   0.98994    0.012
 5349.00    0.92193   0.99092    0.012
 5350.00    0.96418   0.99634    0.012
 5351.00    1.05593   0.99824    0.013
 5352.00    1.15104   0.99844    0.013
 5353.00    1.25610   1.00427    0.013
 5354.00    1.29759   1.00777    0.012
 5355.00    1.17939   1.00717    0.012
 5356.00    1.05471   1.01262    0.012
 5357.00    0.91601   1.01756    0.012
 5358.00    0.82943   1.01672    0.012
 5359.00    0.84072   1.02116    0.012
 5360.00    0.89638   1.02634    0.012
 5361.00    1.02479   1.02544    0.012
 5362.00    1.05738   1.02838    0.012
 5363.00    0.95214   1.03220    0.012
 5364.00    0.89287   1.03047    0.012
 5365.00    0.89176   1.03123    0.011
 5366.00    0.89622   1.03318    0.011
 5367.00    0.90690   1.03051    0.012
 5368.00    0.94307   1.02891   -2.000
 5369.00    1.00429   1.02894   -2.000
 5370.00    1.12654   1.02523   -2.000
 5371.00    1.30171   1.02224   -2.000
 5372.00    1.37955   1.02153   -2.000
 5373.00    1.38303   1.01710   -2.000
 5374.00    1.32905   1.01377   -2.000
 5375.00    1.23647   1.01379   -2.000
 5376.00    1.11885   1.00951   -2.000
 5377.00    0.98651   1.00638   -2.000
 5378.00    0.86896   1.00829   -2.000
 5379.00    0.75901   1.00549   -2.000
 5380.00    0.78009   1.00281   -2.000
 5381.00    0.85938   1.00644   -2.000
 5382.00    0.85782   1.00551   -2.000
 5383.00    0.82539   1.00311    0.012
 5384.00    0.88016   1.00755    0.012
 5385.00    0.96321   1.00815    0.012
 5386.00    1.00854   1.00497    0.013
 5387.00    1.04364   1.00867    0.012
 5388.00    1.07884   1.01069    0.013
 5389.00    1.11407   1.00663    0.013
 5390.00    0.99751   1.00803    0.013
 5391.00    0.85399   1.01017    0.012
 5392.00    0.93908   1.00503    0.012
 5393.00    1.05519   1.00313    0.012
 5394.00    1.02051   1.00524    0.012
 5395.00    0.97127   1.00024    0.013
 5396.00    0.98882   0.99467    0.012
 5397.00    1.01038   0.99579    0.012
 5398.00    0.94553   0.99255    0.012
 5399.00    0.87883   0.98493    0.012
 5400.00    0.88010   0.98393    0.012
 5401.00    0.88397   0.98294    0.012
 5402.00    0.95527   0.97535    0.012
 5403.00    1.01587   0.97154    0.012
 5404.00    0.93150   0.97227    0.012
 5405.00    0.86098   0.96676    0.012
 5406.00    0.91514   0.96095    0.012
 5407.00    0.96867   0.96304    0.012
 5408.00    1.01812   0.96119    0.012
 5409.00    1.05933   0.95434    0.012
 5410.00    1.05821   0.95631    0.012
 5411.00    1.04984   0.95851    0.012
 5412.00    1.01138   0.95309    0.012
 5413.00    0.97643   0.95390    0.012
 5414.00    0.95355   0.95886    0.012
 5415.00    0.95619   0.95734    0.011
 5416.00    1.03265   0.95749    0.012
 5417.00    1.07496   0.96257    0.012
 5418.00    1.03293   0.96455    0.011
 5419.00    1.00535   0.96524    0.011
 5420.00    1.00853   0.96946    0.011
 5421.00    1.01233   0.97347    0.012
 5422.00    1.01728   0.97508    0.012
 5423.00    1.03376   0.97835    0.011
 5424.00    1.06887   0.98283    0.011
 5425.00    1.04003   0.98415    0.011
 5426.00    0.92053   0.98549    0.012
 5427.00    0.87367   0.98940    0.012
 5428.00    0.91739   0.99036    0.012
 5429.00    0.95146   0.98938    0.012
 5430.00    0.97494   0.99161    0.012
 5431.00    1.02012   0.99256    0.012
 5432.00    1.08634   0.98997    0.012
 5433.00    1.10857   0.99023    0.012
 5434.00    1.09320   0.99165    0.012
 5435.00    1.06621   0.98838    0.012
 5436.00    1.03047   0.98711    0.012
 5437.00    1.00562   0.98977    0.012
 5438.00    0.98798   0.98697    0.012
 5439.00    0.98717   0.98520    0.012
 5440.00    0.99611   0.98902    0.012
 5441.00    0.99085   0.98675    0.012
 5442.00    0.97841   0.98445    0.012
 5443.00    0.98949   0.98913    0.012
 5444.00    1.01084   0.98915    0.012
 5445.00    0.96266   0.98624    0.012
 5446.00    0.88842   0.98893    0.012
 5447.00    0.91763   0.99148    0.012
 5448.00    0.97977   0.98993    0.012
 5449.00    0.94385   0.98999    0.012
 5450.00    0.88187   0.99263    0.011
 5451.00    0.93091   0.99190    0.011
 5452.00    1.00410   0.99017    0.011
 5453.00    1.02904   0.99150    0.011
 5454.00    1.04563   0.99090    0.011
 5455.00    1.11132   0.98809    0.011
 5456.00    1.18344   0.98798    0.011
 5457.00    1.10005   0.98830    0.011
 5458.00    1.00230   0.98500    0.011
 5459.00    1.01109   0.98274    0.011
 5460.00    1.02587   0.98437    0.011
 5461.00    1.03753   0.98270    0.011
 5462.00    1.04878   0.97935    0.011
 5463.00    1.02434   0.98083    0.011
 5464.00    1.00358   0.98064    0.011
 5465.00    1.06942   0.97729    0.011
 5466.00    1.12738   0.97786    0.011
 5467.00    1.08400   0.97871    0.011
 5468.00    1.04634   0.97600    0.011
 5469.00    1.05824   0.97489    0.011
 5470.00    1.07347   0.97747    0.011
 5471.00    1.11011   0.97719    0.011
 5472.00    1.11253   0.97235    0.011
 5473.00    0.94343   0.97346    0.011
 5474.00    0.81874   0.97659    0.011
 5475.00    0.87436   0.97037    0.012
 5476.00    0.90383   0.96772    0.012
 5477.00    0.84527   0.97313    0.012
 5478.00    0.82812   0.97013   -2.000
 5479.00    0.92861   0.96358   -2.000
 5480.00    1.02903   0.96672   -2.000
 5481.00    1.12927   0.96854   -2.000
 5482.00    1.15430   0.96122   -2.000
 5483.00    1.02173   0.96038   -2.000
 5484.00    0.96345   0.96635   -2.000
 5485.00    1.04043   0.96186   -2.000
 5486.00    1.16057   0.95689   -2.000
 5487.00    1.34940   0.96348   -2.000
 5488.00    1.41449   0.96450   -2.000
 5489.00    1.30673   0.95798   -2.000
 5490.00    1.15480   0.96145   -2.000
 5491.00    0.94857   0.96844   -2.000
 5492.00    0.79180   0.96484   -2.000
 5493.00    0.68862   0.96237   -2.000
 5494.00    0.73931   0.96984   -2.000
 5495.00    0.93709   0.97145   -2.000
 5496.00    1.07081   0.96645   -2.000
 5497.00    1.15053   0.97122   -2.000
 5498.00    1.10992   0.97665   -2.000
 5499.00    0.98001   0.97106   -2.000
 5500.00    0.92200   0.97083   -2.000
 5501.00    0.91087   0.97778   -2.000
 5502.00    0.92876   0.97454    0.011
 5503.00    0.96322   0.97076    0.011
 5504.00    0.95966   0.97649    0.011
 5505.00    0.93722   0.97562    0.011
 5506.00    0.97268   0.96956    0.011
 5507.00    1.03303   0.97258    0.011
 5508.00    1.08629   0.97446    0.011
 5509.00    1.13695   0.96869    0.011
 5510.00    1.16546   0.96819    0.011
 5511.00    1.18705   0.97079    0.011
 5512.00    1.12155   0.96717    0.011
 5513.00    1.03339   0.96515    0.011
 5514.00    0.94058   0.96733    0.011
 5515.00    0.84679   0.96504    0.011
 5516.00    0.83946   0.96339    0.011
 5517.00    0.84666   0.96645    0.011
 5518.00    0.81758   0.96498    0.011
 5519.00    0.78390   0.96316    0.011
 5520.00    0.81204   0.96651    0.011
 5521.00    0.84562   0.96676    0.011
 5522.00    0.85622   0.96561    0.011
 5523.00    0.86563   0.96791    0.011
 5524.00    0.88247   0.96898    0.011
 5525.00    0.89970   0.96896    0.011
 5526.00    0.93593   0.97041    0.011
 5527.00    0.96863   0.97163    0.011
 5528.00    0.92541   0.97218    0.011
 5529.00    0.88284   0.97346    0.011
 5530.00    0.84825   0.97429    0.011
 5531.00    0.82436   0.97409    0.011
 5532.00    0.88955   0.97544    0.011
 5533.00    0.94627   0.97593    0.011
 5534.00    0.95029   0.97410    0.011
 5535.00    0.95562   0.97577    0.011
 5536.00    0.96733   0.97736    0.011
 5537.00    0.97194   0.97442    0.011
 5538.00    0.94837   0.97522    0.011
 5539.00    0.93000   0.97856    0.011
 5540.00    0.92875   0.97690    0.011
 5541.00    0.95284   0.97606    0.011
 5542.00    1.04762   0.97958    0.011
 5543.00    1.08253   0.98054    0.011
 5544.00    0.97452   0.97898    0.011
 5545.00    0.92025   0.98124    0.011
 5546.00    0.97679   0.98399    0.011
 5547.00    1.02011   0.98345    0.011
 5548.00    1.03972   0.98460    0.011
 5549.00    1.03351   0.98728    0.011
 5550.00    0.98680   0.98827    0.011
 5551.00    0.96034   0.98892    0.010
 5552.00    0.96174   0.98983    0.010
 5553.00    0.97997   0.99132    0.010
 5554.00    1.01857   0.99257    0.010
 5555.00    0.99681   0.99208    0.010
 5556.00    0.91055   0.99236    0.010
 5557.00    0.81308   0.99401    0.010
 5558.00    0.70503   0.99353    0.010
 5559.00    0.71181   0.99221    0.010
 5560.00    0.81401   0.99310    0.010
 5561.00    0.91031   0.99273    0.011
 5562.00    1.00230   0.99011    0.011
 5563.00    0.98689   0.98972    0.011
 5564.00    0.90248   0.98949    0.011
 5565.00    0.88947   0.98635    0.011
 5566.00    0.91656   0.98481    0.010
 5567.00    0.94572   0.98503    0.011
 5568.00    0.97589   0.98160    0.011
 5569.00    0.91388   0.97888    0.011
 5570.00    0.81292   0.98050    0.011
 5571.00    0.88188   0.97727    0.011
 5572.00    1.01232   0.97230    0.011
 5573.00    1.03309   0.97517    0.011
 5574.00    1.02030   0.97439    0.011
 5575.00    1.05365   0.96759    0.011
 5576.00    1.09876   0.96946    0.011
 5577.00    1.10327   0.97229    0.011
 5578.00    1.09937   0.96552    0.011
 5579.00    1.02716   0.96442    0.011
 5580.00    0.94381   0.97027    0.011
 5581.00    0.96901   0.96546    0.011
 5582.00    1.00748   0.96025    0.011
 5583.00    1.00171   0.96626    0.011
 5584.00    0.99222   0.96531    0.011
 5585.00    0.94748   0.95779    0.011
 5586.00    0.90105   0.96041    0.011
 5587.00    0.90276   0.96194    0.011
 5588.00    0.90573   0.95504    0.011
 5589.00    0.93995   0.95436    0.011
 5590.00    0.97425   0.95627    0.010
 5591.00    1.00988   0.95109    0.011
 5592.00    1.03870   0.94823    0.011
 5593.00    0.98838   0.94891    0.011
 5594.00    0.94299   0.94585    0.011
 5595.00    0.93723   0.94309    0.011
 5596.00    0.93199   0.94253    0.011
 5597.00    0.92989   0.94025    0.011
 5598.00    0.92252   0.93861    0.011
 5599.00    0.88996   0.93944    0.011
 5600.00    0.87335   0.93818    0.011
 5601.00    0.91866   0.93705    0.011
 5602.00    0.96667   0.93947    0.011
 5603.00    1.02336   0.93922    0.011
 5604.00    1.03226   0.93816    0.011
 5605.00    0.91024   0.94255    0.010
 5606.00    0.81593   0.94468    0.010
 5607.00    0.78665   0.94263    0.011
 5608.00    0.80553   0.94559    0.011
 5609.00    0.92210   0.95032    0.011
 5610.00    1.02420   0.95011    0.011
 5611.00    1.10075   0.95063    0.011
 5612.00    1.13648   0.95538    0.011
 5613.00    1.10913   0.95764    0.011
 5614.00    1.08630   0.95624    0.011
 5615.00    1.06960   0.95929    0.011
 5616.00    1.02758   0.96314    0.011
 5617.00    0.95529   0.96111    0.011
 5618.00    0.88852   0.96085    0.011
 5619.00    0.82758   0.96421    0.011
 5620.00    0.81190   0.96335    0.011
 5621.00    0.83826   0.96069    0.011
 5622.00    0.86384   0.96295    0.011
 5623.00    0.88876   0.96325    0.010
 5624.00    0.94983   0.95773    0.010
 5625.00    1.03696   0.95793    0.011
 5626.00    1.02883   0.96108    0.011
 5627.00    0.96042   0.95771    0.010
 5628.00    0.97678   0.95598    0.010
 5629.00    1.04004   0.95809    0.010
 5630.00    1.05517   0.95647    0.010
 5631.00    1.04715   0.95505    0.011
 5632.00    1.04539   0.95750    0.010
 5633.00    1.04625   0.95618    0.010
 5634.00    1.00736   0.95327    0.010
 5635.00    0.95435   0.95638    0.010
 5636.00    0.85395   0.95786    0.010
 5637.00    0.73933   0.95536    0.010
 5638.00    0.77529   0.95735    0.010
 5639.00    0.84875   0.95935    0.010
 5640.00    0.90026   0.95686    0.010
 5641.00    0.94732   0.95747    0.010
 5642.00    1.01744   0.96005    0.010
 5643.00    1.09121   0.95765    0.010
 5644.00    1.08384   0.95629    0.010
 5645.00    1.06692   0.95918    0.010
 5646.00    0.94804   0.95848    0.010
 5647.00    0.82101   0.95577    0.010
 5648.00    0.84457   0.95777    0.010
 5649.00    0.87483   0.95881    0.010
 5650.00    0.94140   0.95549    0.010
 5651.00    1.00728   0.95561    0.010
 5652.00    1.01977   0.95804    0.010
 5653.00    1.02715   0.95569    0.010
 5654.00    0.94041   0.95348    0.010
 5655.00    0.85564   0.95602    0.011
 5656.00    0.79281   0.95613    0.011
 5657.00    0.73686   0.95184    0.011
 5658.00    0.73425   0.95213    0.011
 5659.00    0.74766   0.95502    0.011
 5660.00    0.85516   0.95149    0.011
 5661.00    0.93174   0.94846    0.011
 5662.00    0.86445   0.95206    0.011
 5663.00    0.82344   0.95132    0.010
 5664.00    0.88228   0.94553    0.010
 5665.00    0.92860   0.94764    0.010
 5666.00    0.93515   0.95114    0.010
 5667.00    0.95372   0.94538    0.010
 5668.00    1.00465   0.94337    0.010
 5669.00    0.99435   0.94956    0.010
 5670.00    0.84279   0.94891    0.010
 5671.00    0.76264   0.94467    0.010
 5672.00    0.82509   0.94897    0.010
 5673.00    0.89546   0.95247    0.010
 5674.00    0.97964   0.94913    0.010
 5675.00    1.02610   0.95095    0.011
 5676.00    1.01513   0.95634    0.011
 5677.00    0.98516   0.95505    0.011
 5678.00    0.92978   0.95431    0.011
 5679.00    0.91927   0.95964    0.010
 5680.00    0.96160   0.96146    0.010
 5681.00    1.00708   0.95934    0.010
 5682.00    1.05583   0.96204    0.010
 5683.00    1.05979   0.96539    0.010
 5684.00    1.02270   0.96351    0.010
 5685.00    1.01104   0.96326    0.010
 5686.00    1.01991   0.96628    0.010
 5687.00    1.01291   0.96555    0.010
 5688.00    0.99461   0.96324    0.010
 5689.00    0.96655   0.96490    0.010
 5690.00    0.93240   0.96579    0.010
 5691.00    0.88207   0.96325    0.010
 5692.00    0.82293   0.96278    0.010
 5693.00    0.86068   0.96377    0.010
 5694.00    0.94429   0.96236    0.011
 5695.00    1.00086   0.96132    0.011
 5696.00    1.04638   0.96170    0.011
 5697.00    1.06388   0.96015    0.011
 5698.00    1.07160   0.95914    0.011
 5699.00    1.10213   0.96002    0.011
 5700.00    1.13937   0.95827    0.011
 5701.00    1.04905   0.95631    0.011
 5702.00    0.92766   0.95733    0.010
 5703.00    0.92076   0.95633    0.010
 5704.00    0.93641   0.95250    0.010
 5705.00    0.93007   0.95225    0.010
 5706.00    0.92035   0.95316    0.010
 5707.00    0.89723   0.94847    0.010
 5708.00    0.87260   0.94545    0.010
 5709.00    0.93613   0.94771    0.010
 5710.00    1.00633   0.94528    0.010
 5711.00    1.01032   0.94008    0.010
 5712.00    1.01162   0.94130    0.010
 5713.00    0.97126   0.94278    0.010
 5714.00    0.93110   0.93819    0.010
 5715.00    0.91248   0.93677    0.010
 5716.00    0.89814   0.94049    0.010
 5717.00    0.95736   0.93908    0.010
 5718.00    1.00795   0.93663    0.010
 5719.00    0.96727   0.94100    0.010
 5720.00    0.91682   0.94366    0.010
 5721.00    0.79313   0.94241    0.010
 5722.00    0.69089   0.94556    0.010
 5723.00    0.71108   0.95002    0.010
 5724.00    0.74102   0.95088    0.010
 5725.00    0.81521   0.95302    0.010
 5726.00    0.88396   0.95711    0.010
 5727.00    0.93247   0.95925    0.010
 5728.00    0.97468   0.96186    0.010
 5729.00    0.99728   0.96563    0.010
 5730.00    1.00307   0.96707    0.010
 5731.00    0.96445   0.96921    0.011
 5732.00    0.92657   0.97269    0.011
 5733.00    0.89037   0.97291    0.010
 5734.00    0.84756   0.97368    0.010
 5735.00    0.79173   0.97714    0.010
 5736.00    0.76279   0.97724    0.010
 5737.00    0.77990   0.97588    0.010
 5738.00    0.81780   0.97853    0.010
 5739.00    0.88688   0.98030    0.010
 5740.00    0.93274   0.97795    0.000
 5741.00    0.94798   0.97821    0.000
 5742.00    0.94833   0.98044    0.000
 5743.00    0.93137   0.97883    0.000
 5744.00    0.92756   0.97771    0.000
 5745.00    0.93722   0.97971    0.000
 5746.00    0.97052   0.97941    0.000
 5747.00    1.02515   0.97691    0.000
 5748.00    1.03743   0.97725    0.000
 5749.00    1.01600   0.97830    0.000
 5750.00    0.95002   0.97684    0.000
 5751.00    0.85285   0.97608    0.000
 5752.00    0.82623   0.97625    0.000
 5753.00    0.84294   0.97463    0.000
 5754.00    0.86328   0.97329    0.000
 5755.00    0.88558   0.97390    0.000
 5756.00    0.89227   0.97345    0.000
 5757.00    0.89169   0.97166    0.000
 5758.00    0.92482   0.97109    0.000
 5759.00    0.97147   0.97081    0.000
 5760.00    0.95703   0.96945    0.000
 5761.00    0.92166   0.96858    0.000
 5762.00    0.93596   0.96865    0.000
 5763.00    0.96458   0.96831    0.000
 5764.00    0.97809   0.96740    0.000
 5765.00    0.98800   0.96728    0.000
 5766.00    1.02087   0.96792    0.000
 5767.00    1.05815   0.96807    0.000
 5768.00    1.06045   0.96713    0.000
 5769.00    1.05754   0.96659    0.000
 5770.00    1.00451   0.96741    0.000
 5771.00    0.94601   0.96770    0.000
 5772.00    0.92591   0.96748    0.000
 5773.00    0.90857   0.96824    0.000
 5774.00    0.93116   0.96879    0.000
 5775.00    0.95523   0.96803    0.000
 5776.00    0.98667   0.96736    0.000
 5777.00    1.01734   0.96736    0.000
 5778.00    1.01966   0.96671    0.000
 5779.00    1.02024   0.96545    0.000
 5780.00    0.99281   0.96419    0.000
 5781.00    0.96655   0.96332    0.000
 5782.00    0.95209   0.96285    0.000
 5783.00    0.93445   0.96055    0.000
 5784.00    0.89381   0.95757    0.000
 5785.00    0.87243   0.95719    0.000
 5786.00    0.95799   0.95599    0.000
 5787.00    1.02926   0.95183    0.000
 5788.00    1.03714   0.95073    0.000
 5789.00    1.05523   0.95145    0.000
 5790.00    1.11053   0.94780    0.000
 5791.00    1.13263   0.94518   -2.000
 5792.00    1.05337   0.94751   -2.000
 5793.00    0.98119   0.94723   -2.000
 5794.00    0.92741   0.94440   -2.000
 5795.00    0.91760   0.94664   -2.000
 5796.00    1.00593   0.94838   -2.000
 5797.00    1.05807   0.94576   -2.000
 5798.00    1.04020   0.94782   -2.000
 5799.00    1.01584   0.95227   -2.000
 5800.00    0.98053   0.95194   -2.000
 5801.00    0.96141   0.95291   -2.000
 5802.00    0.96623   0.95783   -2.000
 5803.00    1.00126   0.95867   -2.000
 5804.00    1.07554   0.95790   -2.000
 5805.00    1.11987   0.96285   -2.000
 5806.00    1.12990   0.96593   -2.000
 5807.00    1.09526   0.96423   -2.000
 5808.00    1.01554   0.96693   -2.000
 5809.00    0.96510   0.97139   -2.000
 5810.00    0.94076   0.97047   -2.000
 5811.00    0.92373   0.97003    0.000
 5812.00    0.91244   0.97391    0.000
 5813.00    0.88531   0.97491    0.000
 5814.00    0.84726   0.97271    0.000
 5815.00    0.84896   0.97408    0.000
 5816.00    0.87472   0.97688    0.000
 5817.00    0.90985   0.97640    0.000
 5818.00    0.94993   0.97558    0.000
 5819.00    0.98119   0.97719    0.000
 5820.00    1.00841   0.97817    0.000
 5821.00    1.01764   0.97703    0.000
 5822.00    1.01978   0.97675    0.000
 5823.00    1.06707   0.97856    0.000
 5824.00    1.12954   0.97983    0.000
 5825.00    1.11901   0.97914    0.000
 5826.00    1.08787   0.97939    0.000
 5827.00    1.07823   0.98117    0.000
 5828.00    1.07360   0.98164    0.000
 5829.00    1.07606   0.98100    0.000
 5830.00    1.07984   0.98170    0.000
 5831.00    0.96570   0.98361    0.000
 5832.00    0.83454   0.98377    0.000
 5833.00    0.84228   0.98304    0.000
 5834.00    0.86456   0.98405    0.000
 5835.00    1.01602   0.98569    0.000
 5836.00    1.17623   0.98535    0.000
 5837.00    1.18823   0.98403    0.000
 5838.00    1.19534   0.98515    0.000
 5839.00    1.11352   0.98634    0.000
 5840.00    1.03270   0.98462    0.000
 5841.00    0.98539   0.98371    0.000
 5842.00    0.93923   0.98556    0.000
 5843.00    0.91055   0.98534    0.000
 5844.00    0.88200   0.98229    0.000
 5845.00    0.85464   0.98214    0.000
 5846.00    0.82756   0.98327    0.000
 5847.00    0.80251   0.98104    0.000
 5848.00    0.78672   0.97870    0.000
 5849.00    0.82106   0.97912    0.000
 5850.00    0.84077   0.97837    0.000
 5851.00    0.79717   0.97490    0.000
 5852.00    0.77634   0.97275    0.000
 5853.00    0.83677   0.97218    0.000
 5854.00    0.89028   0.97023    0.000
 5855.00    0.92301   0.96708    0.000
 5856.00    0.94483   0.96467    0.000
 5857.00    0.93882   0.96325    0.000
 5858.00    0.92454   0.96067    0.000
 5859.00    0.89209   0.95696    0.000
 5860.00    0.84992   0.95526    0.000
 5861.00    0.78920   0.95432    0.000
 5862.00    0.75916   0.95129    0.000
 5863.00    0.78011   0.94821    0.000
 5864.00    0.83100   0.94776    0.000
 5865.00    0.92552   0.94657    0.000
 5866.00    0.96455   0.94363    0.000
 5867.00    0.93249   0.94364    0.000
 5868.00    0.90931   0.94405    0.000
 5869.00    0.89613   0.94216    0.000
 5870.00    0.93374   0.94163    0.000
 5871.00    1.02192   0.94291    0.000
 5872.00    1.08493   0.94194    0.000
 5873.00    1.12585   0.94093    0.000
 5874.00    1.08824   0.94322    0.000
 5875.00    0.98990   0.94327    0.000
 5876.00    0.92567   0.94140    0.000
 5877.00    0.88463   0.94264    0.000
 5878.00    0.86981   0.94343    0.000
 5879.00    0.87062   0.94038    0.000
 5880.00    0.88882   0.93914    0.000
 5881.00    0.91608   0.94013    0.000
 5882.00    0.89931   0.93680    0.000
 5883.00    0.86268   0.93291    0.000
 5884.00    0.83802   0.93213    0.000
 5885.00    0.81799   0.92889    0.000
 5886.00    0.78486   0.92288    0.000
 5887.00    0.74741   0.91897    0.000
 5888.00    0.77344   0.91381    0.000
 5889.00    0.81701   0.90563    0.000
 5890.00    0.86234   0.90083    0.000
 5891.00    0.90806   0.89632    0.000
 5892.00    0.91381   0.88807    0.000
 5893.00    0.91230   0.88234    0.000
 5894.00    0.90636   0.87698    0.000
 5895.00    0.89980   0.86553    0.000
 5896.00    0.88693   0.85757    0.000
 5897.00    0.87342   0.85777    0.000
 5898.00    0.86508   0.85242    0.000
 5899.00    0.85707   0.84449    0.000
 5900.00    0.88578   0.84629    0.000
 5901.00    0.91554   0.84475    0.010
 5902.00    0.93860   0.83434    0.010
 5903.00    0.96076   0.83511    0.010
 5904.00    0.95762   0.84415    0.010
 5905.00    0.95497   0.84227    0.010
 5906.00    0.95934   0.84108    0.010
 5907.00    0.95847   0.85189    0.010
 5908.00    0.90881   0.85568    0.010
 5909.00    0.86238   0.85167    0.010
 5910.00    0.83793   0.86023    0.010
 5911.00    0.81095   0.87239    0.010
 5912.00    0.77060   0.87316    0.010
 5913.00    0.74943   0.87621    0.009
 5914.00    0.80945   0.88767    0.009
 5915.00    0.86648   0.89211    0.009
 5916.00    0.91308   0.89171    0.010
 5917.00    0.94103   0.89918    0.010
 5918.00    0.91411   0.90696    0.009
 5919.00    0.89131   0.90756    0.009
 5920.00    0.87886   0.90932    0.009
 5921.00    0.87542   0.91518    0.009
 5922.00    0.89141   0.91739    0.009
 5923.00    0.89159   0.91764    0.009
 5924.00    0.86212   0.92085    0.009
 5925.00    0.84240   0.92373    0.009
 5926.00    0.83865   0.92402    0.009
 5927.00    0.83860   0.92437    0.009
 5928.00    0.84390   0.92589    0.009
 5929.00    0.85786   0.92633    0.009
 5930.00    0.88278   0.92720    0.009
 5931.00    0.92646   0.92890    0.009
 5932.00    0.99103   0.92937    0.009
 5933.00    1.00948   0.92897    0.009
 5934.00    0.98267   0.92955    0.009
 5935.00    0.95210   0.93035    0.009
 5936.00    0.91826   0.92924    0.010
 5937.00    0.93029   0.92973    0.010
 5938.00    0.97729   0.93239    0.010
 5939.00    0.97846   0.93251    0.010
 5940.00    0.94892   0.92994    0.010
 5941.00    0.91991   0.93036    0.010
 5942.00    0.89121   0.93291    0.010
 5943.00    0.89330   0.93127    0.010
 5944.00    0.91115   0.92982    0.010
 5945.00    0.94328   0.93310    0.010
 5946.00    0.98175   0.93446    0.009
 5947.00    0.97696   0.93033    0.009
 5948.00    0.95569   0.92916    0.009
 5949.00    0.91492   0.93310    0.009
 5950.00    0.86783   0.93293    0.009
 5951.00    0.83945   0.92961    0.009
 5952.00    0.81613   0.93111    0.009
 5953.00    0.84422   0.93406    0.009
 5954.00    0.88374   0.93105    0.009
 5955.00    0.90294   0.92772    0.009
 5956.00    0.91854   0.93084    0.009
 5957.00    0.90218   0.93320    0.009
 5958.00    0.88150   0.92986    0.009
 5959.00    0.83177   0.92867    0.009
 5960.00    0.77925   0.93238    0.009
 5961.00    0.76461   0.93245    0.009
 5962.00    0.75222   0.92879    0.009
 5963.00    0.77397   0.93014    0.009
 5964.00    0.79662   0.93373    0.009
 5965.00    0.82344   0.93234    0.009
 5966.00    0.85016   0.93094    0.009
 5967.00    0.87423   0.93400    0.009
 5968.00    0.89637   0.93563    0.010
 5969.00    0.89246   0.93389    0.010
 5970.00    0.88350   0.93471    0.010
 5971.00    0.82939   0.93695    0.010
 5972.00    0.78270   0.93665    0.009
 5973.00    0.78486   0.93689    0.009
 5974.00    0.79184   0.93852    0.009
 5975.00    0.82343   0.93862    0.009
 5976.00    0.84102   0.93789    0.009
 5977.00    0.80063   0.93884    0.009
 5978.00    0.77043   0.93895    0.009
 5979.00    0.77518   0.93776    0.009
 5980.00    0.78299   0.93823    0.009
 5981.00    0.79961   0.93875    0.009
 5982.00    0.82074   0.93688    0.009
 5983.00    0.85296   0.93497    0.009
 5984.00    0.88339   0.93554    0.009
 5985.00    0.91002   0.93545    0.009
 5986.00    0.92471   0.93332    0.009
 5987.00    0.91738   0.93240    0.009
 5988.00    0.91927   0.93316    0.009
 5989.00    0.93603   0.93178    0.009
 5990.00    0.94135   0.92843    0.009
 5991.00    0.93048   0.92842    0.009
 5992.00    0.91739   0.93046    0.009
 5993.00    0.90154   0.92899    0.009
 5994.00    0.91533   0.92655    0.009
 5995.00    0.96166   0.92800    0.009
 5996.00    0.96616   0.92898    0.009
 5997.00    0.93019   0.92567    0.009
 5998.00    0.91783   0.92470    0.009
 5999.00    0.92563   0.92810    0.010
 6000.00    0.94895   0.92820    0.010
 6001.00    0.98396   0.92497    0.010
 6002.00    0.97951   0.92539    0.009
 6003.00    0.94900   0.92756    0.009
 6004.00    0.92572   0.92546    0.009
 6005.00    0.90663   0.92334    0.010
 6006.00    0.88881   0.92534    0.009
 6007.00    0.87164   0.92574    0.009
 6008.00    0.84630   0.92265    0.009
 6009.00    0.81739   0.92181    0.009
 6010.00    0.79594   0.92355    0.009
 6011.00    0.77729   0.92207    0.009
 6012.00    0.78599   0.91922    0.009
 6013.00    0.80338   0.91987    0.009
 6014.00    0.81949   0.92014    0.009
 6015.00    0.83527   0.91726    0.009
 6016.00    0.83051   0.91632    0.009
 6017.00    0.82128   0.91849    0.009
 6018.00    0.81804   0.91720    0.009
 6019.00    0.81582   0.91356    0.009
 6020.00    0.85108   0.91467    0.009
 6021.00    0.89123   0.91678    0.009
 6022.00    0.88461   0.91409    0.009
 6023.00    0.87369   0.91239    0.009
 6024.00    0.85608   0.91619    0.009
 6025.00    0.83809   0.91696    0.009
 6026.00    0.87116   0.91286    0.009
 6027.00    0.90554   0.91415    0.009
 6028.00    0.95842   0.91914    0.009
 6029.00    1.00942   0.91820    0.009
 6030.00    1.01660   0.91549    0.009
 6031.00    1.02232   0.91989    0.010
 6032.00    1.00932   0.92379    0.009
 6033.00    0.99010   0.92112    0.009
 6034.00    0.91741   0.92158    0.009
 6035.00    0.85898   0.92747    0.009
 6036.00    0.89165   0.92911    0.009
 6037.00    0.92458   0.92683    0.009
 6038.00    0.95886   0.92994    0.009
 6039.00    0.98193   0.93476    0.009
 6040.00    0.95967   0.93429    0.009
 6041.00    0.94147   0.93377    0.009
 6042.00    0.93691   0.93797    0.009
 6043.00    0.93382   0.94070    0.009
 6044.00    0.93484   0.93933    0.009
 6045.00    0.94167   0.94028    0.009
 6046.00    0.96256   0.94372    0.009
 6047.00    0.98666   0.94433    0.009
 6048.00    1.01748   0.94292    0.009
 6049.00    1.02927   0.94479    0.009
 6050.00    1.00645   0.94714    0.009
 6051.00    0.97013   0.94611    0.009
 6052.00    0.91236   0.94513    0.009
 6053.00    0.87091   0.94696    0.009
 6054.00    0.85225   0.94773    0.009
 6055.00    0.85727   0.94564    0.009
 6056.00    0.89135   0.94559    0.009
 6057.00    0.92123   0.94704    0.009
 6058.00    0.94654   0.94622    0.009
 6059.00    0.94707   0.94421    0.009
 6060.00    0.92396   0.94460    0.009
 6061.00    0.90810   0.94508    0.009
 6062.00    0.89832   0.94337    0.009
 6063.00    0.87056   0.94224    0.009
 6064.00    0.82947   0.94209    0.009
 6065.00    0.80931   0.94177    0.009
 6066.00    0.80276   0.94097    0.009
 6067.00    0.80954   0.94054    0.009
 6068.00    0.82391   0.94008    0.009
 6069.00    0.86518   0.93985    0.009
 6070.00    0.91979   0.93967    0.009
 6071.00    0.95100   0.93851    0.009
 6072.00    0.97217   0.93834    0.009
 6073.00    0.94156   0.93951    0.009
 6074.00    0.89191   0.93950    0.009
 6075.00    0.86853   0.93825    0.009
 6076.00    0.85334   0.93874    0.009
 6077.00    0.84105   0.93955    0.009
 6078.00    0.82951   0.93853    0.009
 6079.00    0.84009   0.93846    0.009
 6080.00    0.85535   0.93929    0.009
 6081.00    0.91564   0.93835    0.009
 6082.00    0.98346   0.93708    0.009
 6083.00    1.00541   0.93784    0.009
 6084.00    1.02158   0.93717    0.009
 6085.00    0.98331   0.93493    0.009
 6086.00    0.94027   0.93540    0.009
 6087.00    0.90173   0.93581    0.009
 6088.00    0.86342   0.93235    0.009
 6089.00    0.87117   0.93016    0.009
 6090.00    0.87979   0.93206    0.009
 6091.00    0.89104   0.93088    0.009
 6092.00    0.90274   0.92657    0.009
 6093.00    0.92387   0.92671    0.009
 6094.00    0.94372   0.92878    0.009
 6095.00    0.94793   0.92538    0.009
 6096.00    0.94548   0.92179    0.009
 6097.00    0.88767   0.92376    0.009
 6098.00    0.83500   0.92461    0.009
 6099.00    0.81417   0.92119    0.009
 6100.00    0.80630   0.92016    0.009
 6101.00    0.86157   0.92180    0.009
 6102.00    0.91116   0.92035    0.009
 6103.00    0.93827   0.91837    0.009
 6104.00    0.95362   0.91931    0.009
 6105.00    0.93029   0.92023    0.009
 6106.00    0.90757   0.91890    0.009
 6107.00    0.88656   0.91817    0.009
 6108.00    0.87518   0.91821    0.009
 6109.00    0.88674   0.91748    0.009
 6110.00    0.89142   0.91765    0.009
 6111.00    0.88194   0.91869    0.009
 6112.00    0.87505   0.91840    0.009
 6113.00    0.87277   0.91717    0.009
 6114.00    0.88799   0.91760    0.009
 6115.00    0.93058   0.91832    0.009
 6116.00    0.94359   0.91810    0.009
 6117.00    0.91596   0.91796    0.009
 6118.00    0.87759   0.91827    0.009
 6119.00    0.82623   0.91822    0.009
 6120.00    0.80666   0.91731    0.009
 6121.00    0.82099   0.91646    0.009
 6122.00    0.83600   0.91691    0.009
 6123.00    0.85166   0.91834    0.009
 6124.00    0.88017   0.91723    0.009
 6125.00    0.91935   0.91455    0.009
 6126.00    0.93380   0.91498    0.009
 6127.00    0.93021   0.91596    0.009
 6128.00    0.93471   0.91291    0.009
 6129.00    0.94440   0.91083    0.009
 6130.00    0.92323   0.91314    0.009
 6131.00    0.88475   0.91271    0.009
 6132.00    0.84100   0.90814    0.009
 6133.00    0.79468   0.90743    0.009
 6134.00    0.78003   0.91004    0.009
 6135.00    0.77874   0.90770    0.009
 6136.00    0.78496   0.90326    0.009
 6137.00    0.79389   0.90465    0.009
 6138.00    0.79934   0.90658    0.009
 6139.00    0.80374   0.90269    0.009
 6140.00    0.80817   0.89991    0.009
 6141.00    0.81260   0.90280    0.009
 6142.00    0.82772   0.90341    0.009
 6143.00    0.84504   0.89904    0.009
 6144.00    0.88942   0.89801    0.009
 6145.00    0.93821   0.90163    0.009
 6146.00    0.96086   0.90144    0.009
 6147.00    0.98034   0.89680    0.009
 6148.00    0.92481   0.89696    0.009
 6149.00    0.86302   0.90109    0.009
 6150.00    0.82440   0.90066    0.009
 6151.00    0.78690   0.89734    0.009
 6152.00    0.78258   0.89840    0.009
 6153.00    0.77891   0.90036    0.009
 6154.00    0.78449   0.89781    0.009
 6155.00    0.79157   0.89632    0.009
 6156.00    0.82820   0.89827    0.009
 6157.00    0.86289   0.89801    0.009
 6158.00    0.87511   0.89515    0.009
 6159.00    0.88088   0.89431    0.009
 6160.00    0.83507   0.89310    0.009
 6161.00    0.79110   0.88988    0.009
 6162.00    0.75825   0.88896    0.009
 6163.00    0.73447   0.88889    0.009
 6164.00    0.75379   0.88414    0.009
 6165.00    0.76890   0.87964    0.009
 6166.00    0.76771   0.88099    0.009
 6167.00    0.76262   0.87928    0.009
 6168.00    0.74497   0.87137    0.009
 6169.00    0.73543   0.86923    0.009
 6170.00    0.74810   0.87335    0.009
 6171.00    0.76679   0.86928    0.009
 6172.00    0.79956   0.86060    0.009
 6173.00    0.82725   0.86268    0.009
 6174.00    0.84464   0.86786    0.009
 6175.00    0.85774   0.86185    0.009
 6176.00    0.86328   0.85610    0.009
 6177.00    0.86530   0.86295    0.009
 6178.00    0.86189   0.86668    0.009
 6179.00    0.85181   0.85846    0.009
 6180.00    0.83270   0.85718    0.009
 6181.00    0.83798   0.86699    0.009
 6182.00    0.87234   0.86814    0.009
 6183.00    0.89014   0.86113    0.009
 6184.00    0.89054   0.86490    0.009
 6185.00    0.89458   0.87296    0.009
 6186.00    0.90201   0.86941    0.009
 6187.00    0.91406   0.86525    0.009
 6188.00    0.92990   0.87265    0.009
 6189.00    0.92158   0.87708    0.009
 6190.00    0.89587   0.87052    0.009
 6191.00    0.85419   0.86975    0.009
 6192.00    0.80242   0.87731    0.009
 6193.00    0.80129   0.87706    0.009
 6194.00    0.82813   0.87108    0.009
 6195.00    0.86579   0.87379    0.009
 6196.00    0.90863   0.87888   -2.000
 6197.00    1.07322   0.87459   -2.000
 6198.00    1.28827   0.87034   -2.000
 6199.00    1.41356   0.87531   -2.000
 6200.00    1.50704   0.87846   -2.000
 6201.00    1.31800   0.87282   -2.000
 6202.00    1.04442   0.87086   -2.000
 6203.00    0.81931   0.87652   -2.000
 6204.00    0.60623   0.87757   -2.000
 6205.00    0.66691   0.87285   -2.000
 6206.00    0.78270   0.87307   -2.000
 6207.00    0.84783   0.87765   -2.000
 6208.00    0.90496   0.87706    0.009
 6209.00    0.84501   0.87321    0.009
 6210.00    0.77133   0.87420    0.009
 6211.00    0.77323   0.87747    0.009
 6212.00    0.78112   0.87603    0.009
 6213.00    0.84615   0.87323    0.009
 6214.00    0.91369   0.87398    0.008
 6215.00    0.92831   0.87486    0.008
 6216.00    0.94155   0.87291    0.008
 6217.00    0.91633   0.87093    0.008
 6218.00    0.89239   0.87057    0.008
 6219.00    0.89177   0.86948    0.008
 6220.00    0.88844   0.86717    0.008
 6221.00    0.85531   0.86540    0.009
 6222.00    0.82318   0.86429    0.009
 6223.00    0.79882   0.86243    0.009
 6224.00    0.78231   0.86069    0.008
 6225.00    0.81172   0.85863    0.009
 6226.00    0.84157   0.85623    0.009
 6227.00    0.87342   0.85563    0.009
 6228.00    0.90329   0.85543    0.009
 6229.00    0.92566   0.85251    0.009
 6230.00    0.93372   0.84958    0.009
 6231.00    0.89649   0.84995    0.009
 6232.00    0.87030   0.85007    0.009
 6233.00    0.87369   0.84792    0.009
 6234.00    0.87935   0.84641    0.009
 6235.00    0.89020   0.84699    0.009
 6236.00    0.89383   0.84605    0.009
 6237.00    0.88307   0.84407    0.009
 6238.00    0.85823   0.84460    0.009
 6239.00    0.80896   0.84525    0.008
 6240.00    0.77118   0.84336    0.008
 6241.00    0.75086   0.84174    0.008
 6242.00    0.74258   0.84221    0.008
 6243.00    0.75037   0.84246    0.008
 6244.00    0.75941   0.84216    0.008
 6245.00    0.76992   0.84126    0.008
 6246.00    0.79484   0.84037    0.008
 6247.00    0.83472   0.84041    0.008
 6248.00    0.85711   0.84030    0.008
 6249.00    0.86352   0.83877    0.008
 6250.00    0.86408   0.83757    0.008
 6251.00    0.85993   0.83832    0.008
 6252.00    0.86588   0.83771    0.008
 6253.00    0.87900   0.83490    0.009
 6254.00    0.87215   0.83502    0.009
 6255.00    0.85289   0.83680    0.009
 6256.00    0.82762   0.83459    0.009
 6257.00    0.79910   0.83203    0.009
 6258.00    0.82415   0.83379    0.009
 6259.00    0.87452   0.83493    0.009
 6260.00    1.01203   0.83198    0.010
 6261.00    1.18505   0.83109    0.011
 6262.00    1.23639   0.83364    0.011
 6263.00    1.24538   0.83350    0.011
 6264.00    1.10851   0.83049    0.011
 6265.00    0.92884   0.83214    0.011
 6266.00    0.78716   0.83610    0.010
 6267.00    0.65471   0.83481    0.009
 6268.00    0.65322   0.83234    0.009
 6269.00    0.67744   0.83592    0.009
 6270.00    0.73838   0.84039    0.008
 6271.00    0.80494   0.83862    0.008
 6272.00    0.84801   0.83794    0.008
 6273.00    0.88843   0.84312    0.008
 6274.00    0.91161   0.84613    0.008
 6275.00    0.93349   0.84354    0.008
 6276.00    0.92222   0.84459    0.008
 6277.00    0.90961   0.85048    0.008
 6278.00    0.90356   0.85213    0.008
 6279.00    0.89699   0.84975    0.008
 6280.00    0.86756   0.85150    0.000
 6281.00    0.84003   0.85618    0.000
 6282.00    0.84464   0.85692    0.000
 6283.00    0.84943   0.85601    0.000
 6284.00    0.85598   0.85788    0.000
 6285.00    0.85893   0.86046    0.000
 6286.00    0.83500   0.86041    0.000
 6287.00    0.81266   0.86028    0.000
 6288.00    0.79938   0.86215    0.000
 6289.00    0.79993   0.86363    0.000
 6290.00    0.86305   0.86314    0.000
 6291.00    0.91239   0.86281    0.000
 6292.00    0.91057   0.86383    0.000
 6293.00    0.90580   0.86510    0.000
 6294.00    0.89185   0.86557    0.000
 6295.00    0.88444   0.86465    0.000
 6296.00    0.89424   0.86408    0.000
 6297.00    0.91081   0.86492    0.000
 6298.00    0.94268   0.86589    0.000
 6299.00    0.95783   0.86505    0.000
 6300.00    0.94021   0.86358    0.000
 6301.00    0.92407   0.86366    0.000
 6302.00    0.91049   0.86427    0.000
 6303.00    0.90946   0.86310    0.000
 6304.00    0.92722   0.86184    0.000
 6305.00    0.93663   0.86241    0.000
 6306.00    0.93504   0.86239    0.000
 6307.00    0.93308   0.86038    0.000
 6308.00    0.93069   0.85946    0.000
 6309.00    0.90900   0.86078    0.000
 6310.00    0.86760   0.86073    0.000
 6311.00    0.84178   0.85856    0.000
 6312.00    0.83002   0.85788    0.000
 6313.00    0.80610   0.85892    0.000
 6314.00    0.77251   0.85894    0.000
 6315.00    0.74672   0.85815    0.000
 6316.00    0.72637   0.85785    0.000
 6317.00    0.73458   0.85742    0.000
 6318.00    0.76031   0.85738    0.000
 6319.00    0.79211   0.85867    0.000
 6320.00    0.82717   0.85853    0.000
 6321.00    0.83114   0.85633    0.008
 6322.00    0.82067   0.85662    0.008
 6323.00    0.80607   0.85967    0.008
 6324.00    0.78982   0.85895    0.008
 6325.00    0.78134   0.85577    0.008
 6326.00    0.77552   0.85741    0.008
 6327.00    0.78858   0.86112    0.008
 6328.00    0.80706   0.85931    0.008
 6329.00    0.83787   0.85651    0.008
 6330.00    0.87161   0.85952    0.008
 6331.00    0.90376   0.86271    0.008
 6332.00    0.93560   0.86066    0.008
 6333.00    0.94974   0.85900    0.008
 6334.00    0.96124   0.86177    0.009
 6335.00    0.92416   0.86381    0.009
 6336.00    0.88181   0.86260    0.009
 6337.00    0.85909   0.86157    0.008
 6338.00    0.83775   0.86289    0.008
 6339.00    0.86868   0.86449    0.008
 6340.00    0.90150   0.86437    0.008
 6341.00    0.88567   0.86290    0.008
 6342.00    0.86933   0.86237    0.008
 6343.00    0.84169   0.86419    0.008
 6344.00    0.81539   0.86522    0.008
 6345.00    0.81056   0.86246    0.008
 6346.00    0.80644   0.86043    0.008
 6347.00    0.80937   0.86331    0.008
 6348.00    0.80742   0.86513    0.008
 6349.00    0.77020   0.86087    0.010
 6350.00    0.72751   0.85829    0.011
 6351.00    0.65453   0.86226    0.012
 6352.00    0.58767   0.86387    0.012
 6353.00    0.54791   0.85856    0.012
 6354.00    0.51387   0.85635    0.012
 6355.00    0.50056   0.86102    0.012
 6356.00    0.50820   0.86163    0.012
 6357.00    0.57965   0.85558    0.010
 6358.00    0.64163   0.85422    0.009
 6359.00    0.67909   0.85911    0.011
 6360.00    0.69254   0.85815    0.013
 6361.00    0.65252   0.85188    0.013
 6362.00    0.58531   0.85220    0.013
 6363.00    0.46562   0.85684    0.013
 6364.00    0.42153   0.85413    0.013
 6365.00    0.50477   0.84831    0.013
 6366.00    0.60814   0.85044    0.012
 6367.00    0.74121   0.85481    0.010
 6368.00    0.82916   0.85113    0.009
 6369.00    0.85855   0.84631    0.009
 6370.00    0.86515   0.84997    0.008
 6371.00    0.84570   0.85420    0.008
 6372.00    0.84410   0.85074    0.008
 6373.00    0.86050   0.84779    0.008
 6374.00    0.87581   0.85233    0.008
 6375.00    0.89016   0.85604    0.008
 6376.00    0.87490   0.85341    0.008
 6377.00    0.83644   0.85245    0.008
 6378.00    0.80776   0.85734    0.008
 6379.00    0.78582   0.86035    0.008
 6380.00    0.77339   0.85826    0.008
 6381.00    0.76671   0.85857    0.008
 6382.00    0.79432   0.86344    0.008
 6383.00    0.84001   0.86544    0.008
 6384.00    0.84554   0.86319    0.008
 6385.00    0.83272   0.86400    0.008
 6386.00    0.78528   0.86828    0.008
 6387.00    0.72420   0.86905    0.008
 6388.00    0.68704   0.86670    0.008
 6389.00    0.65790   0.86786    0.008
 6390.00    0.66955   0.87101    0.008
 6391.00    0.69267   0.87000    0.008
 6392.00    0.73994   0.86780    0.008
 6393.00    0.79281   0.86976    0.008
 6394.00    0.80941   0.87132    0.008
 6395.00    0.81925   0.86823    0.008
 6396.00    0.81827   0.86735    0.008
 6397.00    0.81572   0.87079    0.008
 6398.00    0.81540   0.87005    0.008
 6399.00    0.81531   0.86505    0.008
 6400.00    0.83961   0.86595    0.008
 6401.00    0.86554   0.87055    0.008
 6402.00    0.84915   0.86785    0.008
 6403.00    0.83138   0.86228    0.008
 6404.00    0.79360   0.86520    0.008
 6405.00    0.75739   0.86989    0.008
 6406.00    0.77008   0.86512    0.008
 6407.00    0.78158   0.86013    0.008
 6408.00    0.77542   0.86530    0.008
 6409.00    0.76901   0.86882    0.008
 6410.00    0.76029   0.86227    0.008
 6411.00    0.75238   0.86015    0.008
 6412.00    0.75018   0.86724    0.008
 6413.00    0.75235   0.86767    0.008
 6414.00    0.77803   0.85985    0.008
 6415.00    0.80099   0.86070    0.008
 6416.00    0.81214   0.86813    0.008
 6417.00    0.81911   0.86640    0.008
 6418.00    0.81117   0.86001    0.008
 6419.00    0.79808   0.86250    0.008
 6420.00    0.76956   0.86781    0.008
 6421.00    0.75661   0.86473    0.008
 6422.00    0.78329   0.86066    0.008
 6423.00    0.80791   0.86422    0.008
 6424.00    0.82805   0.86743    0.008
 6425.00    0.83870   0.86399    0.008
 6426.00    0.83129   0.86201    0.008
 6427.00    0.83362   0.86537    0.008
 6428.00    0.85210   0.86699    0.008
 6429.00    0.86785   0.86456    0.009
 6430.00    0.87964   0.86375    0.008
 6431.00    0.87383   0.86602    0.008
 6432.00    0.84554   0.86722    0.008
 6433.00    0.82616   0.86602    0.008
 6434.00    0.81682   0.86520    0.008
 6435.00    0.80460   0.86661    0.008
 6436.00    0.78950   0.86799    0.008
 6437.00    0.79499   0.86718    0.008
 6438.00    0.81851   0.86642    0.009
 6439.00    0.83848   0.86813    0.008
 6440.00    0.85570   0.86899    0.008
 6441.00    0.86504   0.86716    0.008
 6442.00    0.86905   0.86741    0.008
 6443.00    0.84632   0.87037    0.008
 6444.00    0.80770   0.86968    0.008
 6445.00    0.78636   0.86609    0.008
 6446.00    0.77399   0.86777    0.008
 6447.00    0.80551   0.87198    0.008
 6448.00    0.85677   0.86978    0.008
 6449.00    0.87221   0.86522    0.008
 6450.00    0.87381   0.86790    0.008
 6451.00    0.81423   0.87213    0.008
 6452.00    0.73453   0.86892    0.008
 6453.00    0.71437   0.86471    0.008
 6454.00    0.71064   0.86769    0.008
 6455.00    0.73989   0.87082    0.008
 6456.00    0.77663   0.86732    0.008
 6457.00    0.78106   0.86425    0.009
 6458.00    0.77964   0.86687    0.009
 6459.00    0.77238   0.86870    0.009
 6460.00    0.76431   0.86578    0.008
 6461.00    0.76657   0.86402    0.008
 6462.00    0.76985   0.86598    0.008
 6463.00    0.78255   0.86693    0.008
 6464.00    0.79584   0.86473    0.008
 6465.00    0.81866   0.86363    0.008
 6466.00    0.84171   0.86526    0.008
 6467.00    0.85515   0.86662    0.008
 6468.00    0.86924   0.86520    0.008
 6469.00    0.90144   0.86353    0.008
 6470.00    0.93345   0.86472    0.008
 6471.00    0.96298   0.86738    0.008
 6472.00    0.98811   0.86689    0.008
 6473.00    0.97244   0.86409    0.008
 6474.00    0.94705   0.86485    0.008
 6475.00    0.85584   0.86825    0.008
 6476.00    0.76992   0.86763    0.008
 6477.00    0.71172   0.86407    0.008
 6478.00    0.67088   0.86513    0.008
 6479.00    0.70330   0.86879    0.008
 6480.00    0.73982   0.86730    0.008
 6481.00    0.79065   0.86272    0.008
 6482.00    0.83846   0.86362    0.008
 6483.00    0.87743   0.86738    0.008
 6484.00    0.91258   0.86561    0.008
 6485.00    0.93818   0.86028    0.008
 6486.00    0.95615   0.86032    0.008
 6487.00    0.95767   0.86374    0.008
 6488.00    0.95038   0.86122    0.008
 6489.00    0.92664   0.85484    0.008
 6490.00    0.89411   0.85444    0.008
 6491.00    0.84722   0.85762    0.008
 6492.00    0.81434   0.85405    0.008
 6493.00    0.80155   0.84722    0.008
 6494.00    0.79993   0.84686    0.008
 6495.00    0.81240   0.84910    0.008
 6496.00    0.82755   0.84466    0.008
 6497.00    0.84567   0.83852    0.008
 6498.00    0.84801   0.83866    0.008
 6499.00    0.83487   0.83993    0.008
 6500.00    0.83057   0.83533    0.008
 6501.00    0.83390   0.83054    0.008
 6502.00    0.83972   0.83144    0.008
 6503.00    0.84744   0.83258    0.008
 6504.00    0.83591   0.82904    0.008
 6505.00    0.81151   0.82609    0.008
 6506.00    0.78881   0.82781    0.008
 6507.00    0.76711   0.82933    0.008
 6508.00    0.76404   0.82749    0.008
 6509.00    0.77050   0.82647    0.008
 6510.00    0.78411   0.82880    0.008
 6511.00    0.80088   0.83087    0.008
 6512.00    0.81122   0.83091    0.008
 6513.00    0.81913   0.83125    0.008
 6514.00    0.78635   0.83332    0.008
 6515.00    0.74044   0.83579    0.008
 6516.00    0.72457   0.83767    0.008
 6517.00    0.71681   0.83852    0.008
 6518.00    0.73159   0.83941    0.008
 6519.00    0.75136   0.84182    0.008
 6520.00    0.74883   0.84471    0.008
 6521.00    0.74237   0.84527    0.008
 6522.00    0.76743   0.84479    0.008
 6523.00    0.79673   0.84692    0.008
 6524.00    0.83068   0.84988    0.008
 6525.00    0.86507   0.84966    0.008
 6526.00    0.85867   0.84838    0.008
 6527.00    0.84986   0.85034    0.008
 6528.00    0.82616   0.85270    0.000
 6529.00    0.80230   0.85158    0.000
 6530.00    0.80821   0.85038    0.000
 6531.00    0.81381   0.85245    0.000
 6532.00    0.81159   0.85371    0.000
 6533.00    0.80950   0.85178    0.000
 6534.00    0.80926   0.85127    0.000
 6535.00    0.80985   0.85348    0.000
 6536.00    0.81782   0.85349    0.000
 6537.00    0.83011   0.85097    0.000
 6538.00    0.87076   0.85115    0.000
 6539.00    0.90577   0.85319    0.000
 6540.00    0.91193   0.85206    0.000
 6541.00    0.92955   0.84914    0.000
 6542.00    0.99447   0.84955    0.000
 6543.00    1.06641   0.85105    0.000
 6544.00    1.16233   0.84906    0.000
 6545.00    1.24275   0.84572    0.000
 6546.00    1.27853   0.84557    0.000
 6547.00    1.27083   0.84619    0.000
 6548.00    1.15620   0.84346    0.000
 6549.00    1.03023   0.83940    0.000
 6550.00    0.88020   0.83812    0.000
 6551.00    0.78673   0.83786    0.000
 6552.00    0.79746   0.83454    0.000
 6553.00    0.84639   0.82918    0.000
 6554.00    0.95682   0.82637    0.000
 6555.00    1.25453   0.82582    0.000
 6556.00    1.81674   0.82202    0.000
 6557.00    2.57328   0.81437    0.000
 6558.00    3.57130   0.80986    0.000
 6559.00    4.32763   0.81020    0.000
 6560.00    4.81925   0.80638    0.000
 6561.00    4.82304   0.79631    0.000
 6562.00    4.35555   0.79090    0.000
 6563.00    3.63462   0.79300    0.000
 6564.00    2.69778   0.78927    0.000
 6565.00    1.99018   0.77744    0.000
 6566.00    1.45456   0.77270    0.000
 6567.00    1.14343   0.77736    0.000
 6568.00    0.98026   0.77413    0.000
 6569.00    0.88479   0.76212    0.000
 6570.00    0.82838   0.75979    0.000
 6571.00    0.80260   0.76726    0.000
 6572.00    0.79222   0.76487    0.000
 6573.00    0.79994   0.75463    0.000
 6574.00    0.81554   0.75600    0.000
 6575.00    0.89125   0.76545    0.000
 6576.00    0.98939   0.76390    0.000
 6577.00    1.26889   0.75692    0.000
 6578.00    1.60583   0.76194    0.000
 6579.00    1.95871   0.77190    0.000
 6580.00    2.31580   0.77104    0.000
 6581.00    2.33310   0.76765    0.000
 6582.00    2.27694   0.77497    0.000
 6583.00    1.99623   0.78381    0.000
 6584.00    1.67700   0.78328    0.000
 6585.00    1.38430   0.78288    0.000
 6586.00    1.09504   0.79075    0.000
 6587.00    0.93508   0.79723    0.000
 6588.00    0.78692   0.79646    0.000
 6589.00    0.77933   0.79782    0.000
 6590.00    0.77949   0.80490    0.000
 6591.00    0.74547   0.80870    0.000
 6592.00    0.71084   0.80765    0.000
 6593.00    0.68728   0.80991    0.000
 6594.00    0.66627   0.81545    0.000
 6595.00    0.70360   0.81673    0.000
 6596.00    0.74013   0.81505    0.000
 6597.00    0.76647   0.81748    0.000
 6598.00    0.79226   0.82191    0.000
 6599.00    0.81319   0.82155    0.000
 6600.00    0.83326   0.81924    0.000
 6601.00    0.84790   0.82156    0.000
 6602.00    0.85409   0.82537    0.000
 6603.00    0.81816   0.82415    0.000
 6604.00    0.78360   0.82148    0.000
 6605.00    0.75460   0.82376    0.000
 6606.00    0.73696   0.82734    0.000
 6607.00    0.75739   0.82581    0.000
 6608.00    0.77890   0.82302    0.000
 6609.00    0.80344   0.82529    0.008
 6610.00    0.82129   0.82893    0.008
 6611.00    0.82294   0.82745    0.008
 6612.00    0.81776   0.82459    0.008
 6613.00    0.79833   0.82688    0.008
 6614.00    0.79239   0.83070    0.008
 6615.00    0.81091   0.82931    0.008
 6616.00    0.80806   0.82639    0.008
 6617.00    0.77132   0.82871    0.008
 6618.00    0.74692   0.83262    0.008
 6619.00    0.73969   0.83116    0.008
 6620.00    0.74311   0.82818    0.008
 6621.00    0.75955   0.83056    0.008
 6622.00    0.75470   0.83428    0.008
 6623.00    0.72683   0.83251    0.008
 6624.00    0.70269   0.82954    0.008
 6625.00    0.68209   0.83184    0.008
 6626.00    0.69410   0.83499    0.008
 6627.00    0.73352   0.83284    0.008
 6628.00    0.75958   0.83000    0.008
 6629.00    0.77578   0.83202    0.008
 6630.00    0.77991   0.83420    0.008
 6631.00    0.77621   0.83170    0.008
 6632.00    0.78555   0.82924    0.008
 6633.00    0.80231   0.83085    0.008
 6634.00    0.80458   0.83185    0.008
 6635.00    0.79967   0.82922    0.008
 6636.00    0.78154   0.82746    0.008
 6637.00    0.75775   0.82865    0.008
 6638.00    0.75631   0.82849    0.008
 6639.00    0.76308   0.82608    0.008
 6640.00    0.78659   0.82537    0.008
 6641.00    0.81530   0.82620    0.008
 6642.00    0.81529   0.82503    0.008
 6643.00    0.80785   0.82314    0.008
 6644.00    0.77047   0.82369    0.008
 6645.00    0.72676   0.82431    0.008
 6646.00    0.69831   0.82226    0.008
 6647.00    0.67241   0.82099    0.008
 6648.00    0.68848   0.82280    0.008
 6649.00    0.70981   0.82326    0.008
 6650.00    0.73014   0.82048    0.008
 6651.00    0.75038   0.81973    0.008
 6652.00    0.78910   0.82247    0.008
 6653.00    0.82877   0.82273    0.008
 6654.00    0.84024   0.81944    0.008
 6655.00    0.85091   0.81900    0.008
 6656.00    0.83995   0.82215    0.008
 6657.00    0.82777   0.82215    0.008
 6658.00    0.79009   0.81861    0.008
 6659.00    0.75395   0.81826    0.008
 6660.00    0.73643   0.82130    0.008
 6661.00    0.72296   0.82102    0.008
 6662.00    0.74289   0.81749    0.008
 6663.00    0.76773   0.81709    0.008
 6664.00    0.82287   0.81970    0.008
 6665.00    0.87002   0.81917    0.008
 6666.00    0.87836   0.81587    0.008
 6667.00    0.87297   0.81550    0.008
 6668.00    0.81336   0.81756    0.008
 6669.00    0.76304   0.81678    0.008
 6670.00    0.74318   0.81399    0.008
 6671.00    0.72698   0.81386    0.008
 6672.00    0.72096   0.81532    0.008
 6673.00    0.72138   0.81427    0.008
 6674.00    0.73715   0.81231    0.008
 6675.00    0.74367   0.81267    0.008
 6676.00    0.73124   0.81337    0.008
 6677.00    0.72069   0.81202    0.008
 6678.00    0.71352   0.81119    0.008
 6679.00    0.72483   0.81217    0.008
 6680.00    0.76504   0.81193    0.008
 6681.00    0.78693   0.81027    0.008
 6682.00    0.78369   0.81069    0.008
 6683.00    0.77873   0.81218    0.008
 6684.00    0.77169   0.81100    0.008
 6685.00    0.77564   0.80919    0.008
 6686.00    0.79127   0.81064    0.008
 6687.00    0.78585   0.81236    0.008
 6688.00    0.76065   0.81054    0.008
 6689.00    0.74608   0.80886    0.008
 6690.00    0.74031   0.81082    0.008
 6691.00    0.75669   0.81235    0.008
 6692.00    0.78920   0.81042    0.008
 6693.00    0.79830   0.80916    0.008
 6694.00    0.79242   0.81099    0.008
 6695.00    0.79721   0.81197    0.008
 6696.00    0.80797   0.81039    0.000
 6697.00    0.80087   0.80968    0.000
 6698.00    0.78507   0.81086    0.000
 6699.00    0.79013   0.81110    0.000
 6700.00    0.80396   0.81009    0.000
 6701.00    0.80178   0.80985    0.000
 6702.00    0.79383   0.81018    0.000
 6703.00    0.76211   0.80973    0.000
 6704.00    0.72315   0.80920    0.000
 6705.00    0.71487   0.80919    0.000
 6706.00    0.71437   0.80884    0.000
 6707.00    0.74113   0.80795    0.000
 6708.00    0.77350   0.80759    0.000
 6709.00    0.87459   0.80751    0.000
 6710.00    0.98681   0.80688    0.000
 6711.00    1.13637   0.80585    0.000
 6712.00    1.29044   0.80523    0.000
 6713.00    1.43064   0.80487    0.000
 6714.00    1.56968   0.80443    0.000
 6715.00    1.54021   0.80352    0.000
 6716.00    1.50276   0.80227    0.000
 6717.00    1.31950   0.80151    0.000
 6718.00    1.13558   0.80173    0.000
 6719.00    1.03034   0.80115    0.000
 6720.00    0.92715   0.79909    0.000
 6721.00    0.86381   0.79798    0.000
 6722.00    0.80647   0.79916    0.000
 6723.00    0.81796   0.79912    0.000
 6724.00    0.84503   0.79634    0.000
 6725.00    0.99625   0.79500    0.000
 6726.00    1.14010   0.79722    0.000
 6727.00    1.23978   0.79786    0.000
 6728.00    1.31284   0.79470    0.000
 6729.00    1.25979   0.79327    0.000
 6730.00    1.19905   0.79624    0.000
 6731.00    1.10859   0.79756    0.000
 6732.00    1.01786   0.79445    0.000
 6733.00    0.92629   0.79293    0.000
 6734.00    0.85148   0.79608    0.000
 6735.00    0.82241   0.79793    0.000
 6736.00    0.78385   0.79523    0.000
 6737.00    0.72311   0.79349    0.000
 6738.00    0.66747   0.79616    0.000
 6739.00    0.62214   0.79828    0.000
 6740.00    0.60953   0.79619    0.000
 6741.00    0.65448   0.79410    0.000
 6742.00    0.70970   0.79583    0.000
 6743.00    0.78075   0.79800    0.000
 6744.00    0.82340   0.79656    0.000
 6745.00    0.82767   0.79412    0.000
 6746.00    0.82498   0.79480    0.000
 6747.00    0.81399   0.79687    0.000
 6748.00    0.80728   0.79604    0.000
 6749.00    0.80507   0.79344    0.000
 6750.00    0.78087   0.79338    0.000
 6751.00    0.73631   0.79532    0.000
 6752.00    0.71945   0.79497    0.000
 6753.00    0.72520   0.79256    0.009
 6754.00    0.73444   0.79225    0.009
 6755.00    0.74619   0.79405    0.009
 6756.00    0.75637   0.79404    0.009
 6757.00    0.76557   0.79214    0.009
 6758.00    0.74378   0.79200    0.009
 6759.00    0.70492   0.79369    0.009
 6760.00    0.71589   0.79391    0.009
 6761.00    0.75075   0.79261    0.009
 6762.00    0.76430   0.79277    0.009
 6763.00    0.76904   0.79440    0.009
 6764.00    0.77159   0.79483    0.009
 6765.00    0.77335   0.79397    0.009
 6766.00    0.76953   0.79421    0.009
 6767.00    0.76405   0.79577    0.009
 6768.00    0.78377   0.79649    0.009
 6769.00    0.80973   0.79579    0.009
 6770.00    0.84719   0.79572    0.009
 6771.00    0.88696   0.79718    0.009
 6772.00    0.87633   0.79826    0.009
 6773.00    0.85779   0.79754    0.009
 6774.00    0.83880   0.79690    0.009
 6775.00    0.81976   0.79817    0.008
 6776.00    0.84671   0.79958    0.008
 6777.00    0.87728   0.79881    0.008
 6778.00    0.87554   0.79764    0.008
 6779.00    0.87240   0.79860    0.008
 6780.00    0.78683   0.80012    0.009
 6781.00    0.70274   0.79939    0.009
 6782.00    0.72810   0.79797    0.008
 6783.00    0.75239   0.79855    0.008
 6784.00    0.75732   0.79981    0.008
 6785.00    0.76052   0.79912    0.008
 6786.00    0.74482   0.79782    0.008
 6787.00    0.73402   0.79804    0.008
 6788.00    0.76084   0.79874    0.008
 6789.00    0.78748   0.79803    0.009
 6790.00    0.81312   0.79711    0.009
 6791.00    0.83795   0.79713    0.009
 6792.00    0.85900   0.79715    0.009
 6793.00    0.87227   0.79635    0.009
 6794.00    0.85614   0.79593    0.009
 6795.00    0.83695   0.79598    0.009
 6796.00    0.80810   0.79552    0.008
 6797.00    0.79591   0.79462    0.008
 6798.00    0.82837   0.79464    0.008
 6799.00    0.85102   0.79491    0.008
 6800.00    0.85115   0.79431    0.008
 6801.00    0.82774   0.79339    0.008
 6802.00    0.75753   0.79362    0.008
 6803.00    0.70451   0.79419    0.008
 6804.00    0.68124   0.79383    0.008
 6805.00    0.66348   0.79294    0.008
 6806.00    0.65406   0.79307    0.008
 6807.00    0.65631   0.79389    0.008
 6808.00    0.67413   0.79404    0.008
 6809.00    0.69050   0.79316    0.008
 6810.00    0.70517   0.79290    0.008
 6811.00    0.73236   0.79390    0.008
 6812.00    0.77250   0.79466    0.009
 6813.00    0.80484   0.79375    0.009
 6814.00    0.83007   0.79293    0.009
 6815.00    0.84107   0.79404    0.009
 6816.00    0.84061   0.79540    0.009
 6817.00    0.82997   0.79448    0.009
 6818.00    0.81212   0.79312    0.008
 6819.00    0.79982   0.79418    0.008
 6820.00    0.79097   0.79605    0.008
 6821.00    0.78032   0.79532    0.008
 6822.00    0.76870   0.79356    0.008
 6823.00    0.77516   0.79431    0.008
 6824.00    0.79014   0.79646    0.008
 6825.00    0.75815   0.79623    0.008
 6826.00    0.70704   0.79436    0.008
 6827.00    0.70653   0.79444    0.008
 6828.00    0.72358   0.79647    0.008
 6829.00    0.75241   0.79699    0.008
 6830.00    0.78470   0.79538    0.009
 6831.00    0.77456   0.79452    0.009
 6832.00    0.75415   0.79593    0.009
 6833.00    0.75942   0.79720    0.009
 6834.00    0.76972   0.79616    0.008
 6835.00    0.78938   0.79439    0.008
 6836.00    0.81047   0.79475    0.008
 6837.00    0.83168   0.79642    0.009
 6838.00    0.85290   0.79612    0.009
 6839.00    0.82728   0.79384    0.009
 6840.00    0.79815   0.79303    0.009
 6841.00    0.76854   0.79454    0.009
 6842.00    0.73891   0.79494    0.008
 6843.00    0.72276   0.79276    0.008
 6844.00    0.70924   0.79107    0.008
 6845.00    0.79651   0.79190    0.008
 6846.00    0.87492   0.79267    0.008
 6847.00    0.80374   0.79123    0.008
 6848.00    0.73988   0.78926    0.008
 6849.00    0.75271   0.78911    0.008
 6850.00    0.76437   0.78983    0.008
 6851.00    0.76741   0.78948    0.008
 6852.00    0.77040   0.78788    0.008
 6853.00    0.77317   0.78678    0.008
 6854.00    0.78416   0.78702    0.008
 6855.00    0.83227   0.78766    0.008
 6856.00    0.86623   0.78685    0.008
 6857.00    0.84777   0.78509    0.008
 6858.00    0.82926   0.78467    0.008
 6859.00    0.81058   0.78590    0.008
 6860.00    0.80213   0.78590    0.008
 6861.00    0.82061   0.78394    0.008
 6862.00    0.83508   0.78292    0.008
 6863.00    0.84050   0.78420    0.008
 6864.00    0.84662   0.78473    0.008
 6865.00    0.85413   0.78298    0.008
 6866.00    0.84741   0.78168    0.008
 6867.00    0.81642   0.78264    0.008
 6868.00    0.80841   0.78339    0.008
 6869.00    0.83476   0.78222    0.008
 6870.00    0.82935   0.78102    0.008
 6871.00    0.78219   0.78141    0.008
 6872.00    0.76032   0.78217    0.008
 6873.00    0.76769   0.78188    0.008
 6874.00    0.77723   0.78095    0.008
 6875.00    0.78897   0.78068    0.008
 6876.00    0.75458   0.78154    0.008
 6877.00    0.67866   0.78232    0.008
 6878.00    0.64491   0.78152    0.008
 6879.00    0.64461   0.78055    0.008
 6880.00    0.67283   0.78162    0.008
 6881.00    0.72096   0.78332    0.008
 6882.00    0.75579   0.78273    0.008
 6883.00    0.78247   0.78158    0.008
 6884.00    0.78267   0.78272    0.008
 6885.00    0.76872   0.78462    0.008
 6886.00    0.76640   0.78436    0.008
 6887.00    0.76948   0.78368    0.008
 6888.00    0.77162   0.78482    0.008
 6889.00    0.77338   0.78633    0.008
 6890.00    0.77072   0.78636    0.008
 6891.00    0.76654   0.78648    0.008
 6892.00    0.78023   0.78763    0.008
 6893.00    0.79906   0.78857    0.008
 6894.00    0.79958   0.78877    0.008
 6895.00    0.79576   0.78944    0.008
 6896.00    0.76767   0.79062    0.008
 6897.00    0.73495   0.79141    0.008
 6898.00    0.74719   0.79169    0.008
 6899.00    0.76608   0.79217    0.008
 6900.00    0.75967   0.79322    0.008
 6901.00    0.75052   0.79445    0.008
 6902.00    0.72344   0.79476    0.008
 6903.00    0.69510   0.79441    0.008
 6904.00    0.66419   0.79516    0.008
 6905.00    0.63319   0.79707    0.008
 6906.00    0.62122   0.79750    0.008
 6907.00    0.60996   0.79619    0.008
 6908.00    0.62072   0.79638    0.008
 6909.00    0.63083   0.79871    0.008
 6910.00    0.63067   0.79947    0.008
 6911.00    0.63348   0.79757    0.008
 6912.00    0.66605   0.79699    0.008
 6913.00    0.69808   0.79913    0.008
 6914.00    0.72614   0.80029    0.008
 6915.00    0.75321   0.79840    0.008
 6916.00    0.77481   0.79710    0.008
 6917.00    0.78665   0.79855    0.008
 6918.00    0.75551   0.79998    0.008
 6919.00    0.72374   0.79852    0.008
 6920.00    0.68973   0.79670    0.008
 6921.00    0.66947   0.79729    0.008
 6922.00    0.69099   0.79885    0.008
 6923.00    0.70793   0.79792    0.008
 6924.00    0.71304   0.79580    0.008
 6925.00    0.71070   0.79587    0.008
 6926.00    0.69184   0.79749    0.008
 6927.00    0.69354   0.79682    0.008
 6928.00    0.73485   0.79461    0.008
 6929.00    0.74896   0.79456    0.008
 6930.00    0.71736   0.79631    0.008
 6931.00    0.68934   0.79568    0.008
 6932.00    0.66660   0.79330    0.008
 6933.00    0.67596   0.79330    0.008
 6934.00    0.72687   0.79539    0.008
 6935.00    0.77010   0.79496    0.008
 6936.00    0.80454   0.79241    0.009
 6937.00    0.80052   0.79244    0.009
 6938.00    0.75779   0.79484    0.008
 6939.00    0.73496   0.79463    0.008
 6940.00    0.72978   0.79190    0.008
 6941.00    0.73002   0.79184    0.008
 6942.00    0.73450   0.79445    0.008
 6943.00    0.71937   0.79457    0.008
 6944.00    0.69076   0.79194    0.008
 6945.00    0.68852   0.79161    0.008
 6946.00    0.70218   0.79403    0.008
 6947.00    0.70329   0.79447    0.008
 6948.00    0.69781   0.79219    0.008
 6949.00    0.71109   0.79163    0.008
 6950.00    0.73294   0.79364    0.008
 6951.00    0.69761   0.79427    0.008
 6952.00    0.63984   0.79243    0.008
 6953.00    0.66419   0.79173    0.008
 6954.00    0.71601   0.79326    0.009
 6955.00    0.66959   0.79416    0.008
 6956.00    0.59558   0.79302    0.008
 6957.00    0.59446   0.79215    0.008
 6958.00    0.61022   0.79306    0.008
 6959.00    0.69111   0.79430    0.008
 6960.00    0.78408   0.79389    0.008
 6961.00    0.75477   0.79279    0.008
 6962.00    0.70794   0.79333    0.008
 6963.00    0.73596   0.79503    0.008
 6964.00    0.77173   0.79520    0.008
 6965.00    0.74780   0.79380    0.008
 6966.00    0.71989   0.79401    0.008
 6967.00    0.68480   0.79616    0.008
 6968.00    0.64948   0.79673    0.008
 6969.00    0.65507   0.79487    0.008
 6970.00    0.66150   0.79461    0.008
 6971.00    0.69365   0.79722    0.008
 6972.00    0.72425   0.79819    0.009
 6973.00    0.73171   0.79568    0.008
 6974.00    0.73536   0.79458    0.008
 6975.00    0.70233   0.79745    0.008
 6976.00    0.67903   0.79905    0.009
 6977.00    0.72330   0.79604    0.009
 6978.00    0.75979   0.79378    0.009
 6979.00    0.75444   0.79663    0.009
 6980.00    0.74705   0.79894    0.009
 6981.00    0.73084   0.79569    0.008
 6982.00    0.72931   0.79250    0.008
 6983.00    0.77994   0.79521    0.008
 6984.00    0.81703   0.79805    0.008
 6985.00    0.81374   0.79503    0.008
 6986.00    0.80516   0.79158    0.008
 6987.00    0.78315   0.79394    0.008
 6988.00    0.74402   0.79694    0.008
 6989.00    0.66746   0.79473    0.008
 6990.00    0.63970   0.79177    0.008
 6991.00    0.70449   0.79357    0.008
 6992.00    0.74754   0.79625    0.008
 6993.00    0.75458   0.79490    0.008
 6994.00    0.77141   0.79268    0.008
 6995.00    0.80246   0.79402    0.009
 6996.00    0.78911   0.79633    0.009
 6997.00    0.71910   0.79561    0.009
 6998.00    0.69068   0.79377    0.009
 6999.00    0.70905   0.79456    0.009
 7000.00    0.70385   0.79671    0.009
 7001.00    0.67527   0.79652    0.009
 7002.00    0.67920   0.79453    0.008
 7003.00    0.71155   0.79437    0.008
 7004.00    0.71053   0.79644    0.008
 7005.00    0.68378   0.79696    0.008
 7006.00    0.69358   0.79469    0.008
 7007.00    0.72815   0.79331    0.008
 7008.00    0.69570   0.79519    0.008
 7009.00    0.62345   0.79646    0.008
 7010.00    0.59304   0.79407    0.008
 7011.00    0.58428   0.79161    0.008
 7012.00    0.59120   0.79328    0.008
 7013.00    0.60516   0.79534    0.009
 7014.00    0.63550   0.79297    0.009
 7015.00    0.67216   0.78957    0.009
 7016.00    0.72105   0.79101    0.009
 7017.00    0.77397   0.79409    0.009
 7018.00    0.73987   0.79209    0.009
 7019.00    0.68184   0.78769    0.009
 7020.00    0.66708   0.78866    0.009
 7021.00    0.66212   0.79289    0.009
 7022.00    0.67921   0.79175    0.009
 7023.00    0.70030   0.78682    0.009
 7024.00    0.71684   0.78713    0.009
 7025.00    0.73275   0.79199    0.009
 7026.00    0.76074   0.79191    0.009
 7027.00    0.78994   0.78713    0.008
 7028.00    0.73710   0.78674    0.009
 7029.00    0.67912   0.79157    0.009
 7030.00    0.69646   0.79270    0.009
 7031.00    0.71592   0.78883    0.009
 7032.00    0.73548   0.78777    0.009
 7033.00    0.75608   0.79175    0.009
 7034.00    0.80539   0.79398    0.009
 7035.00    0.84586   0.79181    0.009
 7036.00    0.76215   0.79037    0.009
 7037.00    0.69042   0.79274    0.009
 7038.00    0.72916   0.79546    0.009
 7039.00    0.76342   0.79550    0.009
 7040.00    0.76745   0.79431    0.009
 7041.00    0.76313   0.79468    0.009
 7042.00    0.71511   0.79703    0.009
 7043.00    0.68729   0.79897    0.009
 7044.00    0.74452   0.79850    0.009
 7045.00    0.78671   0.79756    0.009
 7046.00    0.77655   0.79904    0.009
 7047.00    0.76150   0.80153    0.009
 7048.00    0.73211   0.80153    0.009
 7049.00    0.71712   0.80011    0.009
 7050.00    0.73806   0.80060   -2.000
 7051.00    0.76403   0.80254   -2.000
 7052.00    0.80085   0.80270   -2.000
 7053.00    0.79834   0.80116   -2.000
 7054.00    0.72241   0.80053   -2.000
 7055.00    0.70760   0.80118   -2.000
 7056.00    0.79249   0.80107   -2.000
 7057.00    0.80667   0.79948   -2.000
 7058.00    0.71971   0.79771   -2.000
 7059.00    0.66886   0.79706   -2.000
 7060.00    0.66346   0.79677   -2.000
 7061.00    0.73456   0.79517   -2.000
 7062.00    0.89048   0.79234   -2.000
 7063.00    0.96617   0.79049   -2.000
 7064.00    0.96338   0.79008   -2.000
 7065.00    0.93962   0.78874   -2.000
 7066.00    0.89778   0.78546   -2.000
 7067.00    0.83123   0.78288   -2.000
 7068.00    0.74592   0.78243   -2.000
 7069.00    0.73451   0.78164   -2.000
 7070.00    0.77244   0.77869   -2.000
 7071.00    0.82738   0.77558   -2.000
 7072.00    0.89227   0.77492   -2.000
 7073.00    0.88002   0.77520   -2.000
 7074.00    0.82846   0.77332   -2.000
 7075.00    0.81756   0.77000   -2.000
 7076.00    0.82463   0.76907   -2.000
 7077.00    0.85377   0.77024   -2.000
 7078.00    0.89128   0.76935   -2.000
 7079.00    0.87372   0.76608   -2.000
 7080.00    0.83842   0.76489   -2.000
 7081.00    0.84300   0.76650   -2.000
 7082.00    0.85832   0.76624   -2.000
 7083.00    0.81352   0.76301   -2.000
 7084.00    0.75546   0.76148   -2.000
 7085.00    0.74529   0.76312   -2.000
 7086.00    0.74354   0.76311   -2.000
 7087.00    0.77055   0.75959   -2.000
 7088.00    0.80141   0.75730   -2.000
 7089.00    0.73754   0.75868   -2.000
 7090.00    0.66467   0.75891   -2.000
 7091.00    0.74221   0.75541   -2.000
 7092.00    0.82858   0.75232   -2.000
 7093.00    0.75032   0.75284   -2.000
 7094.00    0.66910   0.75332   -2.000
 7095.00    0.73739   0.75049   -2.000
 7096.00    0.80151   0.74676   -2.000
 7097.00    0.76167   0.74626   -2.000
 7098.00    0.72460   0.74717   -2.000
 7099.00    0.72413   0.74542   -2.000
 7100.00    0.72181   0.74184   -2.000
 7101.00    0.70300   0.74036   -2.000
 7102.00    0.69528   0.74146   -2.000
 7103.00    0.76001   0.74116   -2.000
 7104.00    0.80558   0.73863   -2.000
 7105.00    0.75351   0.73639   -2.000
 7106.00    0.69724   0.73690   -2.000
 7107.00    0.62367   0.73798   -2.000
 7108.00    0.57315   0.73733   -2.000
 7109.00    0.60124   0.73494   -2.000
 7110.00    0.63389   0.73422   -2.000
 7111.00    0.67964   0.73588   -2.000
 7112.00    0.71024   0.73713   -2.000
 7113.00    0.70366   0.73533   -2.000
 7114.00    0.72022   0.73335   -2.000
 7115.00    0.78575   0.73461   -2.000
 7116.00    0.82480   0.73699   -2.000
 7117.00    0.81513   0.73622   -2.000
 7118.00    0.81358   0.73374   -2.000
 7119.00    0.82509   0.73419   -2.000
 7120.00    0.80123   0.73641   -2.000
 7121.00    0.72749   0.73626   -2.000
 7122.00    0.70389   0.73410   -2.000
 7123.00    0.74247   0.73404   -2.000
 7124.00    0.84021   0.73544   -2.000
 7125.00    1.00265   0.73504   -2.000
 7126.00    1.04108   0.73342   -2.000
 7127.00    0.95993   0.73361   -2.000
 7128.00    0.88921   0.73430   -2.000
 7129.00    0.82738   0.73304   -2.000
 7130.00    0.82292   0.73140   -2.000
 7131.00    0.86144   0.73226   -2.000
 7132.00    0.91037   0.73322   -2.000
 7133.00    0.96616   0.73111   -2.000
 7134.00    0.77765   0.72853   -2.000
 7135.00    0.44843   0.72983   -2.000
 7136.00    0.48838   0.73204   -2.000
 7137.00    0.71356   0.73010   -2.000
 7138.00    0.73551   0.72632   -2.000
 7139.00    0.66921   0.72711   -2.000
 7140.00    0.65568   0.73097   -2.000
 7141.00    0.66181   0.73012   -2.000
 7142.00    0.64139   0.72517   -2.000
 7143.00    0.61258   0.72482   -2.000
 7144.00    0.68050   0.72981   -2.000
 7145.00    0.77392   0.73079   -2.000
 7146.00    0.77505   0.72586   -2.000
 7147.00    0.75628   0.72399   -2.000
 7148.00    0.76926   0.72881   -2.000
 7149.00    0.78766   0.73175   -2.000
 7150.00    0.77871   0.72791   -2.000
 7151.00    0.76623   0.72446   -2.000
 7152.00    0.77821   0.72826   -2.000
 7153.00    0.79241   0.73267   -2.000
 7154.00    0.78559   0.73027   -2.000
 7155.00    0.77762   0.72631   -2.000
 7156.00    0.71370   0.72897   -2.000
 7157.00    0.64854   0.73380   -2.000
 7158.00    0.57729   0.73246   -2.000
 7159.00    0.52082   0.72832   -2.000
 7160.00    0.79970   0.73003   -2.000
 7161.00    1.06200   0.73504   -2.000
 7162.00    1.11564   0.73468   -2.000
 7163.00    1.14900   0.73038   -2.000
 7164.00    1.00941   0.73073   -2.000
 7165.00    0.86237   0.73587   -2.000
 7166.00    0.66806   0.73696   -2.000
 7167.00    0.54146   0.73267   -2.000
 7168.00    0.75109   0.73116   -2.000
 7169.00    0.91880   0.73585   -2.000
 7170.00    0.91779   0.73850   -2.000
 7171.00    0.91903   0.73504   -2.000
 7172.00    0.92778   0.73243   -2.000
 7173.00    0.89249   0.73595   -2.000
 7174.00    0.73292   0.73911   -2.000
 7175.00    0.62333   0.73659   -2.000
 7176.00    0.63426   0.73371   -2.000
 7177.00    0.67718   0.73613   -2.000
 7178.00    0.78668   0.73923   -2.000
 7179.00    0.85538   0.73736   -2.000
 7180.00    0.85021   0.73440   -2.000
 7181.00    0.82771   0.73594   -2.000
 7182.00    0.77779   0.73897   -2.000
 7183.00    0.74097   0.73765   -2.000
 7184.00    0.72237   0.73451   -2.000
 7185.00    0.67289   0.73512   -2.000
 7186.00    0.58565   0.73796   -2.000
 7187.00    0.54532   0.73719   -2.000
 7188.00    0.55556   0.73420   -2.000
 7189.00    0.57606   0.73448   -2.000
 7190.00    0.60633   0.73685   -2.000
 7191.00    0.61230   0.73596   -2.000
 7192.00    0.59789   0.73258   -2.000
 7193.00    0.60077   0.73257   -2.000
 7194.00    0.61642   0.73585   -2.000
 7195.00    0.64674   0.73558   -2.000
 7196.00    0.68658   0.73109   -2.000
 7197.00    0.72276   0.72999   -2.000
 7198.00    0.75686   0.73415   -2.000
 7199.00    0.73972   0.73547   -2.000
 7200.00    0.69727   0.73090   -2.000
 7201.00    0.74737   0.72825   -2.000
 7202.00    0.83698   0.73184   -2.000
 7203.00    0.83794   0.73495   -2.000
 7204.00    0.80647   0.73200   -2.000
 7205.00    0.75100   0.72825   -2.000
 7206.00    0.68809   0.73015   -2.000
 7207.00    0.64804   0.73418   -2.000
 7208.00    0.61388   0.73344   -2.000
 7209.00    0.59140   0.72942   -2.000
 7210.00    0.57138   0.72909   -2.000
 7211.00    0.55938   0.73335   -2.000
 7212.00    0.54872   0.73488   -2.000
 7213.00    0.68924   0.73161   -2.000
 7214.00    0.84865   0.73003   -2.000
 7215.00    0.79027   0.73307   -2.000
 7216.00    0.71303   0.73584   -2.000
 7217.00    0.71635   0.73450   -2.000
 7218.00    0.72375   0.73231   -2.000
