###################################################################
## OUTPUT of StarlightChains_v04.for    [Cid@UFSC - 01/Apr/2007] ##
###################################################################

## Some input info
KUG0210-078._31_35.txt                   [arq_obs]
Base.CB07.vall.4m                        [arq_base]
Masks.EmLines.NEW.gm                     [arq_masks]
StCv04.C11.config                        [arq_config]
   66                                    [N_base]
    0                                    [N_YAV_components = # of components with extra extinction!]
    0                                    [i_FitPowerLaw (1/0 = Yes/No)]
-9.99                                    [alpha_PowerLaw]
CCM                                      [red_law_option]
 1.458241                                [q_norm = A(l_norm)/A(V)]

## (Re)Sampling Parameters
 3741.00                                 [l_ini (A)]
 7218.00                                 [l_fin (A)]
    1.00                                 [dl    (A)]     (OBS: dl_cushion =    50.00 A)

## Normalization info
 4020.00                                 [l_norm (A) - for base]
 4010.00                                 [llow_norm (A) - window for f_obs]
 4060.00                                 [lupp_norm (A) - window for f_obs]
1.293855E-16                             [fobs_norm (in input units)]

## S/N
 3691.00                                 [llow_SN (A) - window for S/N]
 7268.00                                 [lupp_SN (A) - window for S/N]
   7.784                                 [S/N in S/N window]
   8.762                                 [S/N in norm. window]
   0.197                                 [S/N_err in S/N window]
   0.222                                 [S/N_err in norm. window]
  1.0000                                 [fscale_chi2]

## etc...
    -2007460                             [idum_orig]
  2432                                   [NOl_eff]
  2414                                   [Nl_eff]
    18    NSIGMA                         [Ntot_cliped & clip_method]
 11139450                                [Nglobal_steps]
   7                                     [N_chains]
  41                                     [NEX0s_base = N_base in EX0s-fits]
 0   1   1       18   2.0   2.278E+04    [Clip-Bug, RC-Crash & Burn-In warning-flags, n_censored_weights, wei_nsig_threshold & wei_limit]
   130    129.115    127.943      1.172  [idt_all, wdt_TotTime, wdt_UsrTime & wdt_SysTime (sec)]

## Synthesis Results - Best model ##

 3.50704E-04                             [chi2/Nl_eff]
     6.17580                             [adev (%)]

   109.08817                             [sum-of-x (%)]
 9.93751E-17                             [Flux_tot (units of input spectrum!)]
 2.62732E-12                             [Mini_tot (???)]
 1.34854E-12                             [Mcor_tot (???)]

 -16.36                                  [v0_min  (km/s)]
 307.55                                  [vd_min  (km/s)]
-0.2612                                  [AV_min  (mag)]
 0.0000                                  [YAV_min (mag)]

# j     x_j(%)      Mini_j(%)     Mcor_j(%)     age_j(yr)     Z_j      (L/M)_j    YAV?  Mstars   component_j        a/Fe...       SSP_chi2r SSP_adev(%)   SSP_AV   SSP_x(%)
  1      0.0000     0.0000E+00    0.0000E+00    1.000000E+06  0.00400  1.094E-02    0   1.0000   age020_m42            0.0000     1.3008E-03    10.2738   2.9083    87.7439
  2      0.0000     0.0000E+00    0.0000E+00    3.160000E+06  0.00400  4.007E-02    0   0.9999   age045_m42            0.0000     8.5794E-04     8.6786   2.1441    95.0514
  3      0.0000     0.0000E+00    0.0000E+00    5.010000E+06  0.00400  2.539E-02    0   0.9488   age055_m42            0.0000     1.0421E-03     9.3196   2.4848    92.0658
  4      0.0000     0.0000E+00    0.0000E+00    6.610000E+06  0.00400  2.620E-02    0   0.9220   age061_m42            0.0000     8.4166E-04     8.4033   2.0746    95.1336
  5      0.0000     0.0000E+00    0.0000E+00    1.000000E+07  0.00400  1.322E-02    0   0.8862   age070_m42            0.0000     9.0491E-04     7.7417   1.8403    95.6668
  6      0.0000     0.0000E+00    0.0000E+00    1.445000E+07  0.00400  7.883E-03    0   0.8571   age078_m42            0.0000     1.0157E-03     8.2436   2.1701    93.1203
  7      0.0000     0.0000E+00    0.0000E+00    2.512000E+07  0.00400  5.251E-03    0   0.8174   age090_m42            0.0000     8.8799E-04     7.5765   1.7147    96.0756
  8      0.7524     7.1491E-03    1.0935E-02    4.000000E+07  0.00400  3.649E-03    0   0.7851   age104_m42            0.0000     8.0706E-04     7.3081   1.4767    97.2573
  9      0.0000     0.0000E+00    0.0000E+00    5.500000E+07  0.00400  3.098E-03    0   0.7629   age110_m42            0.0000     7.3330E-04     7.2331   1.6032    98.1520
 10      0.0000     0.0000E+00    0.0000E+00    1.015200E+08  0.00400  2.228E-03    0   0.7207   age116_m42            0.0000     6.8714E-04     7.2243   1.6046    98.9421
 11      0.0000     0.0000E+00    0.0000E+00    2.861200E+08  0.00400  1.093E-03    0   0.6648   age125_m42            0.0000     6.0113E-04     6.2203   1.0391   101.6756
 12      0.0000     0.0000E+00    0.0000E+00    5.088000E+08  0.00400  6.597E-04    0   0.6365   age130_m42            0.0000     5.4320E-04     6.3473   0.9993   103.5750
 13     44.8961     7.3014E+00    8.2478E+00    1.434000E+09  0.00400  2.132E-04    0   0.5798   age139_m42            0.0000     3.7691E-04     5.9045   0.0130   106.1987
 14      0.0000     0.0000E+00    0.0000E+00    4.250000E+09  0.00400  5.895E-05    0   0.5377   age158_m42            0.0000     4.5943E-04     7.0911  -0.4427   102.4907
 15      1.3698     1.3531E+00    1.3740E+00    7.500000E+09  0.00400  3.510E-05    0   0.5212   age171_m42            0.0000     4.9535E-04     7.4007  -0.6443   102.1992
 16      0.0000     0.0000E+00    0.0000E+00    1.300000E+10  0.00400  2.005E-05    0   0.5034   age193_m42            0.0000     5.4794E-04     7.7342  -0.8208   101.9589
 17      0.0000     0.0000E+00    0.0000E+00    1.800000E+10  0.00400  1.525E-05    0   0.4967   age213_m42            0.0000     5.5104E-04     7.6871  -0.8398   101.3739
 18      0.0000     0.0000E+00    0.0000E+00    1.000000E+06  0.00800  1.238E-02    0   1.0000   age020_m52            0.0000     1.3032E-03    10.2865   2.9024    87.9720
 19      0.0000     0.0000E+00    0.0000E+00    3.160000E+06  0.00800  3.074E-02    0   0.9966   age045_m52            0.0000     1.2684E-03    10.2312   2.8233    88.8581
 20      0.0000     0.0000E+00    0.0000E+00    5.010000E+06  0.00800  2.668E-02    0   0.9443   age055_m52            0.0000     1.1035E-03     9.5059   2.5735    91.0540
 21      0.0000     0.0000E+00    0.0000E+00    6.610000E+06  0.00800  2.136E-02    0   0.9177   age061_m52            0.0000     8.9408E-04     7.9308   1.3415    96.7461
 22      0.0000     0.0000E+00    0.0000E+00    1.000000E+07  0.00800  1.215E-02    0   0.8827   age070_m52            0.0000     9.9360E-04     7.9108   2.0349    94.9259
 23      0.0000     0.0000E+00    0.0000E+00    1.445000E+07  0.00800  8.717E-03    0   0.8552   age078_m52            0.0000     9.7502E-04     8.0509   2.1345    94.4741
 24      0.0000     0.0000E+00    0.0000E+00    2.512000E+07  0.00800  5.592E-03    0   0.8162   age090_m52            0.0000     8.6545E-04     7.3932   1.7777    97.2435
 25      0.0283     2.5198E-04    3.8494E-04    4.000000E+07  0.00800  3.896E-03    0   0.7841   age104_m52            0.0000     7.6770E-04     7.0050   1.6726    98.5637
 26      0.0000     0.0000E+00    0.0000E+00    1.015200E+08  0.00800  2.148E-03    0   0.7226   age116_m52            0.0000     6.7243E-04     6.9401   1.5840    99.3070
 27      0.0000     0.0000E+00    0.0000E+00    2.861200E+08  0.00800  9.925E-04    0   0.6683   age125_m52            0.0000     5.3359E-04     6.3157   1.0637   104.5660
 28      5.7361     6.3320E-01    7.5721E-01    9.047900E+08  0.00800  3.141E-04    0   0.6138   age135_m52            0.0000     3.9385E-04     6.0654   0.2175   110.6042
 29      0.0000     0.0000E+00    0.0000E+00    1.434000E+09  0.00800  1.719E-04    0   0.5853   age139_m52            0.0000     3.6187E-04     6.0200  -0.3533   107.8997
 30      0.0000     0.0000E+00    0.0000E+00    2.500000E+09  0.00800  7.872E-05    0   0.5600   age150_m52            0.0000     4.4179E-04     7.2602  -0.6482   105.8914
 31      0.0000     0.0000E+00    0.0000E+00    4.250000E+09  0.00800  4.336E-05    0   0.5426   age158_m52            0.0000     4.8362E-04     7.4470  -0.6618   104.8202
 32      0.0000     0.0000E+00    0.0000E+00    6.250000E+09  0.00800  3.159E-05    0   0.5319   age166_m52            0.0000     5.2935E-04     7.8830  -0.8885   105.5921
 33      0.0000     0.0000E+00    0.0000E+00    1.300000E+10  0.00800  1.361E-05    0   0.5073   age193_m52            0.0000     9.5935E-04    10.2365  -1.0000    96.1293
 34      2.1573     7.5661E+00    7.3557E+00    1.800000E+10  0.00800  9.886E-06    0   0.4990   age213_m52            0.0000     1.3118E-03    12.2065  -1.0000    92.8625
 35      0.0000     0.0000E+00    0.0000E+00    1.000000E+06  0.02000  1.544E-02    0   1.0000   age020_m62            0.0000     1.3194E-03    10.3347   2.9001    88.1373
 36      0.0000     0.0000E+00    0.0000E+00    3.160000E+06  0.02000  3.762E-02    0   0.9858   age045_m62            0.0000     1.3216E-03    10.3298   2.8366    88.9980
 37      0.0000     0.0000E+00    0.0000E+00    5.010000E+06  0.02000  3.296E-02    0   0.9342   age055_m62            0.0000     9.6505E-04     9.1141   2.4309    93.6669
 38      0.0000     0.0000E+00    0.0000E+00    8.710000E+06  0.02000  1.154E-02    0   0.8861   age067_m62            0.0000     1.4371E-03     9.9861   1.5699    94.7232
 39      0.0000     0.0000E+00    0.0000E+00    1.445000E+07  0.02000  7.663E-03    0   0.8472   age078_m62            0.0000     1.0491E-03     8.0941   1.7023    96.3379
 40      0.0000     0.0000E+00    0.0000E+00    2.512000E+07  0.02000  4.532E-03    0   0.8099   age090_m62            0.0000     1.0299E-03     8.0094   1.6955    96.0120
 41      0.0000     0.0000E+00    0.0000E+00    5.500000E+07  0.02000  2.733E-03    0   0.7595   age110_m62            0.0000     7.9611E-04     7.1096   1.6599    97.6905
 42      0.0173     4.3914E-04    5.9762E-04    1.609000E+08  0.02000  1.369E-03    0   0.6985   age120_m62            0.0000     6.3118E-04     6.6719   1.4516   102.0217
 43      0.0000     0.0000E+00    0.0000E+00    2.861200E+08  0.02000  9.013E-04    0   0.6714   age125_m62            0.0000     5.6563E-04     6.5476   1.1721   106.0485
 44      8.1734     5.6363E-01    7.0817E-01    5.088000E+08  0.02000  5.028E-04    0   0.6449   age130_m62            0.0000     4.8750E-04     6.8072   0.7444   110.6541
 45      3.2262     4.6071E-01    5.5462E-01    9.047900E+08  0.02000  2.428E-04    0   0.6179   age135_m62            0.0000     3.9651E-04     6.7436   0.1454   110.3333
 46      2.0576     5.6486E-01    6.5018E-01    1.434000E+09  0.02000  1.263E-04    0   0.5908   age139_m62            0.0000     4.2770E-04     7.0852  -0.2987   108.6213
 47      0.0000     0.0000E+00    0.0000E+00    2.500000E+09  0.02000  5.985E-05    0   0.5673   age150_m62            0.0000     5.1832E-04     7.9682  -0.6908   107.9503
 48      0.1736     1.8399E-01    1.9601E-01    4.250000E+09  0.02000  3.271E-05    0   0.5468   age158_m62            0.0000     6.0909E-04     8.7058  -1.0000   107.4337
 49      2.1754     5.5460E+00    5.5831E+00    1.000000E+10  0.02000  1.360E-05    0   0.5167   age181_m62            0.0000     1.1686E-03    11.1583  -1.0000    98.1932
 50      0.0000     0.0000E+00    0.0000E+00    1.800000E+10  0.02000  7.124E-06    0   0.5013   age213_m62            0.0000     1.8926E-03    14.3636  -1.0000    91.6765
 51      0.0000     0.0000E+00    0.0000E+00    1.000000E+06  0.05000  2.592E-02    0   0.9998   age020_m72            0.0000     1.3656E-03    10.4553   2.8959    88.0380
 52      0.7973     5.7061E-04    1.0647E-03    3.160000E+06  0.05000  4.845E-02    0   0.9577   age045_m72            0.0000     1.1750E-03     9.9415   2.7050    90.6421
 53      0.2479     2.7984E-04    4.9870E-04    5.010000E+06  0.05000  3.072E-02    0   0.9147   age055_m72            0.0000     1.1385E-03     8.3968   2.2660    93.2198
 54      0.0000     0.0000E+00    0.0000E+00    6.610000E+06  0.05000  1.455E-02    0   0.8877   age061_m72            0.0000     1.7698E-03    11.2711   1.6233    94.6480
 55      0.0000     0.0000E+00    0.0000E+00    1.000000E+07  0.05000  9.074E-03    0   0.8524   age070_m72            0.0000     1.1815E-03     8.8138   2.4360    93.0318
 56      0.0000     0.0000E+00    0.0000E+00    2.512000E+07  0.05000  4.250E-03    0   0.7902   age090_m72            0.0000     9.5579E-04     7.7343   2.1308    95.2295
 57      0.0000     0.0000E+00    0.0000E+00    4.000000E+07  0.05000  3.087E-03    0   0.7618   age104_m72            0.0000     8.9036E-04     7.4213   1.9033    96.8553
 58      0.1556     3.1726E-03    4.3861E-03    1.015200E+08  0.05000  1.700E-03    0   0.7096   age116_m72            0.0000     6.7002E-04     6.5297   1.6091   101.0459
 59      8.0496     3.7798E-01    4.8846E-01    2.861200E+08  0.05000  7.384E-04    0   0.6633   age125_m72            0.0000     5.1016E-04     6.5621   1.0117   108.5108
 60     13.0545     1.1852E+00    1.4714E+00    5.088000E+08  0.05000  3.819E-04    0   0.6372   age130_m72            0.0000     4.1916E-04     6.9067   0.4838   111.5577
 61      0.0432     8.9274E-03    1.0627E-02    9.047900E+08  0.05000  1.676E-04    0   0.6110   age135_m72            0.0000     4.8155E-04     8.0118  -0.2442   110.5532
 62      2.0668     8.1093E-01    9.2804E-01    1.434000E+09  0.05000  8.837E-05    0   0.5874   age139_m72            0.0000     5.2907E-04     7.9968  -0.7039   109.9895
 63      1.1030     9.0349E-01    9.8538E-01    2.500000E+09  0.05000  4.233E-05    0   0.5598   age150_m72            0.0000     6.5574E-04     9.0075  -1.0000   108.5225
 64      3.4471     8.3289E+00    8.5175E+00    6.250000E+09  0.05000  1.435E-05    0   0.5249   age166_m72            0.0000     1.4220E-03    12.4237  -1.0000    95.1946
 65      3.2056     1.7065E+01    1.6744E+01    1.300000E+10  0.05000  6.513E-06    0   0.5036   age193_m72            0.0000     2.5645E-03    17.3536  -1.0000    88.0875
 66      6.1541     4.7134E+01    4.5410E+01    1.800000E+10  0.05000  4.527E-06    0   0.4945   age213_m72            0.0000     3.4000E-03    20.2104  -1.0000    83.1611


## Synthesis Results - Average & Chains ##

# j      x_j: min, <> & last-chain-values for 1 ...  7 chains
  1      0.0000      0.5160      0.5812      0.3926      0.0000      1.2120      0.0900      0.2553      0.2353
  2      0.0000      0.3989      0.3281      0.0000      0.0571      0.8116      0.0065      0.2216      0.6051
  3      0.0000      0.3502      0.1137      0.1473      0.1881      0.0000      0.0757      0.0933      0.0000
  4      0.0000      0.3910      0.0374      0.3455      0.0979      0.0804      0.2167      0.0000      0.0000
  5      0.0000      0.5612      0.0020      0.3498      0.0000      0.0325      0.1179      0.1448      1.2396
  6      0.0000      0.4209      0.0292      0.0596      0.0584      0.5602      0.1121      0.0644      1.4731
  7      0.0000      0.3107      0.0000      0.0000      0.6977      0.0000      0.3464      0.1726      0.0000
  8      0.7524      0.2431      0.0423      0.2429      0.0000      0.6271      0.2274      0.2068      0.3249
  9      0.0000      0.3864      0.2917      0.1134      0.4138      0.1269      0.0958      0.0000      0.0674
 10      0.0000      0.4311      0.0476      0.3081      0.2427      0.1963      0.0000      0.0000      0.8643
 11      0.0000      0.3914      0.1863      0.0847      1.3595      0.1687      0.9172      0.0870      0.0000
 12      0.0000      0.3955      0.1850      0.3766      0.3086      0.4856      0.5185      0.6030      0.1860
 13     44.8961      0.2938      0.0350      0.0214      0.1239      0.2624      0.1356      0.0990      0.2888
 14      0.0000      0.6448      0.2127      0.3054      0.6223      0.5251      0.3226      0.3975      0.2332
 15      1.3698      0.3808      0.0688      0.1721      0.0000      0.3431      0.0752      0.3292      1.1317
 16      0.0000      0.3855      0.1854      0.0127      1.1040      0.9702      0.2707      0.2655      0.0000
 17      0.0000      0.4810      0.7868      0.2251      0.2093      0.6921      0.2756      0.2769      0.6391
 18      0.0000      1.7815      1.4088      1.6401      1.8984      1.8260      1.7114      1.9054      0.0000
 19      0.0000      1.8575      2.1449      2.1869      2.2499      0.8057      1.0876      1.6700      0.9534
 20      0.0000      0.4681      0.2902      0.1664      0.2554      0.0000      0.1959      0.1096      0.7107
 21      0.0000      0.4804      0.1286      0.0266      0.3632      0.2564      0.1365      0.1454      0.5233
 22      0.0000      0.3024      0.0000      0.3551      0.0000      0.0785      0.6090      0.1317      1.0276
 23      0.0000      0.4610      0.3296      0.2552      1.0553      0.0000      0.5413      0.2075      0.1758
 24      0.0000      0.3902      0.0000      0.2865      0.0000      0.0000      0.1790      0.0000      0.0540
 25      0.0283      0.2405      0.1722      0.0768      0.5409      0.0000      0.0000      0.0000      0.3084
 26      0.0000      0.3344      0.1698      0.2590      0.2179      0.0000      0.2551      0.3827      0.0000
 27      0.0000      0.2894      0.0454      0.1080      0.3367      2.1260      0.0570      0.3201      0.0000
 28      5.7361      0.4598      0.0673      0.1001      0.2000      0.0000      0.2430      0.3125      0.8022
 29      0.0000      0.3849      0.1429      0.0000      0.0000      0.1445      0.0304      0.0988      0.1631
 30      0.0000      0.3653      0.1624      0.0153      0.3220      0.6335      0.3592      0.1098      0.8492
 31      0.0000      0.4177      0.4586      0.2404      0.0000      0.1659      0.2724      0.4056      0.2279
 32      0.0000      0.4215      0.6072      0.3182      0.3985      0.3014      0.2338      0.0000      0.0000
 33      0.0000      0.3792      0.1400      0.2171      0.2050      0.0000      0.2523      0.5428      0.1921
 34      2.1573      0.4944      0.3310      0.1996      1.0820      0.5037      0.2880      0.2049      0.4684
 35      0.0000      1.0114      0.9827      0.8436      0.4703      0.6445      0.9065      1.2329      0.4457
 36      0.0000      1.3460      0.5437      0.2147      0.8220      0.4782      1.6419      1.1896      1.3142
 37      0.0000      0.4465      0.2706      0.0945      0.3094      0.0000      0.1101      0.1581      0.0031
 38      0.0000      0.4799      0.2284      0.0613      0.3759      0.3797      0.1744      0.2116      0.7036
 39      0.0000      0.4263      0.0828      0.0353      0.3919      0.4029      0.0101      0.3532      0.0000
 40      0.0000      0.3944      0.3018      0.1575      0.6179      0.1933      0.1008      0.0733      0.3234
 41      0.0000      0.7281      0.4602      0.9016      0.6050      1.6607      0.4804      0.7870      0.4104
 42      0.0173      0.3114      0.0154      0.3126      0.0000      0.5133      0.0158      0.0000      1.2671
 43      0.0000      0.3511      0.1013      0.1634      0.3217      0.8658      0.3694      0.3022      0.2201
 44      8.1734      0.2591      0.0314      0.2026      0.1156      0.0131      0.0950      0.1549      0.6218
 45      3.2262      0.4903      0.0150      0.2346      0.3610      0.7385      0.1480      0.4017      0.6047
 46      2.0576      0.3641      0.0673      0.5242      0.0261      0.3960      0.1076      0.7756      1.2821
 47      0.0000      0.6062      0.0498      0.9402      1.1300      2.0388      0.2642      0.0326      0.2560
 48      0.1736      0.3885      0.3395      0.3079      0.2066      0.2555      0.3620      0.4184      0.4955
 49      2.1754      0.4564      0.4550      0.2941      0.0000      0.5673      0.4667      0.2362      0.5174
 50      0.0000      0.4535      0.0308      0.2704      0.5111      0.7552      0.1506      0.1940      0.0000
 51      0.0000      0.6480      0.4994      0.4708      0.2608      0.7964      0.4303      0.3054      0.9764
 52      0.7973      3.6437      3.8332      3.2178      3.4045      2.8565      3.8242      3.6678      3.7616
 53      0.2479      1.4988      1.6950      1.5736      1.5879      1.7092      1.4195      1.3375      0.9007
 54      0.0000      0.4993      0.0626      0.1231      0.0249      0.0000      0.0000      0.0246      0.0000
 55      0.0000      0.3915      0.0956      0.1036      0.0000      0.5374      0.0286      0.5941      0.4627
 56      0.0000      1.4507      1.4522      1.4364      1.4245      1.1845      1.5769      1.2637      0.9902
 57      0.0000      0.8574      0.3725      0.3742      0.4887      0.5265      0.6260      0.5803      0.2093
 58      0.1556      0.4203      0.0676      0.0000      0.3687      1.0258      0.9455      0.0034      0.9224
 59      8.0496      0.4160      0.0000      0.3592      0.2444      0.6981      0.1788      0.3532      0.7742
 60     13.0545      0.4053      0.0000      0.0000      0.0000      1.2104      0.3556      0.0874      0.8775
 61      0.0432     81.1241     95.5591     93.7514     87.9200     82.0219     92.5761     92.2183     83.3227
 62      2.0668      0.8259      0.8078      1.0972      1.0404      0.9320      0.5404      0.6880      0.8178
 63      1.1030      0.5068      0.4549      0.4519      0.2839      0.0275      0.0979      0.4777      0.8368
 64      3.4471      0.4762      0.3400      0.1198      0.3370      1.1456      0.4069      0.7432      0.6342
 65      3.2056      0.3483      0.0972      0.6283      0.0828      0.0609      0.1197      0.1534      0.3678
 66      6.1541      0.4656      0.0612      0.1865      0.3287      0.4120      0.1662      0.2189      0.5266

# j      m_j: min, <> & last-chain-values for 1 ...  7 chains
  1  0.0000E+00  8.3269E-03  1.0907E-02  6.9211E-03  0.0000E+00  1.8401E-02  1.7103E-03  4.5786E-03  3.8705E-03
  2  0.0000E+00  1.7573E-03  1.6810E-03  0.0000E+00  2.5754E-04  3.3640E-03  3.3615E-05  1.0852E-03  2.7177E-03
  3  0.0000E+00  2.3105E-03  8.7235E-04  1.0615E-03  1.2710E-03  0.0000E+00  5.8806E-04  6.8386E-04  0.0000E+00
  4  0.0000E+00  2.4291E-03  2.7023E-04  2.3453E-03  6.2286E-04  4.7017E-04  1.5849E-03  0.0000E+00  0.0000E+00
  5  0.0000E+00  6.6412E-03  2.7839E-05  4.5224E-03  0.0000E+00  3.6161E-04  1.6430E-03  1.9041E-03  1.4956E-02
  6  0.0000E+00  8.0791E-03  6.5236E-04  1.2493E-03  1.1481E-03  1.0117E-02  2.5341E-03  1.3745E-03  2.8828E-02
  7  0.0000E+00  8.5381E-03  0.0000E+00  0.0000E+00  1.9637E-02  0.0000E+00  1.1207E-02  5.2727E-03  0.0000E+00
  8  1.0935E-02  9.2324E-03  1.8666E-03  1.0079E-02  0.0000E+00  2.2412E-02  1.0169E-02  8.7317E-03  1.2582E-02
  9  0.0000E+00  1.6797E-02  1.4746E-02  5.3843E-03  1.8425E-02  5.1904E-03  4.9048E-03  0.0000E+00  2.9869E-03
 10  0.0000E+00  2.4619E-02  3.1634E-03  1.9225E-02  1.4196E-02  1.0547E-02  0.0000E+00  0.0000E+00  5.0318E-02
 11  0.0000E+00  4.2025E-02  2.3261E-02  9.9377E-03  1.4951E-01  1.7045E-02  1.1595E-01  1.0378E-02  0.0000E+00
 12  0.0000E+00  6.7371E-02  3.6634E-02  7.0083E-02  5.3832E-02  7.7815E-02  1.0397E-01  1.1416E-01  3.2299E-02
 13  8.2478E+00  1.4105E-01  1.9544E-02  1.1248E-02  6.0922E-02  1.1854E-01  7.6627E-02  5.2799E-02  1.4136E-01
 14  0.0000E+00  1.0382E+00  3.9835E-01  5.3723E-01  1.0264E+00  7.9553E-01  6.1162E-01  7.1145E-01  3.8279E-01
 15  1.3740E+00  9.9823E-01  2.0965E-01  4.9296E-01  0.0000E+00  8.4619E-01  2.3207E-01  9.5919E-01  3.0245E+00
 16  0.0000E+00  1.7086E+00  9.5562E-01  6.1564E-02  5.0119E+00  4.0459E+00  1.4126E+00  1.3078E+00  0.0000E+00
 17  0.0000E+00  2.7659E+00  5.2608E+00  1.4139E+00  1.2324E+00  3.7440E+00  1.8658E+00  1.7696E+00  3.7464E+00
 18  0.0000E+00  2.5403E-02  2.3360E-02  2.5553E-02  2.7726E-02  2.4498E-02  2.8733E-02  3.0199E-02  0.0000E+00
 19  0.0000E+00  1.0631E-02  1.4275E-02  1.3675E-02  1.3188E-02  4.3384E-03  7.3290E-03  1.0623E-02  5.5633E-03
 20  0.0000E+00  2.9249E-03  2.1084E-03  1.1359E-03  1.6342E-03  0.0000E+00  1.4410E-03  7.6093E-04  4.5271E-03
 21  0.0000E+00  3.6432E-03  1.1338E-03  2.2081E-04  2.8210E-03  1.8293E-03  1.2185E-03  1.2254E-03  4.0462E-03
 22  0.0000E+00  3.8778E-03  0.0000E+00  4.9764E-03  0.0000E+00  9.4701E-04  9.1965E-03  1.8771E-03  1.3437E-02
 23  0.0000E+00  7.9836E-03  6.6386E-03  4.8296E-03  1.8719E-02  0.0000E+00  1.1038E-02  3.9938E-03  3.1043E-03
 24  0.0000E+00  1.0055E-02  0.0000E+00  8.0668E-03  0.0000E+00  0.0000E+00  5.4315E-03  0.0000E+00  1.4179E-03
 25  3.8494E-04  8.5435E-03  7.1137E-03  2.9804E-03  1.9683E-02  0.0000E+00  0.0000E+00  0.0000E+00  1.1171E-02
 26  0.0000E+00  1.9858E-02  1.1726E-02  1.6803E-02  1.3252E-02  0.0000E+00  1.7839E-02  2.5258E-02  0.0000E+00
 27  0.0000E+00  3.4402E-02  6.2811E-03  1.4020E-02  4.0989E-02  2.3777E-01  7.9781E-03  4.2288E-02  0.0000E+00
 28  7.5721E-01  1.5862E-01  2.6985E-02  3.7747E-02  7.0660E-02  0.0000E+00  9.8692E-02  1.1982E-01  2.8213E-01
 29  0.0000E+00  2.3136E-01  9.9884E-02  0.0000E+00  0.0000E+00  8.1706E-02  2.1480E-02  6.5978E-02  9.9955E-02
 30  0.0000E+00  4.5871E-01  2.3715E-01  2.0983E-02  4.1421E-01  7.4856E-01  5.3106E-01  1.5328E-01  1.0873E+00
 31  0.0000E+00  9.2272E-01  1.1782E+00  5.8019E-01  0.0000E+00  3.4476E-01  7.0837E-01  9.9585E-01  5.1335E-01
 32  0.0000E+00  1.2528E+00  2.0988E+00  1.0334E+00  1.2132E+00  8.4293E-01  8.1837E-01  0.0000E+00  0.0000E+00
 33  0.0000E+00  2.4952E+00  1.0710E+00  1.5612E+00  1.3816E+00  0.0000E+00  1.9550E+00  3.9698E+00  1.2889E+00
 34  7.3557E+00  4.4055E+00  3.4298E+00  1.9434E+00  9.8744E+00  4.2228E+00  3.0209E+00  2.0288E+00  4.2557E+00
 35  0.0000E+00  1.1564E-02  1.3066E-02  1.0539E-02  5.5075E-03  6.9336E-03  1.2203E-02  1.5667E-02  5.1957E-03
 36  0.0000E+00  6.2266E-03  2.9246E-03  1.0852E-03  3.8944E-03  2.0814E-03  8.9422E-03  6.1163E-03  6.1982E-03
 37  0.0000E+00  2.2341E-03  1.5743E-03  5.1686E-04  1.5856E-03  0.0000E+00  6.4837E-04  8.7937E-04  1.5565E-05
 38  0.0000E+00  6.5053E-03  3.6002E-03  9.0793E-04  5.2185E-03  4.8431E-03  2.7827E-03  3.1885E-03  9.7235E-03
 39  0.0000E+00  8.3195E-03  1.8803E-03  7.5294E-04  7.8343E-03  7.3980E-03  2.3301E-04  7.6627E-03  0.0000E+00
 40  0.0000E+00  1.2442E-02  1.1071E-02  5.4296E-03  1.9966E-02  5.7381E-03  3.7457E-03  2.5719E-03  1.0402E-02
 41  0.0000E+00  3.5719E-02  2.6252E-02  4.8325E-02  3.0398E-02  7.6656E-02  2.7749E-02  4.2910E-02  2.0528E-02
 42  5.9762E-04  2.8053E-02  1.6117E-03  3.0761E-02  0.0000E+00  4.3504E-02  1.6779E-03  0.0000E+00  1.1636E-01
 43  0.0000E+00  4.6164E-02  1.5484E-02  2.3482E-02  4.3336E-02  1.0712E-01  5.7196E-02  4.4171E-02  2.9516E-02
 44  7.0817E-01  5.8666E-02  8.2588E-03  5.0118E-02  2.6814E-02  2.7956E-03  2.5329E-02  3.8993E-02  1.4354E-01
 45  5.5462E-01  2.2025E-01  7.8619E-03  1.1514E-01  1.6610E-01  3.1218E-01  7.8274E-02  2.0059E-01  2.7696E-01
 46  6.5018E-01  3.0065E-01  6.4595E-02  4.7298E-01  2.2108E-02  3.0771E-01  1.0465E-01  7.1187E-01  1.0794E+00
 47  0.0000E+00  1.0144E+00  9.6896E-02  1.7189E+00  1.9366E+00  3.2097E+00  5.2043E-01  6.0550E-02  4.3673E-01
 48  1.9601E-01  1.1464E+00  1.1651E+00  9.9272E-01  6.2438E-01  7.0943E-01  1.2577E+00  1.3725E+00  1.4908E+00
 49  5.5831E+00  3.0609E+00  3.5484E+00  2.1551E+00  0.0000E+00  3.5801E+00  3.6856E+00  1.7606E+00  3.5378E+00
 50  0.0000E+00  5.6336E+00  4.4487E-01  3.6695E+00  6.5027E+00  8.8264E+00  2.2032E+00  2.6784E+00  0.0000E+00
 51  0.0000E+00  4.4126E-03  3.9543E-03  3.5024E-03  1.8190E-03  5.1021E-03  3.4498E-03  2.3112E-03  6.7788E-03
 52  1.0647E-03  1.2715E-02  1.5555E-02  1.2268E-02  1.2168E-02  9.3783E-03  1.5712E-02  1.4225E-02  1.3383E-02
 53  4.9870E-04  7.8781E-03  1.0361E-02  9.0375E-03  8.5489E-03  8.4530E-03  8.7848E-03  7.8139E-03  4.8270E-03
 54  0.0000E+00  5.3775E-03  7.8441E-04  1.4482E-03  2.7511E-04  0.0000E+00  0.0000E+00  2.9409E-04  0.0000E+00
 55  0.0000E+00  6.4926E-03  1.8428E-03  1.8762E-03  0.0000E+00  8.3843E-03  5.5838E-04  1.0950E-02  7.8232E-03
 56  0.0000E+00  4.7617E-02  5.5428E-02  5.1513E-02  4.7887E-02  3.6579E-02  6.0939E-02  4.6102E-02  3.3136E-02
 57  0.0000E+00  3.7350E-02  1.8870E-02  1.7809E-02  2.1805E-02  2.1580E-02  3.2110E-02  2.8099E-02  9.2978E-03
 58  4.3861E-03  3.0969E-02  5.7946E-03  0.0000E+00  2.7827E-02  7.1116E-02  8.2025E-02  2.7687E-04  6.9294E-02
 59  4.8846E-01  6.5973E-02  0.0000E+00  6.2241E-02  3.9699E-02  1.0415E-01  3.3387E-02  6.2261E-02  1.2518E-01
 60  1.4714E+00  1.1939E-01  0.0000E+00  0.0000E+00  0.0000E+00  3.3545E-01  1.2333E-01  2.8596E-02  2.6353E-01
 61  1.0627E-02  5.2208E+01  7.1516E+01  6.5922E+01  5.7953E+01  4.9665E+01  7.0146E+01  6.5963E+01  5.4672E+01
 62  9.2804E-01  9.6908E-01  1.1023E+00  1.4067E+00  1.2503E+00  1.0290E+00  7.4657E-01  8.9727E-01  9.7834E-01
 63  9.8538E-01  1.1832E+00  1.2349E+00  1.1527E+00  6.7884E-01  6.0358E-02  2.6898E-01  1.2395E+00  1.9917E+00
 64  8.5175E+00  3.0750E+00  2.5528E+00  8.4512E-01  2.2289E+00  6.9600E+00  3.0937E+00  5.3341E+00  4.1756E+00
 65  1.6744E+01  4.7537E+00  1.5422E+00  9.3702E+00  1.1576E+00  7.8206E-01  1.9237E+00  2.3278E+00  5.1182E+00
 66  4.5410E+01  8.9782E+00  1.3733E+00  3.9303E+00  6.4927E+00  7.4744E+00  3.7731E+00  4.6917E+00  1.0353E+01

# AV, chi2 & Mass for <> & i_chain = 1 ...  7 solutions
AV      -0.2612     -0.2388     -0.2597     -0.2634     -0.2329     -0.2441     -0.2245     -0.2472     -0.2238
chi2 3.5070E-04  7.8322E-04  7.1711E-04  7.0219E-04  7.0898E-04  7.1510E-04  7.1038E-04  7.1184E-04  6.9570E-04
Mass 1.3485E-12  5.3184E-13  4.4468E-13  4.7093E-13  5.2336E-13  5.6127E-13  4.6044E-13  4.7313E-13  5.3224E-13
 -16.36                                  [v0_min (km/s) before EX0s...]
 307.55                                  [vd_min (km/s) before EX0s...]


## Synthetic spectrum (Best Model) ##l_obs f_obs f_syn wei
 3478    [Nl_obs]
 3741.00    0.48041   0.52201    0.000
 3742.00    0.48930   0.52305    0.000
 3743.00    0.47483   0.51673    0.000
 3744.00    0.46620   0.50628    0.000
 3745.00    0.46097   0.49314    0.455
 3746.00    0.48439   0.47905    0.436
 3747.00    0.52235   0.46866    0.403
 3748.00    0.52998   0.46307    0.434
 3749.00    0.52428   0.46336    0.510
 3750.00    0.55506   0.47136    0.477
 3751.00    0.59962   0.48533    0.414
 3752.00    0.59570   0.50304    0.398
 3753.00    0.57624   0.52288    0.393
 3754.00    0.56138   0.54276    0.386
 3755.00    0.54776   0.55975    0.378
 3756.00    0.55418   0.57297    0.369
 3757.00    0.56499   0.58297    0.360
 3758.00    0.55619   0.58861    0.377
 3759.00    0.54397   0.59126    0.400
 3760.00    0.52104   0.59197    0.571
 3761.00    0.49669   0.58931    1.079
 3762.00    0.50898   0.58520    0.589
 3763.00    0.52472   0.57992    0.382
 3764.00    0.52759   0.57161    0.368
 3765.00    0.52972   0.56293    0.362
 3766.00    0.51085   0.55477    0.371
 3767.00    0.49159   0.54655    0.381
 3768.00    0.48477   0.54178    0.370
 3769.00    0.47784   0.54131    0.359
 3770.00    0.46835   0.54435    0.348
 3771.00    0.45943   0.55367    0.339
 3772.00    0.45797   0.56878    0.334
 3773.00    0.45658   0.58688    0.329
 3774.00    0.45588   0.60896    0.321
 3775.00    0.45487   0.63388    0.316
 3776.00    0.45177   0.65856    0.331
 3777.00    0.45072   0.68256    0.345
 3778.00    0.46004   0.70464    0.343
 3779.00    0.47128   0.72357    0.342
 3780.00    0.49036   0.73821    0.347
 3781.00    0.51440   0.74723    0.353
 3782.00    0.55526   0.75135    0.366
 3783.00    0.58941   0.74994    0.380
 3784.00    0.60438   0.74290    0.397
 3785.00    0.61100   0.73158    0.407
 3786.00    0.59723   0.71624    0.398
 3787.00    0.58672   0.69846    0.399
 3788.00    0.58310   0.67874    0.421
 3789.00    0.58024   0.65672    0.422
 3790.00    0.57876   0.63411    0.388
 3791.00    0.57975   0.61139    0.370
 3792.00    0.58467   0.58752    0.374
 3793.00    0.58008   0.56423    0.375
 3794.00    0.56213   0.54389    0.372
 3795.00    0.55745   0.52685    0.368
 3796.00    0.56915   0.51488    0.364
 3797.00    0.57456   0.51027    0.372
 3798.00    0.57313   0.51344    0.395
 3799.00    0.57805   0.52446    0.406
 3800.00    0.58909   0.54264    0.401
 3801.00    0.59822   0.56573    0.403
 3802.00    0.60576   0.59207    0.409
 3803.00    0.60930   0.62049    0.409
 3804.00    0.60986   0.64743    0.404
 3805.00    0.62220   0.67182    0.390
 3806.00    0.64227   0.69437    0.372
 3807.00    0.65654   0.71254    0.365
 3808.00    0.66750   0.72651    0.364
 3809.00    0.65906   0.73740    0.370
 3810.00    0.64092   0.74346    0.382
 3811.00    0.61994   0.74593    0.421
 3812.00    0.59773   0.74606    0.484
 3813.00    0.58040   0.74273    0.428
 3814.00    0.56487   0.73774    0.354
 3815.00    0.54623   0.73181    0.341
 3816.00    0.52660   0.72436    0.342
 3817.00    0.53739   0.71718    0.395
 3818.00    0.55616   0.70902    0.490
 3819.00    0.57523   0.69887    0.441
 3820.00    0.59437   0.68844    0.377
 3821.00    0.57322   0.67659    0.366
 3822.00    0.54522   0.66237    0.363
 3823.00    0.51668   0.64633    0.369
 3824.00    0.48806   0.62863    0.378
 3825.00    0.47167   0.61026    0.373
 3826.00    0.45637   0.59015    0.366
 3827.00    0.47213   0.56785    0.405
 3828.00    0.48956   0.54583    0.458
 3829.00    0.51229   0.52345    0.427
 3830.00    0.53473   0.50083    0.400
 3831.00    0.52268   0.48021    0.400
 3832.00    0.51217   0.46151    0.400
 3833.00    0.53565   0.44698    0.375
 3834.00    0.55723   0.43839    0.355
 3835.00    0.55512   0.43493    0.362
 3836.00    0.55441   0.43903    0.373
 3837.00    0.56565   0.45108    0.425
 3838.00    0.57905   0.46853    0.472
 3839.00    0.60610   0.49239    0.413
 3840.00    0.62441   0.52090    0.373
 3841.00    0.59958   0.55069    0.371
 3842.00    0.57971   0.58266    0.370
 3843.00    0.57970   0.61388    0.373
 3844.00    0.58379   0.64190    0.378
 3845.00    0.60155   0.66826    0.391
 3846.00    0.61573   0.69139    0.400
 3847.00    0.61985   0.71034    0.000
 3848.00    0.62481   0.72613    0.000
 3849.00    0.63182   0.73901    0.000
 3850.00    0.63523   0.74896    0.000
 3851.00    0.63118   0.75662    0.000
 3852.00    0.62978   0.76240    0.000
 3853.00    0.63313   0.76541    0.000
 3854.00    0.63269   0.76732    0.000
 3855.00    0.62625   0.76924    0.000
 3856.00    0.62023   0.76991    0.000
 3857.00    0.61476   0.77121    0.000
 3858.00    0.61484   0.77395    0.000
 3859.00    0.62168   0.77693    0.000
 3860.00    0.62238   0.78182    0.000
 3861.00    0.61650   0.78808    0.000
 3862.00    0.60091   0.79331    0.000
 3863.00    0.57613   0.79819    0.000
 3864.00    0.54370   0.80264    0.000
 3865.00    0.50489   0.80438    0.000
 3866.00    0.47375   0.80374    0.000
 3867.00    0.44824   0.80078    0.000
 3868.00    0.42200   0.79549    0.000
 3869.00    0.39529   0.78926    0.000
 3870.00    0.38229   0.78137    0.000
 3871.00    0.37703   0.77270    0.000
 3872.00    0.39808   0.76356    0.000
 3873.00    0.43207   0.75293    0.000
 3874.00    0.46770   0.74298    0.000
 3875.00    0.50404   0.73202    0.000
 3876.00    0.53852   0.71864    0.000
 3877.00    0.57231   0.70514    0.000
 3878.00    0.60219   0.69017    0.000
 3879.00    0.63086   0.67344    0.000
 3880.00    0.63251   0.65491    0.000
 3881.00    0.62723   0.63363    0.390
 3882.00    0.64473   0.61315    0.378
 3883.00    0.66698   0.59281    0.360
 3884.00    0.67451   0.57144    0.377
 3885.00    0.67961   0.55279    0.401
 3886.00    0.67791   0.53821    0.398
 3887.00    0.67537   0.52915    0.393
 3888.00    0.69641   0.52580    0.381
 3889.00    0.71947   0.52816    0.369
 3890.00    0.72197   0.53825    0.381
 3891.00    0.72344   0.55421    0.395
 3892.00    0.70628   0.57362    0.379
 3893.00    0.68910   0.59576    0.365
 3894.00    0.68979   0.61929    0.375
 3895.00    0.68988   0.64233    0.384
 3896.00    0.67789   0.66454    0.366
 3897.00    0.66560   0.68477    0.349
 3898.00    0.64984   0.70228    0.331
 3899.00    0.63210   0.71979    0.316
 3900.00    0.59819   0.73533    0.313
 3901.00    0.56381   0.74901    0.309
 3902.00    0.52660   0.76321    0.299
 3903.00    0.49185   0.77613    0.288
 3904.00    0.46893   0.79052    0.274
 3905.00    0.45089   0.80499    0.265
 3906.00    0.45197   0.81845    0.267
 3907.00    0.46302   0.83414    0.271
 3908.00    0.50656   0.84780    0.284
 3909.00    0.55218   0.85963    0.296
 3910.00    0.60355   0.87153    0.307
 3911.00    0.64831   0.87957    0.316
 3912.00    0.67746   0.88474    0.321
 3913.00    0.70405   0.88691    0.327
 3914.00    0.72539   0.88557    0.335
 3915.00    0.74333   0.88282    0.346
 3916.00    0.75523   0.87720    0.362
 3917.00    0.76846   0.87015    0.371
 3918.00    0.78376   0.86314    0.369
 3919.00    0.78852   0.85475    0.368
 3920.00    0.77887   0.84570    0.370
 3921.00    0.77317   0.83588    0.372
 3922.00    0.77220   0.82469    0.376
 3923.00    0.76807   0.81062    0.375
 3924.00    0.76060   0.79403    0.369
 3925.00    0.75105   0.77430    0.373
 3926.00    0.73956   0.75027    0.387
 3927.00    0.74316   0.72359    0.391
 3928.00    0.75921   0.69398    0.384
 3929.00    0.75561   0.66430    0.390
 3930.00    0.73778   0.63755    0.406
 3931.00    0.70400   0.61440    0.417
 3932.00    0.66006   0.59834    0.425
 3933.00    0.66170   0.59107    0.421
 3934.00    0.68871   0.59333    0.412
 3935.00    0.71810   0.60488    0.413
 3936.00    0.74864   0.62264    0.421
 3937.00    0.76081   0.64627    0.414
 3938.00    0.76529   0.67413    0.401
 3939.00    0.76989   0.70177    0.394
 3940.00    0.77453   0.72831    0.389
 3941.00    0.77430   0.75185    0.386
 3942.00    0.77260   0.77154    0.383
 3943.00    0.76224   0.78906    0.376
 3944.00    0.74969   0.80353    0.368
 3945.00    0.77913   0.81555    0.376
 3946.00    0.81712   0.82556    0.388
 3947.00    0.85340   0.83257    0.383
 3948.00    0.88941   0.83885    0.375
 3949.00    0.89308   0.84443    0.379
 3950.00    0.89288   0.84581    0.386
 3951.00    0.89263   0.84416    0.392
 3952.00    0.89238   0.84106    0.398
 3953.00    0.88098   0.83516    0.391
 3954.00    0.86907   0.82583    0.383
 3955.00    0.86403   0.81192    0.383
 3956.00    0.85935   0.79397    0.383
 3957.00    0.86871   0.77377    0.380
 3958.00    0.87672   0.74912    0.377
 3959.00    0.85922   0.71889    0.379
 3960.00    0.84210   0.68566    0.000
 3961.00    0.82939   0.64991    0.000
 3962.00    0.81686   0.61198    0.000
 3963.00    0.80584   0.57291    0.000
 3964.00    0.79348   0.53357    0.000
 3965.00    0.77316   0.49744    0.000
 3966.00    0.75177   0.46690    0.000
 3967.00    0.72537   0.44316    0.000
 3968.00    0.70893   0.42824    0.000
 3969.00    0.73059   0.42359    0.000
 3970.00    0.75390   0.43004    0.000
 3971.00    0.78249   0.44666    0.000
 3972.00    0.81877   0.47262    0.000
 3973.00    0.87588   0.50647    0.000
 3974.00    0.91379   0.54515    0.000
 3975.00    0.90708   0.58673    0.000
 3976.00    0.90449   0.62840    0.000
 3977.00    0.91015   0.66844    0.000
 3978.00    0.91536   0.70676    0.000
 3979.00    0.91976   0.74082    0.000
 3980.00    0.92589   0.77103    0.000
 3981.00    0.93463   0.79810    0.372
 3982.00    0.94764   0.82142    0.373
 3983.00    0.96636   0.84305    0.379
 3984.00    0.97205   0.86156    0.382
 3985.00    0.96231   0.87781    0.382
 3986.00    0.96626   0.89396    0.381
 3987.00    0.98451   0.90775    0.382
 3988.00    0.98616   0.92058    0.375
 3989.00    0.97251   0.93180    0.363
 3990.00    0.99114   0.94072    0.357
 3991.00    1.03596   0.94943    0.355
 3992.00    1.04231   0.95569    0.354
 3993.00    1.02117   0.96041    0.353
 3994.00    0.99616   0.96501    0.352
 3995.00    0.96872   0.96858    0.351
 3996.00    0.96182   0.97206    0.352
 3997.00    0.96617   0.97590    0.355
 3998.00    0.98144   0.97950    0.355
 3999.00    1.00190   0.98288    0.355
 4000.00    1.01583   0.98580    0.356
 4001.00    1.02707   0.98837    0.359
 4002.00    1.02512   0.99106    0.356
 4003.00    1.01853   0.99258    0.352
 4004.00    1.00906   0.99373    0.354
 4005.00    0.99875   0.99596    0.358
 4006.00    0.99777   0.99956    0.356
 4007.00    0.99910   1.00387    0.353
 4008.00    1.00888   1.00844    0.355
 4009.00    1.02035   1.01425    0.357
 4010.00    1.02300   1.02096    0.354
 4011.00    1.02429   1.02803    0.351
 4012.00    1.00173   1.03374    0.349
 4013.00    0.97643   1.03908    0.349
 4014.00    0.97632   1.04440    0.360
 4015.00    0.97815   1.04800    0.373
 4016.00    0.99516   1.05156    0.370
 4017.00    1.01281   1.05427    0.367
 4018.00    1.02868   1.05608    0.365
 4019.00    1.04461   1.05750    0.363
 4020.00    1.06356   1.05725    0.372
 4021.00    1.07999   1.05692    0.380
 4022.00    1.05198   1.05589    0.370
 4023.00    1.02648   1.05362    0.360
 4024.00    1.02782   1.05077    0.359
 4025.00    1.02852   1.04645    0.358
 4026.00    1.02428   1.04174    0.361
 4027.00    1.01450   1.03599    0.365
 4028.00    0.97279   1.02843    0.375
 4029.00    0.93922   1.02204    0.383
 4030.00    0.94289   1.01654    0.376
 4031.00    0.93818   1.01244    0.370
 4032.00    0.90200   1.01159    0.367
 4033.00    0.86902   1.01214    0.362
 4034.00    0.84607   1.01595    0.352
 4035.00    0.83229   1.02244    0.344
 4036.00    0.84291   1.02879    0.341
 4037.00    0.85646   1.03486    0.339
 4038.00    0.87669   1.03809    0.338
 4039.00    0.90131   1.03862    0.340
 4040.00    0.93458   1.03734    0.347
 4041.00    0.95414   1.03283    0.354
 4042.00    0.95008   1.02646    0.360
 4043.00    0.94244   1.01869    0.365
 4044.00    0.92938   1.01162    0.369
 4045.00    0.93818   1.00850    0.370
 4046.00    0.97596   1.00734    0.369
 4047.00    1.00931   1.00795    0.367
 4048.00    1.03749   1.01033    0.363
 4049.00    1.04745   1.01351    0.361
 4050.00    1.03867   1.01766    0.360
 4051.00    1.02175   1.02076    0.361
 4052.00    0.99742   1.02132    0.362
 4053.00    0.99139   1.02041    0.362
 4054.00    1.00000   1.01850    0.360
 4055.00    1.00541   1.01441    0.360
 4056.00    1.00857   1.00937    0.360
 4057.00    1.02355   1.00414    0.362
 4058.00    1.04584   0.99883    0.366
 4059.00    1.04595   0.99408    0.367
 4060.00    1.03410   0.98868    0.368
 4061.00    1.01424   0.98270    0.366
 4062.00    0.99063   0.97858    0.362
 4063.00    0.98436   0.97657    0.362
 4064.00    0.98508   0.97473    0.364
 4065.00    0.98535   0.97376    0.361
 4066.00    0.98547   0.97336    0.356
 4067.00    0.99495   0.97409    0.356
 4068.00    1.00716   0.97553    0.357
 4069.00    1.00732   0.97455    0.364
 4070.00    1.00459   0.97230    0.372
 4071.00    1.01698   0.97024    0.370
 4072.00    1.03230   0.96748    0.366
 4073.00    1.04915   0.96422    0.361
 4074.00    1.06623   0.95991    0.357
 4075.00    1.04706   0.95540    0.359
 4076.00    1.02387   0.95357    0.361
 4077.00    1.00999   0.95349    0.358
 4078.00    0.99678   0.95477    0.355
 4079.00    1.01644   0.95753    0.359
 4080.00    1.03735   0.96019    0.363
 4081.00    1.04751   0.96360    0.366
 4082.00    1.05753   0.96721    0.368
 4083.00    1.06505   0.96976    0.359
 4084.00    1.07141   0.97160    0.352
 4085.00    1.05869   0.97171    0.352
 4086.00    1.04567   0.96999    0.352
 4087.00    1.02958   0.96619    0.354
 4088.00    1.01884   0.95910    0.356
 4089.00    1.04730   0.94929    0.356
 4090.00    1.07410   0.93586    0.357
 4091.00    1.09155   0.91919    0.360
 4092.00    1.10309   0.89924    0.000
 4093.00    1.08819   0.87464    0.000
 4094.00    1.07457   0.84749    0.000
 4095.00    1.06563   0.81864    0.000
 4096.00    1.05448   0.78967    0.000
 4097.00    1.03647   0.76221    0.000
 4098.00    1.02585   0.73660    0.000
 4099.00    1.03449   0.71477    0.000
 4100.00    1.03481   0.69944    0.000
 4101.00    1.01644   0.69172    0.000
 4102.00    1.01032   0.69138    0.000
 4103.00    1.02801   0.69834    0.000
 4104.00    1.04047   0.71114    0.000
 4105.00    1.04402   0.72871    0.000
 4106.00    1.03117   0.75035    0.000
 4107.00    0.99393   0.77338    0.000
 4108.00    0.98365   0.79690    0.000
 4109.00    1.00861   0.82015    0.000
 4110.00    1.02649   0.84163    0.000
 4111.00    1.03624   0.86179    0.000
 4112.00    1.04044   0.87995    0.000
 4113.00    1.03901   0.89617    0.353
 4114.00    1.04100   0.91068    0.350
 4115.00    1.04607   0.92279    0.342
 4116.00    1.04039   0.93261    0.342
 4117.00    1.02624   0.94088    0.348
 4118.00    1.01383   0.94822    0.352
 4119.00    1.00264   0.95403    0.354
 4120.00    1.01267   0.95870    0.519
 4121.00    1.03563   0.96225    2.014
 4122.00    1.03707   0.96537   -1.000
 4123.00    1.02708   0.96816   -1.000
 4124.00    1.02575   0.96929   -1.000
 4125.00    1.02840   0.96913   -1.000
 4126.00    1.01997   0.96796   -1.000
 4127.00    1.00713   0.96624   -1.000
 4128.00    0.99997   0.96452    0.901
 4129.00    0.99474   0.96291    0.385
 4130.00    1.00932   0.96110    0.344
 4131.00    1.02953   0.96160    0.346
 4132.00    1.02888   0.96354    0.343
 4133.00    1.02332   0.96769    0.338
 4134.00    1.01325   0.97372    0.338
 4135.00    1.00232   0.97860    0.339
 4136.00    0.99857   0.98424    0.339
 4137.00    0.99586   0.98854    0.339
 4138.00    1.00293   0.99181    0.342
 4139.00    1.01102   0.99348    0.346
 4140.00    1.02289   0.99190    0.349
 4141.00    1.03502   0.98880    0.352
 4142.00    1.02598   0.98535    0.351
 4143.00    1.01622   0.98304    0.350
 4144.00    1.02863   0.98155    0.350
 4145.00    1.04053   0.98065    0.350
 4146.00    1.03410   0.98040    0.349
 4147.00    1.02803   0.98039    0.348
 4148.00    1.02772   0.98137    0.351
 4149.00    1.02542   0.98290    0.354
 4150.00    1.00350   0.98407    0.353
 4151.00    0.98597   0.98535    0.352
 4152.00    0.99966   0.98556    0.350
 4153.00    1.01246   0.98669    0.349
 4154.00    1.02041   0.98842    0.352
 4155.00    1.02392   0.99093    0.355
 4156.00    1.00800   0.99524    0.350
 4157.00    0.99071   0.99951    0.346
 4158.00    0.96851   1.00476    0.345
 4159.00    0.95710   1.00943    0.344
 4160.00    0.97829   1.01415    0.344
 4161.00    0.99718   1.01832    0.344
 4162.00    1.01013   1.02055    0.349
 4163.00    1.02489   1.02162    0.350
 4164.00    1.04363   1.02034    0.346
 4165.00    1.05206   1.01688    0.344
 4166.00    1.04073   1.01224    0.348
 4167.00    1.02713   1.00667    0.350
 4168.00    1.00972   0.99994    0.348
 4169.00    0.99634   0.99213    0.347
 4170.00    0.98885   0.98330    0.346
 4171.00    0.98477   0.97549    0.347
 4172.00    0.98509   0.96942    0.350
 4173.00    0.98623   0.96488    0.352
 4174.00    0.98831   0.96209    0.354
 4175.00    0.99778   0.96019    0.354
 4176.00    1.01466   0.96004    0.354
 4177.00    1.01951   0.96184    0.350
 4178.00    1.01374   0.96523    0.344
 4179.00    1.00385   0.96907    0.341
 4180.00    0.99078   0.97254    0.341
 4181.00    0.99990   0.97644    0.345
 4182.00    1.02421   0.98003    0.351
 4183.00    1.01360   0.98384    0.350
 4184.00    0.98206   0.98684    0.345
 4185.00    0.98761   0.98853    0.348
 4186.00    1.01257   0.99100    0.355
 4187.00    1.02393   0.99338    0.349
 4188.00    1.02912   0.99569    0.337
 4189.00    1.02764   0.99702    0.332
 4190.00    1.02356   0.99783    0.329
 4191.00    1.01033   0.99837    0.329
 4192.00    0.99407   0.99679    0.330
 4193.00    0.98380   0.99382    0.332
 4194.00    0.97519   0.98961    0.335
 4195.00    0.99777   0.98448    0.338
 4196.00    1.02750   0.97841    0.341
 4197.00    1.01172   0.97294    0.339
 4198.00    0.98758   0.96946    0.336
 4199.00    0.98024   0.96674    0.337
 4200.00    0.97527   0.96561    0.338
 4201.00    0.99015   0.96756    0.335
 4202.00    1.00706   0.97159    0.332
 4203.00    1.00968   0.97728    0.332
 4204.00    1.01138   0.98445    0.331
 4205.00    1.00322   0.99200    0.326
 4206.00    0.99482   0.99934    0.321
 4207.00    1.03108   1.00519    0.328
 4208.00    1.06562   1.00978    0.335
 4209.00    1.04972   1.01357    0.333
 4210.00    1.03472   1.01603    0.332
 4211.00    1.03295   1.01694    0.329
 4212.00    1.03318   1.01681    0.327
 4213.00    1.05247   1.01509    0.328
 4214.00    1.06553   1.01373    0.328
 4215.00    1.03582   1.01343    0.324
 4216.00    1.00572   1.01251    0.321
 4217.00    0.97349   1.01085    0.318
 4218.00    0.94803   1.00736    0.315
 4219.00    0.95149   1.00237    0.314
 4220.00    0.95469   0.99474    0.314
 4221.00    0.95696   0.98542    0.315
 4222.00    0.95158   0.97515    0.317
 4223.00    0.92351   0.96367    0.319
 4224.00    0.90297   0.95218    0.322
 4225.00    0.90138   0.94285    0.325
 4226.00    0.90730   0.93884    0.327
 4227.00    0.92957   0.93801    0.327
 4228.00    0.93928   0.94004    0.324
 4229.00    0.92531   0.94487    0.315
 4230.00    0.90223   0.95061    0.307
 4231.00    0.86417   0.95651    0.301
 4232.00    0.84504   0.96360    0.297
 4233.00    0.85325   0.97088    0.296
 4234.00    0.87497   0.97650    0.297
 4235.00    0.91387   0.98206    0.300
 4236.00    0.92906   0.98678    0.300
 4237.00    0.91773   0.99160    0.297
 4238.00    0.90892   0.99633    0.293
 4239.00    0.90260   1.00215    0.288
 4240.00    0.91422   1.00776    0.289
 4241.00    0.94145   1.01143    0.294
 4242.00    0.96312   1.01550    0.301
 4243.00    0.98051   1.01730    0.310
 4244.00    0.98928   1.01640    0.315
 4245.00    0.99224   1.01331    0.318
 4246.00    0.99876   1.00896    0.318
 4247.00    1.00739   1.00397    0.316
 4248.00    1.03086   0.99713    0.320
 4249.00    1.06198   0.99156    0.327
 4250.00    1.05395   0.98756    0.333
 4251.00    1.02846   0.98320    0.339
 4252.00    1.02042   0.97970    0.337
 4253.00    1.01907   0.97815    0.333
 4254.00    0.99587   0.97887    0.328
 4255.00    0.96555   0.98049    0.322
 4256.00    0.94875   0.98171    0.318
 4257.00    0.93563   0.98427    0.315
 4258.00    0.95311   0.98663    0.318
 4259.00    0.97744   0.98950    0.323
 4260.00    0.99770   0.99455    0.329
 4261.00    1.01724   0.99988    0.335
 4262.00    1.00437   1.00429    0.332
 4263.00    0.98706   1.00671    0.328
 4264.00    1.00037   1.00759    0.327
 4265.00    1.01668   1.00527    0.326
 4266.00    0.98322   1.00048    0.324
 4267.00    0.94672   0.99388    0.322
 4268.00    0.87734   0.98502    0.315
 4269.00    0.80736   0.97410    0.307
 4270.00    0.79366   0.96378    0.306
 4271.00    0.78128   0.95679    0.306
 4272.00    0.80383   0.95106    0.307
 4273.00    0.82800   0.94848    0.309
 4274.00    0.87438   0.95021    0.317
 4275.00    0.91984   0.95437    0.324
 4276.00    0.95701   0.95974    0.324
 4277.00    0.99326   0.96569    0.323
 4278.00    1.02337   0.97099    0.326
 4279.00    1.04470   0.97550    0.327
 4280.00    1.02062   0.97765    0.323
 4281.00    1.00185   0.97804    0.320
 4282.00    1.00526   0.97690   -2.000
 4283.00    1.00491   0.97254   -2.000
 4284.00    0.99153   0.96706   -2.000
 4285.00    0.98261   0.96031   -2.000
 4286.00    0.98667   0.95333   -2.000
 4287.00    0.99922   0.94568   -2.000
 4288.00    1.03286   0.93820   -2.000
 4289.00    1.05732   0.93308   -2.000
 4290.00    1.06217   0.92826   -2.000
 4291.00    1.06775   0.92398   -2.000
 4292.00    1.07468   0.91844   -2.000
 4293.00    1.06832   0.91286   -2.000
 4294.00    1.04040   0.90643   -2.000
 4295.00    1.01706   0.89791   -2.000
 4296.00    1.00022   0.88905   -2.000
 4297.00    0.98418   0.87789   -2.000
 4298.00    0.96915   0.86648    0.338
 4299.00    0.95093   0.85587    0.334
 4300.00    0.92920   0.84547    0.326
 4301.00    0.92854   0.83653    0.324
 4302.00    0.94837   0.82971    0.329
 4303.00    0.94651   0.82435    0.332
 4304.00    0.92602   0.82084    0.332
 4305.00    0.91581   0.81941    0.334
 4306.00    0.91338   0.82047    0.336
 4307.00    0.93322   0.82516    0.337
 4308.00    0.96786   0.83270    0.338
 4309.00    0.98391   0.84367    0.334
 4310.00    0.98915   0.85682    0.329
 4311.00    0.98743   0.87239    0.323
 4312.00    0.98218   0.88959    0.318
 4313.00    1.00960   0.90765    0.319
 4314.00    1.05136   0.92691    0.322
 4315.00    1.06548   0.94367    0.320
 4316.00    1.06917   0.95676    0.316
 4317.00    1.05870   0.96554    0.318
 4318.00    1.04370   0.96995    0.321
 4319.00    1.04746   0.96887    0.323
 4320.00    1.05624   0.96443    0.325
 4321.00    1.05072   0.95594    0.321
 4322.00    1.04207   0.94482    0.316
 4323.00    1.02763   0.93298    0.314
 4324.00    1.01218   0.92204    0.313
 4325.00    1.01496   0.91488    0.317
 4326.00    1.02015   0.90935    0.320
 4327.00    1.03210   0.90569    0.315
 4328.00    1.04468   0.90196    0.309
 4329.00    1.04791   0.89820    0.307
 4330.00    1.05059   0.89391    0.000
 4331.00    1.07002   0.88661    0.000
 4332.00    1.08978   0.87660    0.000
 4333.00    1.10391   0.86276    0.000
 4334.00    1.11640   0.84513    0.000
 4335.00    1.08948   0.82364    0.000
 4336.00    1.06239   0.80135    0.000
 4337.00    1.03294   0.78101    0.000
 4338.00    1.00815   0.76295    0.000
 4339.00    1.02400   0.75079    0.000
 4340.00    1.04015   0.74570    0.000
 4341.00    1.05818   0.74673    0.000
 4342.00    1.07349   0.75314    0.000
 4343.00    1.07509   0.76578    0.000
 4344.00    1.07322   0.78230    0.000
 4345.00    1.05715   0.80070    0.000
 4346.00    1.04240   0.82040    0.000
 4347.00    1.03208   0.83985    0.000
 4348.00    1.03230   0.85711    0.000
 4349.00    1.06257   0.87125    0.000
 4350.00    1.08387   0.88414    0.000
 4351.00    1.08327   0.89688    0.319
 4352.00    1.07409   0.90901    0.322
 4353.00    1.04685   0.92051    0.318
 4354.00    1.03437   0.93256    0.385
 4355.00    1.04890   0.94486    1.011
 4356.00    1.06666   0.95694   -1.000
 4357.00    1.08958   0.96879   -1.000
 4358.00    1.10732   0.98129   -1.000
 4359.00    1.11780   0.99364   -1.000
 4360.00    1.11739   1.00474   -1.000
 4361.00    1.10355   1.01415   -1.000
 4362.00    1.10176   1.02198    1.257
 4363.00    1.11308   1.02791    0.407
 4364.00    1.11555   1.03119    0.307
 4365.00    1.10955   1.03216    0.309
 4366.00    1.10725   1.03134    0.309
 4367.00    1.10810   1.02960    0.308
 4368.00    1.09603   1.02619    0.308
 4369.00    1.07432   1.02204    0.309
 4370.00    1.06622   1.01743    0.310
 4371.00    1.06702   1.01245    0.310
 4372.00    1.07019   1.00724    0.310
 4373.00    1.07472   1.00253    0.309
 4374.00    1.07437   0.99891    0.312
 4375.00    1.07158   0.99564    0.315
 4376.00    1.06299   0.99181    0.315
 4377.00    1.05190   0.98682    0.312
 4378.00    1.05741   0.98054    0.314
 4379.00    1.06906   0.97314    0.319
 4380.00    1.06027   0.96491    0.319
 4381.00    1.04508   0.95572    0.318
 4382.00    1.01082   0.94823    0.316
 4383.00    0.97158   0.94337    0.313
 4384.00    0.99044   0.94138    0.311
 4385.00    1.02171   0.94149    0.309
 4386.00    1.02495   0.94385    0.305
 4387.00    1.02346   0.94894    0.301
 4388.00    1.03572   0.95563    0.302
 4389.00    1.04973   0.96382    0.305
 4390.00    1.05909   0.97276    0.311
 4391.00    1.06804   0.98150    0.318
 4392.00    1.06358   0.98962    0.313
 4393.00    1.05840   0.99646    0.308
 4394.00    1.09174   1.00248    0.313
 4395.00    1.12505   1.00717    0.317
 4396.00    1.09337   1.00949    0.313
 4397.00    1.06468   1.01018    0.308
 4398.00    1.10178   1.00902    0.309
 4399.00    1.13408   1.00676    0.311
 4400.00    1.10700   1.00392    0.314
 4401.00    1.08031   0.99997    0.318
 4402.00    1.05686   0.99549    0.316
 4403.00    1.04165   0.99204    0.315
 4404.00    1.07812   0.99103    0.318
 4405.00    1.10710   0.99125    0.321
 4406.00    1.09924   0.99289    0.319
 4407.00    1.09096   0.99661    0.315
 4408.00    1.08105   1.00205    0.307
 4409.00    1.07104   1.00801    0.302
 4410.00    1.06073   1.01358    0.308
 4411.00    1.05376   1.01834    0.312
 4412.00    1.05613   1.02207    0.310
 4413.00    1.06058   1.02496    0.308
 4414.00    1.06999   1.02793    0.306
 4415.00    1.08456   1.03049    0.305
 4416.00    1.10982   1.03274    0.308
 4417.00    1.12095   1.03547    0.309
 4418.00    1.10667   1.03756    0.309
 4419.00    1.10155   1.03943    0.309
 4420.00    1.11087   1.04090    0.310
 4421.00    1.11060   1.04207    0.310
 4422.00    1.09708   1.04315    0.307
 4423.00    1.09691   1.04356    0.306
 4424.00    1.11297   1.04365    0.307
 4425.00    1.12113   1.04296    0.307
 4426.00    1.12081   1.04180    0.308
 4427.00    1.11895   1.04057    0.309
 4428.00    1.11563   1.03833    0.309
 4429.00    1.11310   1.03636    0.310
 4430.00    1.11123   1.03475    0.312
 4431.00    1.10088   1.03304    0.313
 4432.00    1.08432   1.03177    0.313
 4433.00    1.07611   1.03118    0.312
 4434.00    1.07326   1.03176    0.312
 4435.00    1.09388   1.03368    0.313
 4436.00    1.12773   1.03574    0.315
 4437.00    1.11426   1.03814    0.313
 4438.00    1.07757   1.04017    0.307
 4439.00    1.09161   1.04233    0.308
 4440.00    1.12718   1.04422    0.312
 4441.00    1.13493   1.04624    0.314
 4442.00    1.13258   1.04863    0.315
 4443.00    1.11622   1.05109    0.313
 4444.00    1.09556   1.05372    0.310
 4445.00    1.10178   1.05534    0.312
 4446.00    1.11488   1.05639    0.316
 4447.00    1.11588   1.05665    0.315
 4448.00    1.11436   1.05512    0.313
 4449.00    1.10998   1.05222    0.312
 4450.00    1.10514   1.04770    0.311
 4451.00    1.09897   1.04135    0.306
 4452.00    1.09263   1.03403    0.300
 4453.00    1.07229   1.02569    0.301
 4454.00    1.05076   1.01782    0.303
 4455.00    1.05293   1.01038    0.302
 4456.00    1.05627   1.00426    0.302
 4457.00    1.04906   0.99933    0.300
 4458.00    1.04157   0.99637    0.299
 4459.00    1.02779   0.99580    0.297
 4460.00    1.01556   0.99646    0.294
 4461.00    1.03463   0.99947    0.000
 4462.00    1.05277   1.00330    0.000
 4463.00    1.05981   1.00809    0.000
 4464.00    1.06608   1.01358    0.000
 4465.00    1.06610   1.01921    0.000
 4466.00    1.07077   1.02548    0.000
 4467.00    1.10370   1.03165    0.000
 4468.00    1.12490   1.03855    0.000
 4469.00    1.08980   1.04560    0.000
 4470.00    1.06751   1.05290    0.000
 4471.00    1.09531   1.05988    0.000
 4472.00    1.12011   1.06627    0.000
 4473.00    1.13515   1.07183    0.000
 4474.00    1.14342   1.07598    0.000
 4475.00    1.13306   1.07875    0.000
 4476.00    1.13089   1.07954    0.000
 4477.00    1.14801   1.07877    0.000
 4478.00    1.14838   1.07682    0.000
 4479.00    1.11463   1.07474    0.000
 4480.00    1.09462   1.07279    0.000
 4481.00    1.09897   1.07158    0.000
 4482.00    1.10059   1.07096    0.291
 4483.00    1.09798   1.07082    0.292
 4484.00    1.10711   1.07105    0.294
 4485.00    1.13224   1.07126    0.297
 4486.00    1.14019   1.07129    0.299
 4487.00    1.12756   1.07115    0.300
 4488.00    1.11454   1.07067    0.300
 4489.00    1.10111   1.07017    0.298
 4490.00    1.09313   1.06910    0.297
 4491.00    1.09025   1.06851    0.297
 4492.00    1.09511   1.06801    0.297
 4493.00    1.10635   1.06867    0.298
 4494.00    1.10273   1.07052    0.297
 4495.00    1.08836   1.07349    0.294
 4496.00    1.09738   1.07790    0.295
 4497.00    1.12127   1.08291    0.298
 4498.00    1.13097   1.08930    0.297
 4499.00    1.13278   1.09633    0.295
 4500.00    1.12716   1.10382    0.294
 4501.00    1.11794   1.11137    0.293
 4502.00    1.11088   1.11818    0.292
 4503.00    1.10472   1.12407    0.291
 4504.00    1.12402   1.12873    0.292
 4505.00    1.15242   1.13217    0.293
 4506.00    1.14030   1.13418    0.291
 4507.00    1.11597   1.13468    0.289
 4508.00    1.10939   1.13362    0.288
 4509.00    1.10725   1.13129    0.289
 4510.00    1.11453   1.12782    0.287
 4511.00    1.12374   1.12368    0.285
 4512.00    1.11314   1.11937    0.289
 4513.00    1.09938   1.11480    0.293
 4514.00    1.09598   1.11008    0.289
 4515.00    1.09381   1.10590    0.284
 4516.00    1.12051   1.10146    0.289
 4517.00    1.14954   1.09758    0.296
 4518.00    1.14502   1.09293    0.296
 4519.00    1.13897   1.08791    0.297
 4520.00    1.12414   1.08232    0.294
 4521.00    1.10915   1.07538    0.290
 4522.00    1.09076   1.06794    0.287
 4523.00    1.07248   1.05926    0.284
 4524.00    1.05593   1.05043    0.285
 4525.00    1.04021   1.04124    0.286
 4526.00    1.03363   1.03310    0.288
 4527.00    1.02916   1.02547    0.290
 4528.00    1.04111   1.02003    0.287
 4529.00    1.05058   1.01579    0.286
 4530.00    1.04537   1.01376    0.288
 4531.00    1.04175   1.01382    0.290
 4532.00    1.04555   1.01597    0.291
 4533.00    1.05390   1.02082    0.291
 4534.00    1.07959   1.02650    0.291
 4535.00    1.09889   1.03354    0.291
 4536.00    1.09783   1.04043    0.290
 4537.00    1.09604   1.04746    0.288
 4538.00    1.09225   1.05383    0.286
 4539.00    1.08711   1.05932    0.285
 4540.00    1.07885   1.06321    0.286
 4541.00    1.07591   1.06535    0.286
 4542.00    1.08363   1.06630    0.285
 4543.00    1.08038   1.06546    0.284
 4544.00    1.05798   1.06376    0.284
 4545.00    1.05730   1.06058    0.284
 4546.00    1.08980   1.05738    0.284
 4547.00    1.10468   1.05437    0.285
 4548.00    1.09592   1.05124    0.286
 4549.00    1.08482   1.04905    0.287
 4550.00    1.07096   1.04740    0.000
 4551.00    1.07268   1.04727    0.000
 4552.00    1.09063   1.04837    0.000
 4553.00    1.09973   1.05129    0.000
 4554.00    1.10069   1.05503    0.000
 4555.00    1.10575   1.05986    0.000
 4556.00    1.11414   1.06515    0.000
 4557.00    1.11708   1.07063    0.000
 4558.00    1.11613   1.07599    0.000
 4559.00    1.10882   1.08032    0.000
 4560.00    1.09752   1.08394    0.000
 4561.00    1.09961   1.08673    0.000
 4562.00    1.10901   1.08890    0.000
 4563.00    1.11610   1.09074    0.000
 4564.00    1.12209   1.09193    0.000
 4565.00    1.11615   1.09282    0.000
 4566.00    1.10532   1.09359    0.000
 4567.00    1.11568   1.09389    0.000
 4568.00    1.13347   1.09425    0.000
 4569.00    1.13215   1.09508    0.000
 4570.00    1.12518   1.09530    0.000
 4571.00    1.11484   1.09505    0.000
 4572.00    1.10367   1.09433    0.000
 4573.00    1.10064   1.09297    0.000
 4574.00    1.09921   1.09092    0.000
 4575.00    1.08870   1.08786    0.000
 4576.00    1.07678   1.08422    0.000
 4577.00    1.06380   1.08007    0.000
 4578.00    1.05070   1.07591    0.000
 4579.00    1.04828   1.07164    0.000
 4580.00    1.04669   1.06768    0.000
 4581.00    1.05750   1.06468    0.000
 4582.00    1.06883   1.06234    0.000
 4583.00    1.06776   1.06148    0.000
 4584.00    1.06733   1.06145    0.000
 4585.00    1.09867   1.06241    0.000
 4586.00    1.12722   1.06366    0.000
 4587.00    1.10679   1.06515    0.000
 4588.00    1.08679   1.06649    0.000
 4589.00    1.07128   1.06759    0.000
 4590.00    1.05828   1.06831    0.000
 4591.00    1.06421   1.06835    0.000
 4592.00    1.07220   1.06813    0.000
 4593.00    1.09200   1.06765    0.000
 4594.00    1.10197   1.06696    0.000
 4595.00    1.06697   1.06659    0.000
 4596.00    1.04524   1.06619    0.000
 4597.00    1.07316   1.06627    0.000
 4598.00    1.09327   1.06703    0.000
 4599.00    1.08899   1.06811    0.000
 4600.00    1.08609   1.07014    0.000
 4601.00    1.08688   1.07240    0.000
 4602.00    1.08901   1.07585    0.000
 4603.00    1.09419   1.07959    0.000
 4604.00    1.10239   1.08425    0.000
 4605.00    1.11653   1.08897    0.000
 4606.00    1.12347   1.09386    0.000
 4607.00    1.11800   1.09841    0.000
 4608.00    1.10759   1.10264    0.000
 4609.00    1.08975   1.10631    0.000
 4610.00    1.08029   1.10902    0.000
 4611.00    1.08191   1.11139    0.000
 4612.00    1.08849   1.11245    0.000
 4613.00    1.10083   1.11336    0.000
 4614.00    1.10701   1.11345    0.000
 4615.00    1.10685   1.11351    0.000
 4616.00    1.10556   1.11324    0.000
 4617.00    1.10323   1.11326    0.000
 4618.00    1.10780   1.11308    0.000
 4619.00    1.11789   1.11298    0.000
 4620.00    1.11917   1.11290    0.000
 4621.00    1.11427   1.11269    0.000
 4622.00    1.12287   1.11235    0.000
 4623.00    1.13979   1.11176    0.000
 4624.00    1.13370   1.11094    0.000
 4625.00    1.11521   1.10977    0.000
 4626.00    1.11582   1.10830    0.000
 4627.00    1.12537   1.10649    0.000
 4628.00    1.11017   1.10431    0.000
 4629.00    1.08498   1.10166    0.000
 4630.00    1.07241   1.09880    0.000
 4631.00    1.06417   1.09552    0.000
 4632.00    1.06084   1.09202    0.000
 4633.00    1.05893   1.08828    0.000
 4634.00    1.06107   1.08434    0.000
 4635.00    1.06418   1.08063    0.000
 4636.00    1.06196   1.07678    0.000
 4637.00    1.05870   1.07332    0.000
 4638.00    1.06315   1.06977    0.000
 4639.00    1.06876   1.06656    0.000
 4640.00    1.05803   1.06312    0.000
 4641.00    1.04551   1.06002    0.000
 4642.00    1.04950   1.05682    0.000
 4643.00    1.05469   1.05403    0.000
 4644.00    1.05630   1.05150    0.000
 4645.00    1.05777   1.04959    0.000
 4646.00    1.05921   1.04827    0.000
 4647.00    1.06054   1.04798    0.000
 4648.00    1.05776   1.04833    0.000
 4649.00    1.05558   1.04983    0.000
 4650.00    1.06313   1.05196    0.000
 4651.00    1.06926   1.05498    0.000
 4652.00    1.06087   1.05855    0.000
 4653.00    1.05461   1.06243    0.000
 4654.00    1.06389   1.06645    0.000
 4655.00    1.07096   1.06999    0.000
 4656.00    1.06558   1.07318    0.000
 4657.00    1.06083   1.07518    0.000
 4658.00    1.05884   1.07627    0.000
 4659.00    1.05629   1.07566    0.000
 4660.00    1.05171   1.07349    0.000
 4661.00    1.04970   1.06943    0.000
 4662.00    1.05560   1.06424    0.000
 4663.00    1.05352   1.05820    0.000
 4664.00    1.03062   1.05187    0.000
 4665.00    1.01477   1.04596    0.000
 4666.00    1.01469   1.04094    0.000
 4667.00    1.01612   1.03744    0.000
 4668.00    1.02051   1.03571    0.000
 4669.00    1.03473   1.03580    0.000
 4670.00    1.06562   1.03757    0.000
 4671.00    1.08151   1.04043    0.000
 4672.00    1.07514   1.04395    0.000
 4673.00    1.08368   1.04756    0.000
 4674.00    1.11165   1.05091    0.000
 4675.00    1.10926   1.05363    0.000
 4676.00    1.07200   1.05553    0.000
 4677.00    1.04743   1.05677    0.000
 4678.00    1.03573   1.05726    0.000
 4679.00    1.02493   1.05737    0.000
 4680.00    1.01494   1.05722    0.000
 4681.00    1.02159   1.05711    0.000
 4682.00    1.04134   1.05709    0.000
 4683.00    1.05559   1.05729    0.000
 4684.00    1.06603   1.05772    0.000
 4685.00    1.05991   1.05823    0.000
 4686.00    1.04374   1.05895    0.000
 4687.00    1.01988   1.05963    0.000
 4688.00    0.99195   1.06035    0.000
 4689.00    0.99909   1.06091    0.000
 4690.00    1.02238   1.06131    0.000
 4691.00    1.02530   1.06137    0.000
 4692.00    1.02015   1.06104    0.000
 4693.00    1.02303   1.06017    0.000
 4694.00    1.02861   1.05875    0.000
 4695.00    1.03130   1.05653    0.000
 4696.00    1.03317   1.05380    0.000
 4697.00    1.04166   1.05033    0.000
 4698.00    1.05170   1.04673    0.000
 4699.00    1.03579   1.04272    0.000
 4700.00    1.01499   1.03911    0.000
 4701.00    1.02799   1.03561    0.000
 4702.00    1.04592   1.03300    0.000
 4703.00    1.03708   1.03104    0.000
 4704.00    1.02542   1.03007    0.000
 4705.00    1.03392   1.02997    0.000
 4706.00    1.04381   1.03070    0.000
 4707.00    1.02286   1.03237    0.000
 4708.00    1.00086   1.03473    0.000
 4709.00    1.00317   1.03792    0.000
 4710.00    1.00607   1.04159    0.000
 4711.00    1.02716   1.04592    0.000
 4712.00    1.04720   1.05066    0.000
 4713.00    1.05100   1.05579    0.000
 4714.00    1.05415   1.06114    0.000
 4715.00    1.05084   1.06653    0.000
 4716.00    1.04763   1.07184    0.000
 4717.00    1.04520   1.07663    0.000
 4718.00    1.04539   1.08081    0.000
 4719.00    1.05981   1.08381    0.000
 4720.00    1.06560   1.08570    0.000
 4721.00    1.03379   1.08601    0.000
 4722.00    1.01429   1.08501    0.000
 4723.00    1.03893   1.08240    0.000
 4724.00    1.06454   1.07874    0.000
 4725.00    1.09303   1.07405    0.000
 4726.00    1.10532   1.06899    0.000
 4727.00    1.07613   1.06386    0.000
 4728.00    1.05094   1.05920    0.000
 4729.00    1.03458   1.05536    0.000
 4730.00    1.02839   1.05258    0.000
 4731.00    1.04165   1.05105    0.000
 4732.00    1.05073   1.05069    0.000
 4733.00    1.05284   1.05146    0.000
 4734.00    1.04634   1.05314    0.000
 4735.00    1.02724   1.05547    0.000
 4736.00    1.02722   1.05832    0.000
 4737.00    1.05172   1.06137    0.000
 4738.00    1.06555   1.06459    0.000
 4739.00    1.06731   1.06770    0.000
 4740.00    1.06702   1.07080    0.000
 4741.00    1.06469   1.07364    0.000
 4742.00    1.05779   1.07626    0.000
 4743.00    1.04688   1.07854    0.000
 4744.00    1.05004   1.08035    0.000
 4745.00    1.06414   1.08173    0.000
 4746.00    1.06910   1.08237    0.000
 4747.00    1.06784   1.08250    0.000
 4748.00    1.06315   1.08171    0.000
 4749.00    1.05639   1.08045    0.000
 4750.00    1.05250   1.07826    0.000
 4751.00    1.05009   1.07577    0.000
 4752.00    1.05104   1.07257    0.000
 4753.00    1.05350   1.06927    0.000
 4754.00    1.05602   1.06553    0.000
 4755.00    1.05856   1.06179    0.000
 4756.00    1.05095   1.05782    0.000
 4757.00    1.03997   1.05383    0.000
 4758.00    1.05127   1.04972    0.000
 4759.00    1.06875   1.04562    0.000
 4760.00    1.06271   1.04158    0.000
 4761.00    1.05129   1.03781    0.261
 4762.00    1.02590   1.03450    0.259
 4763.00    0.99795   1.03188    0.256
 4764.00    1.00634   1.03019    0.257
 4765.00    1.01984   1.02957    0.260
 4766.00    1.01038   1.03013    0.259
 4767.00    0.99858   1.03179    0.259
 4768.00    1.02599   1.03449    0.259
 4769.00    1.05592   1.03795    0.259
 4770.00    1.05273   1.04193    0.259
 4771.00    1.04855   1.04614    0.258
 4772.00    1.05360   1.05019    0.259
 4773.00    1.05834   1.05395    0.259
 4774.00    1.05436   1.05695    0.258
 4775.00    1.05021   1.05927    0.258
 4776.00    1.04359   1.06048    0.256
 4777.00    1.03591   1.06088    0.254
 4778.00    1.01836   1.06015    0.252
 4779.00    0.99757   1.05875    0.250
 4780.00    0.95456   1.05655    0.247
 4781.00    0.91604   1.05411    0.244
 4782.00    0.90134   1.05143    0.241
 4783.00    0.88676   1.04908    0.238
 4784.00    0.87269   1.04711    0.237
 4785.00    0.86572   1.04595    0.236
 4786.00    0.88369   1.04563    0.238
 4787.00    0.90604   1.04634    0.241
 4788.00    0.94136   1.04798    0.246
 4789.00    0.96949   1.05047    0.249
 4790.00    0.97949   1.05357    0.249
 4791.00    0.99074   1.05701    0.249
 4792.00    1.00467   1.06046    0.249
 4793.00    1.01799   1.06362    0.249
 4794.00    1.03014   1.06625    0.252
 4795.00    1.03229   1.06813    0.252
 4796.00    1.01801   1.06926    0.251
 4797.00    1.00730   1.06954    0.251
 4798.00    1.00171   1.06921    0.251
 4799.00    1.01062   1.06819    0.252
 4800.00    1.03790   1.06693    0.254
 4801.00    1.04873   1.06521    0.255
 4802.00    1.04120   1.06359    0.254
 4803.00    1.03420   1.06175    0.254
 4804.00    1.02772   1.06026    0.254
 4805.00    1.01995   1.05879    0.253
 4806.00    1.01105   1.05786    0.250
 4807.00    1.00545   1.05720    0.250
 4808.00    1.00235   1.05717    0.253
 4809.00    1.00881   1.05757    0.253
 4810.00    1.02169   1.05852    0.253
 4811.00    1.02074   1.05987    0.252
 4812.00    1.01165   1.06148    0.251
 4813.00    1.00930   1.06320    0.251
 4814.00    1.01043   1.06473    0.252
 4815.00    1.01634   1.06592    0.253
 4816.00    1.02439   1.06648    0.254
 4817.00    1.02436   1.06634    0.255
 4818.00    1.02124   1.06533    0.258
 4819.00    1.02538   1.06351    0.258
 4820.00    1.03188   1.06094    0.258
 4821.00    1.02682   1.05777    0.256
 4822.00    1.01863   1.05424    0.253
 4823.00    1.01489   1.05053    0.254
 4824.00    1.01214   1.04689    0.256
 4825.00    1.01857   1.04345    0.259
 4826.00    1.02664   1.04032    0.263
 4827.00    1.02851   1.03755    0.264
 4828.00    1.02954   1.03511    0.264
 4829.00    1.03453   1.03298    0.262
 4830.00    1.03991   1.03103    0.260
 4831.00    1.03420   1.02923    0.261
 4832.00    1.02783   1.02738    0.262
 4833.00    1.03286   1.02553    0.262
 4834.00    1.03807   1.02343    0.261
 4835.00    1.02211   1.02119    0.260
 4836.00    1.00706   1.01863    0.260
 4837.00    1.01628   1.01588    0.260
 4838.00    1.02392   1.01288    0.261
 4839.00    1.01013   1.00970    0.260
 4840.00    0.99677   1.00637    0.258
 4841.00    0.98730   1.00286    0.256
 4842.00    0.98083   0.99917    0.255
 4843.00    0.99420   0.99516    0.256
 4844.00    1.00471   0.99073    0.258
 4845.00    1.00045   0.98563    0.260
 4846.00    0.99965   0.97969    0.262
 4847.00    1.01328   0.97264    0.261
 4848.00    1.02019   0.96428    0.000
 4849.00    1.00399   0.95440    0.000
 4850.00    0.99414   0.94290    0.000
 4851.00    1.00273   0.92973    0.000
 4852.00    1.00570   0.91496    0.000
 4853.00    0.99475   0.89879    0.000
 4854.00    0.97921   0.88165    0.000
 4855.00    0.95384   0.86407    0.000
 4856.00    0.93616   0.84678    0.000
 4857.00    0.93272   0.83061    0.000
 4858.00    0.93484   0.81642    0.000
 4859.00    0.94596   0.80507    0.000
 4860.00    0.94524   0.79713    0.000
 4861.00    0.92768   0.79313    0.000
 4862.00    0.92818   0.79299    0.000
 4863.00    0.95121   0.79676    0.000
 4864.00    0.96067   0.80357    0.000
 4865.00    0.95519   0.81314    0.000
 4866.00    0.95936   0.82424    0.000
 4867.00    0.97290   0.83661    0.000
 4868.00    0.97456   0.84916    0.000
 4869.00    0.96605   0.86187    0.000
 4870.00    0.96378   0.87410    0.000
 4871.00    0.96621   0.88611    0.000
 4872.00    0.97113   0.89754    0.000
 4873.00    0.97769   0.90871    0.000
 4874.00    0.96946   0.91924    0.000
 4875.00    0.95265   0.92938    0.261
 4876.00    0.96002   0.93858    0.259
 4877.00    0.97963   0.94700    0.259
 4878.00    0.98056   0.95406    0.257
 4879.00    0.97330   0.95993    0.256
 4880.00    0.99308   0.96423    0.256
 4881.00    1.02303   0.96726    0.257
 4882.00    1.01618   0.96900    0.258
 4883.00    0.99761   0.96986    0.258
 4884.00    1.00356   0.97021    0.261
 4885.00    1.01605   0.97045    0.265
 4886.00    0.99755   0.97120    0.264
 4887.00    0.97228   0.97268    0.262
 4888.00    0.96278   0.97553    0.259
 4889.00    0.95600   0.97956    0.257
 4890.00    0.96462   0.98525    0.256
 4891.00    0.97528   0.99197    0.255
 4892.00    0.97438   0.99987    0.255
 4893.00    0.97240   1.00804    0.255
 4894.00    0.99151   1.01633    0.254
 4895.00    1.01182   1.02397    0.254
 4896.00    1.02106   1.03070    0.254
 4897.00    1.02987   1.03613    0.254
 4898.00    1.01828   1.04012    0.253
 4899.00    1.00742   1.04277    0.253
 4900.00    1.01403   1.04410    0.252
 4901.00    1.01933   1.04442    0.251
 4902.00    1.00748   1.04389    0.250
 4903.00    0.99630   1.04277    0.249
 4904.00    0.99084   1.04122    0.251
 4905.00    0.98570   1.03936    0.253
 4906.00    0.98262   1.03730    0.252
 4907.00    0.97909   1.03502    0.251
 4908.00    0.97331   1.03257    0.250
 4909.00    0.97187   1.02986    0.250
 4910.00    0.98816   1.02684    0.251
 4911.00    1.00142   1.02345    0.252
 4912.00    1.00447   1.01952    0.254
 4913.00    1.00502   1.01512    0.255
 4914.00    0.99846   1.01010    0.253
 4915.00    0.99411   1.00478    0.251
 4916.00    0.99513   0.99924    0.249
 4917.00    0.99093   0.99404    0.248
 4918.00    0.97577   0.98951    0.247
 4919.00    0.96304   0.98622    0.247
 4920.00    0.95474   0.98458    0.247
 4921.00    0.95184   0.98484    0.247
 4922.00    0.95757   0.98712    0.244
 4923.00    0.95687   0.99118    0.243
 4924.00    0.94720   0.99675    0.244
 4925.00    0.95512   1.00315    0.246
 4926.00    0.98470   1.00983    0.247
 4927.00    1.00177   1.01606    0.248
 4928.00    1.00526   1.02134    0.248
 4929.00    1.00018   1.02523    0.247
 4930.00    0.98690   1.02754    0.245
 4931.00    0.98345   1.02831    0.245
 4932.00    0.98831   1.02773    0.246
 4933.00    0.98870   1.02627    0.246
 4934.00    0.98576   1.02435    0.245
 4935.00    0.97390   1.02258    0.243
 4936.00    0.95621   1.02133    0.241
 4937.00    0.95964   1.02113    0.242
 4938.00    0.97515   1.02206    0.245
 4939.00    0.97394   1.02435    0.246
 4940.00    0.96439   1.02769    0.000
 4941.00    0.97996   1.03209    0.000
 4942.00    1.00633   1.03692    0.000
 4943.00    1.01492   1.04207    0.000
 4944.00    1.01694   1.04679    0.000
 4945.00    1.01718   1.05103    0.000
 4946.00    1.01688   1.05408    0.000
 4947.00    1.01792   1.05601    0.000
 4948.00    1.01931   1.05632    0.000
 4949.00    1.01025   1.05523    0.000
 4950.00    0.99897   1.05255    0.000
 4951.00    1.01103   1.04861    0.000
 4952.00    1.02702   1.04361    0.000
 4953.00    0.99361   1.03794    0.000
 4954.00    0.95392   1.03214    0.000
 4955.00    0.95065   1.02647    0.000
 4956.00    0.95062   1.02159    0.000
 4957.00    0.96891   1.01755    0.000
 4958.00    0.98818   1.01470    0.000
 4959.00    0.96517   1.01294    0.000
 4960.00    0.94176   1.01211    0.000
 4961.00    0.94970   1.01217    0.000
 4962.00    0.95826   1.01258    0.000
 4963.00    0.98033   1.01353    0.000
 4964.00    1.00046   1.01435    0.000
 4965.00    0.99678   1.01549    0.000
 4966.00    0.99398   1.01639    0.000
 4967.00    0.99859   1.01753    0.000
 4968.00    1.00059   1.01846    0.000
 4969.00    0.98619   1.01947    0.000
 4970.00    0.97433   1.02015    0.000
 4971.00    0.97495   1.02047    0.000
 4972.00    0.97882   1.02011    0.000
 4973.00    0.99565   1.01879    0.000
 4974.00    1.00130   1.01645    0.000
 4975.00    0.97000   1.01285    0.000
 4976.00    0.95075   1.00820    0.000
 4977.00    0.96516   1.00256    0.000
 4978.00    0.96945   0.99640    0.000
 4979.00    0.94953   0.99008    0.000
 4980.00    0.93240   0.98412    0.000
 4981.00    0.92102   0.97904    0.000
 4982.00    0.91473   0.97513    0.000
 4983.00    0.91757   0.97275    0.000
 4984.00    0.92053   0.97188    0.000
 4985.00    0.92369   0.97253    0.000
 4986.00    0.93279   0.97438    0.000
 4987.00    0.95008   0.97713    0.000
 4988.00    0.95859   0.98037    0.000
 4989.00    0.95644   0.98363    0.000
 4990.00    0.95341   0.98664    0.000
 4991.00    0.94943   0.98893    0.000
 4992.00    0.94378   0.99044    0.000
 4993.00    0.93655   0.99084    0.000
 4994.00    0.93223   0.99020    0.000
 4995.00    0.93034   0.98842    0.000
 4996.00    0.93880   0.98565    0.000
 4997.00    0.95483   0.98199    0.000
 4998.00    0.95843   0.97765    0.000
 4999.00    0.95402   0.97285    0.000
 5000.00    0.93740   0.96786    0.000
 5001.00    0.91391   0.96291    0.000
 5002.00    0.92035   0.95824    0.000
 5003.00    0.94145   0.95400    0.000
 5004.00    0.94951   0.95026    0.000
 5005.00    0.95207   0.94706    0.000
 5006.00    0.96715   0.94429    0.000
 5007.00    0.98678   0.94190    0.000
 5008.00    0.99597   0.93965    0.000
 5009.00    1.00196   0.93762    0.000
 5010.00    0.99099   0.93551    0.000
 5011.00    0.97569   0.93365    0.000
 5012.00    0.95519   0.93173    0.000
 5013.00    0.93362   0.93030    0.000
 5014.00    0.91321   0.92908    0.000
 5015.00    0.89300   0.92869    0.000
 5016.00    0.89404   0.92878    0.000
 5017.00    0.89770   0.92993    0.000
 5018.00    0.90909   0.93169    0.000
 5019.00    0.92114   0.93444    0.000
 5020.00    0.91595   0.93768    0.000
 5021.00    0.90993   0.94165    0.000
 5022.00    0.91018   0.94594    0.000
 5023.00    0.91080   0.95054    0.000
 5024.00    0.92823   0.95526    0.000
 5025.00    0.94497   0.95983    0.000
 5026.00    0.94765   0.96424    0.000
 5027.00    0.94942   0.96807    0.000
 5028.00    0.94044   0.97136    0.000
 5029.00    0.93394   0.97367    0.241
 5030.00    0.94747   0.97499    0.241
 5031.00    0.95738   0.97510    0.241
 5032.00    0.94537   0.97394    0.241
 5033.00    0.93725   0.97167    0.241
 5034.00    0.94772   0.96827    0.242
 5035.00    0.95199   0.96435    0.243
 5036.00    0.93212   0.95998    0.243
 5037.00    0.91772   0.95599    0.243
 5038.00    0.92107   0.95251    0.244
 5039.00    0.92197   0.95010    0.244
 5040.00    0.91618   0.94895    0.243
 5041.00    0.90897   0.94910    0.242
 5042.00    0.89838   0.95057    0.241
 5043.00    0.89244   0.95294    0.242
 5044.00    0.89594   0.95608    0.245
 5045.00    0.90509   0.95960    0.246
 5046.00    0.92422   0.96322    0.244
 5047.00    0.93102   0.96669    0.242
 5048.00    0.91874   0.96992    0.242
 5049.00    0.91764   0.97307    0.242
 5050.00    0.93175   0.97608    0.244
 5051.00    0.93574   0.97931    0.246
 5052.00    0.92764   0.98239    0.247
 5053.00    0.91892   0.98574    0.247
 5054.00    0.90954   0.98895    0.245
 5055.00    0.91088   0.99216    0.244
 5056.00    0.92222   0.99484    0.244
 5057.00    0.93306   0.99705    0.244
 5058.00    0.94349   0.99833    0.244
 5059.00    0.94474   0.99869    0.244
 5060.00    0.93936   0.99786    0.244
 5061.00    0.94138   0.99603    0.246
 5062.00    0.94811   0.99326    0.248
 5063.00    0.93731   0.98976    0.248
 5064.00    0.91681   0.98588    0.248
 5065.00    0.91195   0.98175    0.246
 5066.00    0.91463   0.97778    0.243
 5067.00    0.92569   0.97392    0.244
 5068.00    0.94023   0.97050    0.247
 5069.00    0.93261   0.96727    0.247
 5070.00    0.91711   0.96436    0.246
 5071.00    0.91019   0.96153    0.244
 5072.00    0.90586   0.95883    0.243
 5073.00    0.89856   0.95606    0.243
 5074.00    0.89052   0.95319    0.245
 5075.00    0.89853   0.95027    0.244
 5076.00    0.90978   0.94746    0.243
 5077.00    0.91485   0.94478    0.242
 5078.00    0.91894   0.94269    0.240
 5079.00    0.91282   0.94113    0.239
 5080.00    0.90550   0.94077    0.238
 5081.00    0.88927   0.94111    0.236
 5082.00    0.87233   0.94281    0.233
 5083.00    0.87931   0.94531    0.234
 5084.00    0.88737   0.94884    0.235
 5085.00    0.88109   0.95275    0.232
 5086.00    0.87468   0.95706    0.230
 5087.00    0.87041   0.96140    0.229
 5088.00    0.86737   0.96532    0.228
 5089.00    0.88708   0.96854    0.229
 5090.00    0.90546   0.97075    0.230
 5091.00    0.90894   0.97204    0.231
 5092.00    0.91283   0.97209    0.231
 5093.00    0.91987   0.97115    0.233
 5094.00    0.92523   0.96923    0.233
 5095.00    0.92075   0.96671    0.231
 5096.00    0.91198   0.96372    0.229
 5097.00    0.88323   0.96051    0.227
 5098.00    0.85877   0.95745    0.226
 5099.00    0.85069   0.95455    0.227
 5100.00    0.84727   0.95215    0.228
 5101.00    0.85862   0.94996    0.230
 5102.00    0.86441   0.94850    0.231
 5103.00    0.85517   0.94732    0.228
 5104.00    0.85204   0.94684    0.227
 5105.00    0.86304   0.94660    0.228
 5106.00    0.87099   0.94713    0.230
 5107.00    0.87284   0.94808    0.231
 5108.00    0.87576   0.94950    0.232
 5109.00    0.88055   0.95133    0.232
 5110.00    0.88669   0.95359    0.234
 5111.00    0.89487   0.95619    0.238
 5112.00    0.90525   0.95888    0.241
 5113.00    0.91857   0.96137    0.241
 5114.00    0.92568   0.96338    0.241
 5115.00    0.92545   0.96471    0.240
 5116.00    0.92413   0.96500    0.241
 5117.00    0.92167   0.96411    0.244
 5118.00    0.92106   0.96216    0.244
 5119.00    0.92213   0.95897    0.242
 5120.00    0.91176   0.95492    0.239
 5121.00    0.89213   0.95027    0.236
 5122.00    0.88967   0.94539    0.236
 5123.00    0.89943   0.94060    0.239
 5124.00    0.89148   0.93636    0.239
 5125.00    0.87247   0.93274    0.237
 5126.00    0.85789   0.93014    0.238
 5127.00    0.84574   0.92852    0.240
 5128.00    0.86046   0.92784    0.240
 5129.00    0.88793   0.92808    0.239
 5130.00    0.89565   0.92871    0.241
 5131.00    0.89528   0.92993    0.244
 5132.00    0.90086   0.93089    0.243
 5133.00    0.90853   0.93185    0.242
 5134.00    0.89966   0.93213    0.241
 5135.00    0.88591   0.93217    0.241
 5136.00    0.87365   0.93149    0.239
 5137.00    0.86176   0.93036    0.236
 5138.00    0.86601   0.92883    0.238
 5139.00    0.87346   0.92692    0.242
 5140.00    0.86904   0.92503    0.241
 5141.00    0.86279   0.92290    0.240
 5142.00    0.85850   0.92118    0.239
 5143.00    0.85442   0.91940    0.237
 5144.00    0.85881   0.91821    0.237
 5145.00    0.86384   0.91736    0.236
 5146.00    0.85870   0.91678    0.236
 5147.00    0.85315   0.91674    0.235
 5148.00    0.85393   0.91716    0.236
 5149.00    0.85488   0.91799    0.237
 5150.00    0.86081   0.91932    0.233
 5151.00    0.86656   0.92115    0.230
 5152.00    0.86905   0.92309    0.235
 5153.00    0.87322   0.92536    0.239
 5154.00    0.89515   0.92722    0.238
 5155.00    0.91300   0.92862    0.237
 5156.00    0.90017   0.92897    0.237
 5157.00    0.89013   0.92801    0.236
 5158.00    0.89610   0.92514    0.234
 5159.00    0.90045   0.92035    0.233
 5160.00    0.89748   0.91322    0.231
 5161.00    0.89100   0.90401    0.230
 5162.00    0.87140   0.89276    0.230
 5163.00    0.85303   0.88004    0.229
 5164.00    0.83846   0.86649    0.227
 5165.00    0.82139   0.85292    0.227
 5166.00    0.79767   0.84007    0.230
 5167.00    0.77560   0.82872    0.232
 5168.00    0.75731   0.81980    0.228
 5169.00    0.74710   0.81313    0.226
 5170.00    0.75282   0.80949    0.228
 5171.00    0.76586   0.80835    0.230
 5172.00    0.79148   0.80999    0.230
 5173.00    0.80525   0.81368    0.231
 5174.00    0.80122   0.81876    0.232
 5175.00    0.80484   0.82411    0.233
 5176.00    0.81855   0.82912    0.234
 5177.00    0.82808   0.83371    0.233
 5178.00    0.83277   0.83795    0.231
 5179.00    0.82516   0.84115    0.230
 5180.00    0.80494   0.84350    0.228
 5181.00    0.78442   0.84511    0.225
 5182.00    0.76363   0.84683    0.222
 5183.00    0.75935   0.84878    0.222
 5184.00    0.76826   0.85134    0.226
 5185.00    0.79169   0.85487    0.228
 5186.00    0.82531   0.85898    0.230
 5187.00    0.84650   0.86401    0.232
 5188.00    0.86005   0.86947    0.235
 5189.00    0.86593   0.87604    0.235
 5190.00    0.86767   0.88220    0.000
 5191.00    0.86795   0.88792    0.000
 5192.00    0.86754   0.89302    0.000
 5193.00    0.87559   0.89737    0.000
 5194.00    0.88705   0.90145    0.000
 5195.00    0.87808   0.90434    0.000
 5196.00    0.86211   0.90651    0.000
 5197.00    0.86788   0.90799    0.000
 5198.00    0.87993   0.90878    0.000
 5199.00    0.88534   0.90820    0.000
 5200.00    0.88916   0.90665    0.000
 5201.00    0.89633   0.90448    0.000
 5202.00    0.90413   0.90141    0.000
 5203.00    0.87712   0.89837    0.000
 5204.00    0.84490   0.89517    0.000
 5205.00    0.83157   0.89285    0.000
 5206.00    0.82031   0.89115    0.000
 5207.00    0.82460   0.89133    0.000
 5208.00    0.83000   0.89247    0.000
 5209.00    0.83904   0.89544    0.000
 5210.00    0.84821   0.89960    0.000
 5211.00    0.86732   0.90537    0.238
 5212.00    0.88604   0.91132    0.239
 5213.00    0.88926   0.91748    0.237
 5214.00    0.89214   0.92387    0.234
 5215.00    0.88943   0.92907    0.235
 5216.00    0.88706   0.93365    0.236
 5217.00    0.88815   0.93665    0.237
 5218.00    0.88931   0.93841    0.239
 5219.00    0.89095   0.93853    0.235
 5220.00    0.89221   0.93762    0.233
 5221.00    0.89143   0.93588    0.233
 5222.00    0.89200   0.93345    0.233
 5223.00    0.89866   0.93066    0.231
 5224.00    0.89957   0.92766    0.230
 5225.00    0.87943   0.92509    0.229
 5226.00    0.86225   0.92332    0.228
 5227.00    0.85410   0.92239    0.227
 5228.00    0.84657   0.92274    0.227
 5229.00    0.84067   0.92425    0.227
 5230.00    0.83943   0.92710    0.228
 5231.00    0.84862   0.93098    0.228
 5232.00    0.86470   0.93614    0.228
 5233.00    0.89415   0.94191    0.226
 5234.00    0.91117   0.94731    0.225
 5235.00    0.90718   0.95261    0.225
 5236.00    0.90699   0.95773    0.225
 5237.00    0.91243   0.96185    0.227
 5238.00    0.91711   0.96594    0.228
 5239.00    0.92082   0.96902    0.229
 5240.00    0.92094   0.97122    0.228
 5241.00    0.91694   0.97224    0.225
 5242.00    0.91250   0.97200    0.225
 5243.00    0.90764   0.97085    0.227
 5244.00    0.89974   0.96882    0.229
 5245.00    0.88915   0.96633    0.231
 5246.00    0.88808   0.96348    0.232
 5247.00    0.89449   0.96063    0.232
 5248.00    0.88889   0.95804    0.232
 5249.00    0.87499   0.95591    0.231
 5250.00    0.87561   0.95394    0.232
 5251.00    0.88503   0.95239    0.235
 5252.00    0.88720   0.95144    0.236
 5253.00    0.88554   0.95066    0.235
 5254.00    0.89206   0.94946    0.236
 5255.00    0.90232   0.94742    0.237
 5256.00    0.90658   0.94514    0.237
 5257.00    0.90845   0.94092    0.236
 5258.00    0.89530   0.93582    0.235
 5259.00    0.87709   0.92887    0.234
 5260.00    0.86609   0.92089    0.234
 5261.00    0.85714   0.91213    0.233
 5262.00    0.84233   0.90262    0.234
 5263.00    0.82614   0.89334    0.235
 5264.00    0.82212   0.88422    0.236
 5265.00    0.82037   0.87678    0.238
 5266.00    0.81614   0.87069    0.240
 5267.00    0.81155   0.86723    0.242
 5268.00    0.81800   0.86607    0.242
 5269.00    0.82561   0.86761    0.242
 5270.00    0.82782   0.87131    0.239
 5271.00    0.82966   0.87685    0.236
 5272.00    0.84393   0.88415    0.238
 5273.00    0.85861   0.89198    0.240
 5274.00    0.86899   0.90083    0.241
 5275.00    0.87938   0.91023    0.242
 5276.00    0.89039   0.91977    0.237
 5277.00    0.90105   0.92815    0.234
 5278.00    0.90647   0.93600    0.236
 5279.00    0.91010   0.94340    0.238
 5280.00    0.89644   0.94995    0.234
 5281.00    0.88548   0.95655    0.230
 5282.00    0.89363   0.96220    0.229
 5283.00    0.90048   0.96747    0.229
 5284.00    0.90032   0.97205    0.229
 5285.00    0.89971   0.97663    0.228
 5286.00    0.89713   0.98043    0.226
 5287.00    0.89879   0.98395    0.224
 5288.00    0.91558   0.98620    0.227
 5289.00    0.93239   0.98766    0.228
 5290.00    0.94925   0.98804    0.228
 5291.00    0.95972   0.98690    0.228
 5292.00    0.95387   0.98473    0.229
 5293.00    0.94380   0.98168    0.229
 5294.00    0.92443   0.97853    0.229
 5295.00    0.90945   0.97520    0.228
 5296.00    0.90287   0.97224    0.228
 5297.00    0.89919   0.96994    0.227
 5298.00    0.90036   0.96854    0.224
 5299.00    0.90614   0.96841    0.224
 5300.00    0.91865   0.96943    0.227
 5301.00    0.93043   0.97179    0.229
 5302.00    0.94126   0.97526    0.230
 5303.00    0.94568   0.97940    0.229
 5304.00    0.94285   0.98399    0.227
 5305.00    0.96000   0.98820    0.228
 5306.00    0.99707   0.99226    0.233
 5307.00    1.09146   0.99557    0.241
 5308.00    1.23627   0.99818    0.250
 5309.00    1.22493   0.99968    0.268
 5310.00    1.09259   1.00020    0.298
 5311.00    0.98971   0.99982    0.309
 5312.00    0.90690   0.99856    0.304
 5313.00    0.87751   0.99651    0.303
 5314.00    0.88003   0.99354    0.306
 5315.00    0.87548   0.98962    0.302
 5316.00    0.86725   0.98528    0.296
 5317.00    0.89078   0.98019    0.268
 5318.00    0.92865   0.97454    0.236
 5319.00    0.93982   0.96797    0.228
 5320.00    0.94063   0.96163    0.227
 5321.00    0.92579   0.95471    0.227
 5322.00    0.90579   0.94834    0.227
 5323.00    0.88961   0.94203    0.226
 5324.00    0.87450   0.93612    0.225
 5325.00    0.85878   0.93146    0.224
 5326.00    0.84293   0.92734    0.223
 5327.00    0.84854   0.92545    0.226
 5328.00    0.85806   0.92433    0.229
 5329.00    0.85799   0.92529    0.226
 5330.00    0.85657   0.92673    0.221
 5331.00    0.87954   0.92978    0.223
 5332.00    0.90498   0.93354    0.226
 5333.00    0.90699   0.93787    0.226
 5334.00    0.90749   0.94245    0.225
 5335.00    0.90481   0.94617    0.223
 5336.00    0.90203   0.94940    0.221
 5337.00    0.90019   0.95179    0.220
 5338.00    0.89849   0.95376    0.220
 5339.00    0.90084   0.95499    0.219
 5340.00    0.90276   0.95611    0.218
 5341.00    0.89842   0.95682    0.218
 5342.00    0.89413   0.95778    0.218
 5343.00    0.89026   0.95896    0.218
 5344.00    0.88823   0.96106    0.218
 5345.00    0.89873   0.96345    0.217
 5346.00    0.90769   0.96662    0.216
 5347.00    0.90847   0.97014    0.214
 5348.00    0.90945   0.97385    0.213
 5349.00    0.91125   0.97835    0.215
 5350.00    0.91329   0.98277    0.216
 5351.00    0.91613   0.98746    0.217
 5352.00    0.92270   0.99212    0.217
 5353.00    0.94027   0.99634    0.218
 5354.00    0.95474   1.00003    0.219
 5355.00    0.96140   1.00265    0.219
 5356.00    0.96395   1.00416    0.219
 5357.00    0.95760   1.00459    0.218
 5358.00    0.94963   1.00330    0.218
 5359.00    0.93858   1.00123    0.219
 5360.00    0.92798   0.99752    0.219
 5361.00    0.91809   0.99300    0.218
 5362.00    0.90856   0.98750    0.219
 5363.00    0.89954   0.98142    0.222
 5364.00    0.89280   0.97540    0.223
 5365.00    0.88895   0.96951    0.220
 5366.00    0.88536   0.96492    0.220
 5367.00    0.88207   0.96038    0.223
 5368.00    0.88250   0.95779   -2.000
 5369.00    0.88658   0.95571   -2.000
 5370.00    0.88664   0.95526   -2.000
 5371.00    0.88320   0.95595   -2.000
 5372.00    0.88687   0.95733   -2.000
 5373.00    0.89597   0.95994   -2.000
 5374.00    0.90618   0.96287   -2.000
 5375.00    0.91714   0.96710   -2.000
 5376.00    0.92651   0.97056   -2.000
 5377.00    0.93497   0.97424   -2.000
 5378.00    0.92792   0.97690   -2.000
 5379.00    0.91294   0.97863   -2.000
 5380.00    0.91187   0.97985   -2.000
 5381.00    0.91698   0.98001   -2.000
 5382.00    0.92677   0.97960   -2.000
 5383.00    0.93835   0.97813    0.223
 5384.00    0.93658   0.97642    0.222
 5385.00    0.93047   0.97368    0.220
 5386.00    0.91251   0.97087    0.216
 5387.00    0.89133   0.96750    0.211
 5388.00    0.88806   0.96363    0.211
 5389.00    0.88878   0.95949    0.212
 5390.00    0.88762   0.95468    0.212
 5391.00    0.88614   0.95036    0.212
 5392.00    0.88235   0.94584    0.212
 5393.00    0.87826   0.94184    0.212
 5394.00    0.87931   0.93769    0.213
 5395.00    0.88085   0.93433    0.213
 5396.00    0.88346   0.93092    0.211
 5397.00    0.88613   0.92767    0.209
 5398.00    0.87419   0.92472    0.208
 5399.00    0.86197   0.92155    0.207
 5400.00    0.86817   0.91985    0.207
 5401.00    0.87403   0.91813    0.207
 5402.00    0.87127   0.91671    0.207
 5403.00    0.86808   0.91531    0.208
 5404.00    0.85914   0.91509    0.210
 5405.00    0.85124   0.91511    0.212
 5406.00    0.85272   0.91582    0.213
 5407.00    0.85491   0.91735    0.213
 5408.00    0.86177   0.91982    0.210
 5409.00    0.86846   0.92406    0.208
 5410.00    0.87426   0.92872    0.211
 5411.00    0.87806   0.93388    0.214
 5412.00    0.87359   0.93875    0.213
 5413.00    0.87419   0.94416    0.213
 5414.00    0.89217   0.94922    0.214
 5415.00    0.90653   0.95402    0.215
 5416.00    0.91039   0.95780    0.217
 5417.00    0.91352   0.96028    0.218
 5418.00    0.91485   0.96262    0.218
 5419.00    0.91234   0.96406    0.218
 5420.00    0.90164   0.96464    0.216
 5421.00    0.89668   0.96408    0.215
 5422.00    0.90234   0.96218    0.217
 5423.00    0.90556   0.96004    0.217
 5424.00    0.90484   0.95822    0.216
 5425.00    0.90465   0.95555    0.214
 5426.00    0.90524   0.95236    0.213
 5427.00    0.90489   0.94953    0.213
 5428.00    0.90338   0.94720    0.214
 5429.00    0.90040   0.94532    0.214
 5430.00    0.89581   0.94386    0.212
 5431.00    0.89432   0.94276    0.211
 5432.00    0.89583   0.94247    0.210
 5433.00    0.89810   0.94420    0.210
 5434.00    0.90102   0.94586    0.212
 5435.00    0.90750   0.94831    0.211
 5436.00    0.91666   0.95120    0.208
 5437.00    0.91984   0.95381    0.209
 5438.00    0.91906   0.95684    0.213
 5439.00    0.92199   0.95874    0.213
 5440.00    0.92706   0.96048    0.209
 5441.00    0.92450   0.96172    0.207
 5442.00    0.91810   0.96191    0.204
 5443.00    0.91190   0.96138    0.204
 5444.00    0.90580   0.95969    0.205
 5445.00    0.89924   0.95787    0.203
 5446.00    0.89250   0.95524    0.201
 5447.00    0.89410   0.95236    0.200
 5448.00    0.89834   0.94908    0.201
 5449.00    0.90678   0.94622    0.203
 5450.00    0.91634   0.94518    0.205
 5451.00    0.90553   0.94398    0.205
 5452.00    0.89029   0.94329    0.203
 5453.00    0.87840   0.94224    0.204
 5454.00    0.86710   0.94158    0.204
 5455.00    0.87221   0.94090    0.206
 5456.00    0.87949   0.94024    0.209
 5457.00    0.88863   0.93997    0.207
 5458.00    0.89794   0.94015    0.205
 5459.00    0.90342   0.94131    0.207
 5460.00    0.90868   0.94212    0.208
 5461.00    0.90103   0.94297    0.206
 5462.00    0.89310   0.94321    0.203
 5463.00    0.88620   0.94306    0.205
 5464.00    0.87986   0.94292    0.207
 5465.00    0.88655   0.94227    0.210
 5466.00    0.89236   0.94163    0.213
 5467.00    0.88686   0.94101    0.212
 5468.00    0.88151   0.93965    0.211
 5469.00    0.87753   0.93754    0.210
 5470.00    0.87531   0.93534    0.210
 5471.00    0.88436   0.93297    0.211
 5472.00    0.88988   0.93054    0.212
 5473.00    0.87768   0.92815    0.212
 5474.00    0.86806   0.92596    0.211
 5475.00    0.86891   0.92408    0.208
 5476.00    0.86899   0.92269    0.206
 5477.00    0.86643   0.92251    0.207
 5478.00    0.86478   0.92232   -2.000
 5479.00    0.86574   0.92285   -2.000
 5480.00    0.87057   0.92474   -2.000
 5481.00    0.88480   0.92681   -2.000
 5482.00    0.89321   0.92920   -2.000
 5483.00    0.88943   0.93096   -2.000
 5484.00    0.87711   0.93354   -2.000
 5485.00    0.84923   0.93616   -2.000
 5486.00    0.83896   0.93846   -2.000
 5487.00    0.85672   0.94076   -2.000
 5488.00    0.86019   0.94225   -2.000
 5489.00    0.84372   0.94334   -2.000
 5490.00    0.85342   0.94386   -2.000
 5491.00    0.89531   0.94482   -2.000
 5492.00    0.91623   0.94511   -2.000
 5493.00    0.91443   0.94517   -2.000
 5494.00    0.90981   0.94518   -2.000
 5495.00    0.90249   0.94422   -2.000
 5496.00    0.90027   0.94333   -2.000
 5497.00    0.90234   0.94230   -2.000
 5498.00    0.90023   0.94114   -2.000
 5499.00    0.89503   0.93907   -2.000
 5500.00    0.89493   0.93754   -2.000
 5501.00    0.89815   0.93644   -2.000
 5502.00    0.89505   0.93468    0.200
 5503.00    0.88835   0.93295    0.200
 5504.00    0.88262   0.93111    0.200
 5505.00    0.87739   0.92972    0.201
 5506.00    0.88397   0.92852    0.203
 5507.00    0.89562   0.92753    0.206
 5508.00    0.88422   0.92658    0.206
 5509.00    0.86433   0.92627    0.205
 5510.00    0.85523   0.92715    0.203
 5511.00    0.84949   0.92805    0.202
 5512.00    0.84803   0.92906    0.201
 5513.00    0.84767   0.93072    0.200
 5514.00    0.85632   0.93219    0.204
 5515.00    0.86688   0.93432    0.209
 5516.00    0.88114   0.93673    0.208
 5517.00    0.89603   0.93902    0.205
 5518.00    0.89823   0.94124    0.205
 5519.00    0.89884   0.94287    0.205
 5520.00    0.89950   0.94412    0.206
 5521.00    0.90016   0.94438    0.208
 5522.00    0.89428   0.94414    0.207
 5523.00    0.88806   0.94341    0.207
 5524.00    0.88639   0.94262    0.205
 5525.00    0.88475   0.94171    0.203
 5526.00    0.87895   0.94067    0.201
 5527.00    0.87326   0.93949    0.200
 5528.00    0.86997   0.93829    0.199
 5529.00    0.86750   0.93773    0.199
 5530.00    0.87501   0.93701    0.200
 5531.00    0.88204   0.93766    0.200
 5532.00    0.88493   0.93908    0.197
 5533.00    0.88874   0.94037    0.194
 5534.00    0.89826   0.94187    0.195
 5535.00    0.90481   0.94332    0.196
 5536.00    0.89679   0.94506    0.197
 5537.00    0.88795   0.94643    0.198
 5538.00    0.87585   0.94832    0.197
 5539.00    0.86874   0.95024    0.196
 5540.00    0.87811   0.95180    0.200
 5541.00    0.88749   0.95362    0.233
 5542.00    0.89691   0.95523    0.564
 5543.00    0.90355   0.95676   -1.000
 5544.00    0.90354   0.95787   -1.000
 5545.00    0.90581   0.95858   -1.000
 5546.00    0.91280   0.95942   -1.000
 5547.00    0.91610   0.96011   -1.000
 5548.00    0.91278   0.96045   -1.000
 5549.00    0.91172   0.96050    1.004
 5550.00    0.91418   0.96071    0.281
 5551.00    0.91307   0.96036    0.200
 5552.00    0.90702   0.95948    0.202
 5553.00    0.89763   0.95838    0.202
 5554.00    0.88420   0.95693    0.198
 5555.00    0.88115   0.95514    0.197
 5556.00    0.88920   0.95302    0.199
 5557.00    0.89327   0.95113    0.201
 5558.00    0.89360   0.94899    0.202
 5559.00    0.88864   0.94681    0.202
 5560.00    0.87928   0.94438    0.201
 5561.00    0.87185   0.94211    0.201
 5562.00    0.86584   0.93985    0.201
 5563.00    0.86551   0.93764    0.200
 5564.00    0.86882   0.93573    0.198
 5565.00    0.87559   0.93358    0.198
 5566.00    0.88431   0.93263    0.199
 5567.00    0.88583   0.93146    0.199
 5568.00    0.88383   0.93034    0.199
 5569.00    0.89051   0.93026    0.198
 5570.00    0.90087   0.93041    0.196
 5571.00    0.90316   0.93043    0.196
 5572.00    0.90254   0.93075    0.197
 5573.00    0.89827   0.93185    0.196
 5574.00    0.89288   0.93195    0.195
 5575.00    0.88244   0.93180    0.194
 5576.00    0.87072   0.93234    0.194
 5577.00    0.87105   0.93208    0.194
 5578.00    0.87387   0.93083    0.194
 5579.00    0.88188   0.92945    0.194
 5580.00    0.89074   0.92726    0.193
 5581.00    0.88522   0.92409    0.193
 5582.00    0.87795   0.92072    0.192
 5583.00    0.86544   0.91725    0.192
 5584.00    0.85249   0.91334    0.193
 5585.00    0.84445   0.91012    0.193
 5586.00    0.83664   0.90720    0.192
 5587.00    0.82939   0.90406    0.192
 5588.00    0.82221   0.90167    0.192
 5589.00    0.81913   0.89948    0.193
 5590.00    0.81686   0.89882    0.195
 5591.00    0.83049   0.89905    0.196
 5592.00    0.84291   0.89982    0.197
 5593.00    0.84129   0.90097    0.198
 5594.00    0.84073   0.90199    0.199
 5595.00    0.84868   0.90361    0.201
 5596.00    0.85676   0.90477    0.204
 5597.00    0.86554   0.90691    0.205
 5598.00    0.87212   0.90972    0.206
 5599.00    0.86823   0.91261    0.205
 5600.00    0.86584   0.91489    0.205
 5601.00    0.86927   0.91773    0.204
 5602.00    0.87331   0.92120    0.204
 5603.00    0.87931   0.92378    0.204
 5604.00    0.88283   0.92702    0.204
 5605.00    0.87955   0.92982    0.201
 5606.00    0.87956   0.93319    0.200
 5607.00    0.88731   0.93564    0.200
 5608.00    0.89425   0.93679    0.200
 5609.00    0.89953   0.93730    0.198
 5610.00    0.90209   0.93598    0.197
 5611.00    0.89984   0.93499    0.196
 5612.00    0.89222   0.93366    0.194
 5613.00    0.87629   0.93189    0.192
 5614.00    0.86709   0.92989    0.192
 5615.00    0.86703   0.92738    0.193
 5616.00    0.86699   0.92503    0.194
 5617.00    0.86698   0.92190    0.196
 5618.00    0.86561   0.92020    0.196
 5619.00    0.86281   0.91986    0.193
 5620.00    0.85949   0.91926    0.191
 5621.00    0.85569   0.91931    0.189
 5622.00    0.85290   0.91959    0.189
 5623.00    0.85094   0.92044    0.190
 5624.00    0.85579   0.92167    0.190
 5625.00    0.86556   0.92282    0.190
 5626.00    0.86945   0.92385    0.189
 5627.00    0.86962   0.92496    0.189
 5628.00    0.86768   0.92688    0.188
 5629.00    0.86459   0.92826    0.187
 5630.00    0.86233   0.92902    0.186
 5631.00    0.86048   0.92979    0.186
 5632.00    0.86340   0.92991    0.187
 5633.00    0.86831   0.92967    0.190
 5634.00    0.86743   0.92919    0.192
 5635.00    0.86451   0.92864    0.194
 5636.00    0.86592   0.92751    0.196
 5637.00    0.86864   0.92657    0.198
 5638.00    0.86930   0.92587    0.200
 5639.00    0.86945   0.92494    0.202
 5640.00    0.86305   0.92468    0.201
 5641.00    0.85532   0.92464    0.200
 5642.00    0.85370   0.92479    0.199
 5643.00    0.85305   0.92461    0.198
 5644.00    0.85985   0.92480    0.198
 5645.00    0.86752   0.92546    0.198
 5646.00    0.86604   0.92556    0.195
 5647.00    0.86383   0.92603    0.192
 5648.00    0.85939   0.92606    0.194
 5649.00    0.85484   0.92556    0.196
 5650.00    0.84704   0.92447    0.193
 5651.00    0.83928   0.92329    0.190
 5652.00    0.83490   0.92183    0.189
 5653.00    0.83107   0.91946    0.188
 5654.00    0.83743   0.91763    0.186
 5655.00    0.84471   0.91612    0.184
 5656.00    0.86211   0.91404    0.185
 5657.00    0.87613   0.91168    0.185
 5658.00    0.86396   0.91055    0.184
 5659.00    0.85312   0.91009    0.184
 5660.00    0.85006   0.90906    0.185
 5661.00    0.84755   0.90932    0.186
 5662.00    0.84753   0.91089    0.185
 5663.00    0.84729   0.91226    0.184
 5664.00    0.84621   0.91343    0.186
 5665.00    0.84612   0.91571    0.188
 5666.00    0.84924   0.91857    0.187
 5667.00    0.85229   0.92132    0.187
 5668.00    0.85517   0.92411    0.188
 5669.00    0.85738   0.92668    0.188
 5670.00    0.85805   0.92881    0.187
 5671.00    0.85998   0.93087    0.187
 5672.00    0.86447   0.93316    0.188
 5673.00    0.86711   0.93464    0.190
 5674.00    0.86653   0.93581    0.191
 5675.00    0.86679   0.93644    0.193
 5676.00    0.86832   0.93648    0.195
 5677.00    0.86991   0.93529    0.196
 5678.00    0.87161   0.93432    0.197
 5679.00    0.86548   0.93370    0.197
 5680.00    0.85016   0.93233    0.198
 5681.00    0.84742   0.93074    0.196
 5682.00    0.85774   0.92893    0.193
 5683.00    0.86627   0.92773    0.191
 5684.00    0.87316   0.92618    0.191
 5685.00    0.87618   0.92566    0.191
 5686.00    0.87609   0.92566    0.191
 5687.00    0.86891   0.92603    0.191
 5688.00    0.85668   0.92622    0.190
 5689.00    0.85469   0.92604    0.189
 5690.00    0.85908   0.92660    0.187
 5691.00    0.86297   0.92701    0.187
 5692.00    0.86658   0.92788    0.187
 5693.00    0.86872   0.92750    0.186
 5694.00    0.87015   0.92714    0.185
 5695.00    0.86783   0.92631    0.186
 5696.00    0.86398   0.92406    0.186
 5697.00    0.86113   0.92213    0.186
 5698.00    0.85864   0.91983    0.185
 5699.00    0.86177   0.91771    0.186
 5700.00    0.86656   0.91445    0.188
 5701.00    0.86246   0.91106    0.187
 5702.00    0.85619   0.90833    0.186
 5703.00    0.85303   0.90501    0.186
 5704.00    0.85048   0.90217    0.185
 5705.00    0.85308   0.90065    0.184
 5706.00    0.85647   0.89943    0.183
 5707.00    0.85719   0.89841    0.183
 5708.00    0.85760   0.89850    0.183
 5709.00    0.85764   0.89936    0.185
 5710.00    0.85764   0.90102    0.187
 5711.00    0.85562   0.90318    0.187
 5712.00    0.85351   0.90656    0.187
 5713.00    0.85948   0.91040    0.187
 5714.00    0.86540   0.91425    0.188
 5715.00    0.86673   0.91888    0.191
 5716.00    0.86836   0.92344    0.193
 5717.00    0.87529   0.92755    0.192
 5718.00    0.88289   0.93153    0.191
 5719.00    0.89766   0.93492    0.189
 5720.00    0.91097   0.93777    0.188
 5721.00    0.91325   0.94020    0.189
 5722.00    0.91500   0.94164    0.191
 5723.00    0.91367   0.94316    0.191
 5724.00    0.91362   0.94426    0.191
 5725.00    0.91938   0.94477    0.192
 5726.00    0.92212   0.94442    0.192
 5727.00    0.91367   0.94397    0.189
 5728.00    0.90484   0.94403    0.187
 5729.00    0.89485   0.94343    0.189
 5730.00    0.88845   0.94353    0.190
 5731.00    0.89155   0.94359    0.189
 5732.00    0.89503   0.94338    0.188
 5733.00    0.89937   0.94298    0.187
 5734.00    0.90424   0.94276    0.186
 5735.00    0.91014   0.94332    0.187
 5736.00    0.91360   0.94344    0.187
 5737.00    0.91288   0.94341    0.185
 5738.00    0.91058   0.94316    0.184
 5739.00    0.90589   0.94294    0.183
 5740.00    0.90237   0.94291    0.000
 5741.00    0.90039   0.94271    0.000
 5742.00    0.89940   0.94207    0.000
 5743.00    0.89956   0.94100    0.000
 5744.00    0.89804   0.94024    0.000
 5745.00    0.89478   0.93954    0.000
 5746.00    0.89551   0.93895    0.000
 5747.00    0.89985   0.93796    0.000
 5748.00    0.89959   0.93657    0.000
 5749.00    0.89567   0.93495    0.000
 5750.00    0.89197   0.93357    0.000
 5751.00    0.88842   0.93316    0.000
 5752.00    0.89038   0.93286    0.000
 5753.00    0.89571   0.93244    0.000
 5754.00    0.89615   0.93148    0.000
 5755.00    0.89397   0.93056    0.000
 5756.00    0.89299   0.93006    0.000
 5757.00    0.89258   0.93013    0.000
 5758.00    0.89136   0.93067    0.000
 5759.00    0.88983   0.93143    0.000
 5760.00    0.89514   0.93203    0.000
 5761.00    0.90279   0.93248    0.000
 5762.00    0.90570   0.93293    0.000
 5763.00    0.90724   0.93361    0.000
 5764.00    0.91011   0.93444    0.000
 5765.00    0.91330   0.93517    0.000
 5766.00    0.91133   0.93646    0.000
 5767.00    0.90837   0.93698    0.000
 5768.00    0.90397   0.93709    0.000
 5769.00    0.89935   0.93665    0.000
 5770.00    0.89901   0.93581    0.000
 5771.00    0.89914   0.93496    0.000
 5772.00    0.89548   0.93339    0.000
 5773.00    0.89154   0.93166    0.000
 5774.00    0.89997   0.92910    0.000
 5775.00    0.90886   0.92603    0.000
 5776.00    0.91511   0.92261    0.000
 5777.00    0.92082   0.91927    0.000
 5778.00    0.90794   0.91646    0.000
 5779.00    0.89542   0.91360    0.000
 5780.00    0.88861   0.91045    0.000
 5781.00    0.88176   0.90798    0.000
 5782.00    0.87456   0.90630    0.000
 5783.00    0.86847   0.90485    0.000
 5784.00    0.87045   0.90501    0.000
 5785.00    0.87268   0.90551    0.000
 5786.00    0.87633   0.90633    0.000
 5787.00    0.88037   0.90776    0.000
 5788.00    0.88607   0.90967    0.000
 5789.00    0.88969   0.91310    0.000
 5790.00    0.88575   0.91617    0.000
 5791.00    0.88363   0.91923   -2.000
 5792.00    0.88707   0.92195   -2.000
 5793.00    0.88912   0.92411   -2.000
 5794.00    0.88752   0.92738   -2.000
 5795.00    0.88773   0.93035   -2.000
 5796.00    0.89201   0.93289   -2.000
 5797.00    0.89490   0.93528   -2.000
 5798.00    0.89512   0.93671   -2.000
 5799.00    0.89651   0.93760   -2.000
 5800.00    0.89990   0.93850   -2.000
 5801.00    0.90282   0.93962   -2.000
 5802.00    0.90507   0.94089   -2.000
 5803.00    0.90642   0.94120   -2.000
 5804.00    0.90659   0.94117   -2.000
 5805.00    0.90576   0.94112   -2.000
 5806.00    0.90377   0.94058   -2.000
 5807.00    0.90319   0.94061   -2.000
 5808.00    0.90403   0.94067   -2.000
 5809.00    0.90721   0.94072   -2.000
 5810.00    0.91248   0.94057   -2.000
 5811.00    0.91503   0.94005    0.000
 5812.00    0.91544   0.94016    0.000
 5813.00    0.91211   0.94063    0.000
 5814.00    0.90619   0.94106    0.000
 5815.00    0.90567   0.94175    0.000
 5816.00    0.90841   0.94225    0.000
 5817.00    0.91169   0.94278    0.000
 5818.00    0.91525   0.94343    0.000
 5819.00    0.90826   0.94435    0.000
 5820.00    0.89644   0.94585    0.000
 5821.00    0.89723   0.94673    0.000
 5822.00    0.90299   0.94749    0.000
 5823.00    0.91313   0.94808    0.000
 5824.00    0.92475   0.94859    0.000
 5825.00    0.92302   0.94924    0.000
 5826.00    0.91753   0.94952    0.000
 5827.00    0.91779   0.94998    0.000
 5828.00    0.91940   0.94989    0.000
 5829.00    0.91583   0.94963    0.000
 5830.00    0.91130   0.94938    0.000
 5831.00    0.91406   0.94927    0.000
 5832.00    0.91789   0.94918    0.000
 5833.00    0.91425   0.94863    0.000
 5834.00    0.90983   0.94827    0.000
 5835.00    0.90315   0.94783    0.000
 5836.00    0.89631   0.94746    0.000
 5837.00    0.90016   0.94691    0.000
 5838.00    0.90436   0.94651    0.000
 5839.00    0.90110   0.94599    0.000
 5840.00    0.89798   0.94481    0.000
 5841.00    0.89938   0.94368    0.000
 5842.00    0.90078   0.94218    0.000
 5843.00    0.90239   0.94058    0.000
 5844.00    0.90340   0.93863    0.000
 5845.00    0.89869   0.93629    0.000
 5846.00    0.89468   0.93373    0.000
 5847.00    0.89562   0.93044    0.000
 5848.00    0.89629   0.92702    0.000
 5849.00    0.89543   0.92375    0.000
 5850.00    0.89271   0.92060    0.000
 5851.00    0.88194   0.91772    0.000
 5852.00    0.87262   0.91425    0.000
 5853.00    0.86846   0.91109    0.000
 5854.00    0.86733   0.90851    0.000
 5855.00    0.87533   0.90623    0.000
 5856.00    0.88374   0.90518    0.000
 5857.00    0.89322   0.90409    0.000
 5858.00    0.89949   0.90356    0.000
 5859.00    0.89870   0.90311    0.000
 5860.00    0.89628   0.90325    0.000
 5861.00    0.89079   0.90464    0.000
 5862.00    0.88544   0.90584    0.000
 5863.00    0.88033   0.90743    0.000
 5864.00    0.87742   0.90856    0.000
 5865.00    0.87772   0.91008    0.000
 5866.00    0.88064   0.91196    0.000
 5867.00    0.88692   0.91343    0.000
 5868.00    0.89230   0.91437    0.000
 5869.00    0.89665   0.91486    0.000
 5870.00    0.89717   0.91542    0.000
 5871.00    0.89386   0.91561    0.000
 5872.00    0.88949   0.91530    0.000
 5873.00    0.88417   0.91384    0.000
 5874.00    0.88009   0.91173    0.000
 5875.00    0.87697   0.90899    0.000
 5876.00    0.87466   0.90600    0.000
 5877.00    0.87289   0.90234    0.000
 5878.00    0.87508   0.89716    0.000
 5879.00    0.87962   0.89058    0.000
 5880.00    0.87598   0.88282    0.000
 5881.00    0.86809   0.87539    0.000
 5882.00    0.85859   0.86727    0.000
 5883.00    0.84836   0.85808    0.000
 5884.00    0.83743   0.84770    0.000
 5885.00    0.82622   0.83567    0.000
 5886.00    0.81123   0.82466    0.000
 5887.00    0.79499   0.81515    0.000
 5888.00    0.77497   0.80727    0.000
 5889.00    0.75389   0.80015    0.000
 5890.00    0.74613   0.79210    0.000
 5891.00    0.74138   0.78566    0.000
 5892.00    0.74136   0.78224    0.000
 5893.00    0.74220   0.78287    0.000
 5894.00    0.74510   0.78683    0.000
 5895.00    0.74828   0.79031    0.000
 5896.00    0.75552   0.79462    0.000
 5897.00    0.76317   0.80027    0.000
 5898.00    0.78367   0.80783    0.000
 5899.00    0.80499   0.81867    0.000
 5900.00    0.82264   0.82899    0.000
 5901.00    0.84014   0.83795    0.180
 5902.00    0.84379   0.84623    0.179
 5903.00    0.84725   0.85388    0.178
 5904.00    0.84528   0.86188    0.176
 5905.00    0.84362   0.86921    0.175
 5906.00    0.84617   0.87477    0.175
 5907.00    0.84883   0.87931    0.176
 5908.00    0.85253   0.88296    0.176
 5909.00    0.85571   0.88559    0.176
 5910.00    0.85524   0.88802    0.176
 5911.00    0.85457   0.88926    0.175
 5912.00    0.85288   0.89042    0.172
 5913.00    0.85164   0.89142    0.170
 5914.00    0.85226   0.89191    0.171
 5915.00    0.85233   0.89276    0.172
 5916.00    0.85048   0.89267    0.173
 5917.00    0.85045   0.89332    0.174
 5918.00    0.85576   0.89414    0.175
 5919.00    0.86081   0.89462    0.176
 5920.00    0.86523   0.89541    0.178
 5921.00    0.86744   0.89579    0.179
 5922.00    0.86487   0.89650    0.180
 5923.00    0.86239   0.89721    0.180
 5924.00    0.86009   0.89735    0.181
 5925.00    0.85916   0.89748    0.181
 5926.00    0.86049   0.89796    0.181
 5927.00    0.86235   0.89808    0.181
 5928.00    0.86497   0.89852    0.180
 5929.00    0.86711   0.89854    0.179
 5930.00    0.86862   0.89816    0.177
 5931.00    0.86912   0.89833    0.176
 5932.00    0.86849   0.89810    0.176
 5933.00    0.86518   0.89870    0.176
 5934.00    0.85923   0.89928    0.176
 5935.00    0.85499   0.89913    0.176
 5936.00    0.85223   0.89910    0.176
 5937.00    0.85731   0.89884    0.175
 5938.00    0.86837   0.89916    0.174
 5939.00    0.87387   0.89965    0.173
 5940.00    0.87564   0.89964    0.174
 5941.00    0.87628   0.89947    0.174
 5942.00    0.87627   0.89905    0.173
 5943.00    0.87504   0.89854    0.173
 5944.00    0.87318   0.89819    0.172
 5945.00    0.87127   0.89791    0.173
 5946.00    0.86933   0.89752    0.175
 5947.00    0.87021   0.89701    0.177
 5948.00    0.87217   0.89630    0.179
 5949.00    0.86914   0.89562    0.177
 5950.00    0.86451   0.89521    0.174
 5951.00    0.86076   0.89501    0.175
 5952.00    0.85726   0.89527    0.177
 5953.00    0.85646   0.89549    0.176
 5954.00    0.85626   0.89553    0.175
 5955.00    0.86019   0.89578    0.176
 5956.00    0.86484   0.89665    0.177
 5957.00    0.86811   0.89819    0.177
 5958.00    0.87120   0.89928    0.177
 5959.00    0.87563   0.90022    0.180
 5960.00    0.88018   0.90131    0.183
 5961.00    0.88072   0.90275    0.181
 5962.00    0.88101   0.90451    0.180
 5963.00    0.88693   0.90535    0.180
 5964.00    0.89293   0.90634    0.180
 5965.00    0.89005   0.90719    0.178
 5966.00    0.88723   0.90768    0.177
 5967.00    0.88586   0.90824    0.174
 5968.00    0.88476   0.90800    0.171
 5969.00    0.88729   0.90794    0.173
 5970.00    0.88992   0.90758    0.173
 5971.00    0.89340   0.90664    0.173
 5972.00    0.89665   0.90569    0.173
 5973.00    0.89843   0.90420    0.173
 5974.00    0.89920   0.90281    0.173
 5975.00    0.89481   0.90161    0.176
 5976.00    0.88909   0.89996    0.177
 5977.00    0.87786   0.89858    0.174
 5978.00    0.86727   0.89706    0.172
 5979.00    0.85892   0.89548    0.171
 5980.00    0.85228   0.89463    0.170
 5981.00    0.85060   0.89358    0.170
 5982.00    0.84945   0.89313    0.171
 5983.00    0.84962   0.89292    0.172
 5984.00    0.85024   0.89248    0.173
 5985.00    0.85186   0.89273    0.175
 5986.00    0.85324   0.89281    0.177
 5987.00    0.85418   0.89340    0.177
 5988.00    0.85639   0.89430    0.177
 5989.00    0.86064   0.89472    0.177
 5990.00    0.86410   0.89542    0.176
 5991.00    0.86641   0.89594    0.176
 5992.00    0.87160   0.89625    0.176
 5993.00    0.88036   0.89646    0.176
 5994.00    0.88595   0.89631    0.177
 5995.00    0.88805   0.89614    0.178
 5996.00    0.88400   0.89614    0.178
 5997.00    0.87399   0.89537    0.177
 5998.00    0.86411   0.89412    0.176
 5999.00    0.85434   0.89307    0.174
 6000.00    0.85037   0.89176    0.173
 6001.00    0.85074   0.89129    0.173
 6002.00    0.85053   0.89032    0.172
 6003.00    0.84991   0.88849    0.169
 6004.00    0.84667   0.88737    0.168
 6005.00    0.84191   0.88583    0.168
 6006.00    0.84306   0.88545    0.169
 6007.00    0.84719   0.88529    0.171
 6008.00    0.85224   0.88385    0.173
 6009.00    0.85769   0.88304    0.173
 6010.00    0.85540   0.88202    0.173
 6011.00    0.85021   0.88184    0.172
 6012.00    0.85380   0.88229    0.173
 6013.00    0.86017   0.88159    0.175
 6014.00    0.86494   0.88095    0.177
 6015.00    0.86929   0.88074    0.178
 6016.00    0.86637   0.88083    0.177
 6017.00    0.86187   0.88152    0.175
 6018.00    0.86150   0.88196    0.179
 6019.00    0.86183   0.88205    0.183
 6020.00    0.86159   0.88325    0.181
 6021.00    0.86127   0.88434    0.179
 6022.00    0.86751   0.88579    0.178
 6023.00    0.87434   0.88778    0.177
 6024.00    0.88165   0.88918    0.176
 6025.00    0.88898   0.89173    0.174
 6026.00    0.88803   0.89385    0.174
 6027.00    0.88690   0.89591    0.173
 6028.00    0.88582   0.89848    0.173
 6029.00    0.88502   0.90027    0.172
 6030.00    0.89064   0.90268    0.173
 6031.00    0.89609   0.90452    0.173
 6032.00    0.89945   0.90594    0.173
 6033.00    0.90191   0.90762    0.173
 6034.00    0.89664   0.90859    0.171
 6035.00    0.89175   0.90984    0.170
 6036.00    0.88928   0.91068    0.170
 6037.00    0.88711   0.91106    0.169
 6038.00    0.88643   0.91183    0.170
 6039.00    0.88598   0.91212    0.171
 6040.00    0.88644   0.91264    0.170
 6041.00    0.88680   0.91302    0.170
 6042.00    0.88680   0.91300    0.172
 6043.00    0.88520   0.91337    0.174
 6044.00    0.87903   0.91339    0.175
 6045.00    0.87471   0.91348    0.176
 6046.00    0.87487   0.91340    0.175
 6047.00    0.87665   0.91305    0.176
 6048.00    0.88179   0.91268    0.178
 6049.00    0.88584   0.91206    0.179
 6050.00    0.88792   0.91132    0.178
 6051.00    0.89045   0.91043    0.176
 6052.00    0.89371   0.90948    0.175
 6053.00    0.89391   0.90831    0.174
 6054.00    0.88987   0.90727    0.176
 6055.00    0.88539   0.90601    0.177
 6056.00    0.88039   0.90501    0.176
 6057.00    0.87775   0.90397    0.176
 6058.00    0.87767   0.90297    0.175
 6059.00    0.87933   0.90262    0.174
 6060.00    0.88265   0.90180    0.172
 6061.00    0.88518   0.90169    0.171
 6062.00    0.88707   0.90146    0.171
 6063.00    0.88699   0.90151    0.171
 6064.00    0.88545   0.90264    0.171
 6065.00    0.88254   0.90286    0.170
 6066.00    0.87874   0.90369    0.169
 6067.00    0.87797   0.90446    0.169
 6068.00    0.87894   0.90510    0.171
 6069.00    0.88645   0.90655    0.171
 6070.00    0.89720   0.90687    0.171
 6071.00    0.90502   0.90702    0.172
 6072.00    0.91159   0.90720    0.174
 6073.00    0.90595   0.90663    0.175
 6074.00    0.89584   0.90616    0.175
 6075.00    0.88868   0.90512    0.174
 6076.00    0.88245   0.90355    0.173
 6077.00    0.88487   0.90218    0.174
 6078.00    0.88954   0.90038    0.176
 6079.00    0.88293   0.89840    0.176
 6080.00    0.87393   0.89678    0.175
 6081.00    0.87331   0.89510    0.175
 6082.00    0.87408   0.89347    0.176
 6083.00    0.88032   0.89222    0.178
 6084.00    0.88725   0.89093    0.179
 6085.00    0.88475   0.89007    0.176
 6086.00    0.88142   0.88962    0.173
 6087.00    0.87765   0.88887    0.172
 6088.00    0.87385   0.88861    0.171
 6089.00    0.86814   0.88838    0.170
 6090.00    0.86249   0.88810    0.169
 6091.00    0.86340   0.88833    0.169
 6092.00    0.86447   0.88820    0.168
 6093.00    0.86867   0.88797    0.167
 6094.00    0.87250   0.88741    0.166
 6095.00    0.87176   0.88675    0.165
 6096.00    0.87110   0.88703    0.164
 6097.00    0.87120   0.88667    0.168
 6098.00    0.87128   0.88585    0.171
 6099.00    0.87122   0.88473    0.172
 6100.00    0.87078   0.88366    0.173
 6101.00    0.86854   0.88462    0.173
 6102.00    0.86627   0.88471    0.173
 6103.00    0.86388   0.88397    0.173
 6104.00    0.86242   0.88394    0.173
 6105.00    0.86405   0.88389    0.176
 6106.00    0.86672   0.88570    0.177
 6107.00    0.87225   0.88691    0.176
 6108.00    0.87823   0.88651    0.176
 6109.00    0.88527   0.88706    0.176
 6110.00    0.88998   0.88784    0.177
 6111.00    0.88988   0.88862    0.179
 6112.00    0.89043   0.88891    0.179
 6113.00    0.89214   0.88780    0.177
 6114.00    0.89161   0.88663    0.175
 6115.00    0.88758   0.88654    0.173
 6116.00    0.88196   0.88563    0.172
 6117.00    0.87416   0.88385    0.171
 6118.00    0.86732   0.88222    0.169
 6119.00    0.86163   0.87996    0.167
 6120.00    0.85912   0.87923    0.167
 6121.00    0.85998   0.87869    0.168
 6122.00    0.86364   0.87684    0.168
 6123.00    0.86993   0.87590    0.169
 6124.00    0.87310   0.87464    0.169
 6125.00    0.87369   0.87433    0.170
 6126.00    0.87220   0.87465    0.170
 6127.00    0.86918   0.87365    0.169
 6128.00    0.86840   0.87270    0.169
 6129.00    0.86906   0.87137    0.169
 6130.00    0.86911   0.87097    0.171
 6131.00    0.86882   0.87080    0.173
 6132.00    0.86400   0.86946    0.173
 6133.00    0.85696   0.86785    0.172
 6134.00    0.85218   0.86586    0.175
 6135.00    0.84836   0.86590    0.178
 6136.00    0.85211   0.86635    0.180
 6137.00    0.85860   0.86560    0.181
 6138.00    0.86232   0.86520    0.181
 6139.00    0.86520   0.86496    0.181
 6140.00    0.86619   0.86672    0.178
 6141.00    0.86671   0.86864    0.174
 6142.00    0.86960   0.86914    0.174
 6143.00    0.87298   0.87011    0.174
 6144.00    0.87710   0.87116    0.173
 6145.00    0.88134   0.87269    0.171
 6146.00    0.88342   0.87359    0.171
 6147.00    0.88523   0.87311    0.171
 6148.00    0.87684   0.87281    0.170
 6149.00    0.86760   0.87202    0.170
 6150.00    0.86241   0.87082    0.167
 6151.00    0.85742   0.86889    0.165
 6152.00    0.86071   0.86592    0.167
 6153.00    0.86399   0.86276    0.170
 6154.00    0.85969   0.85906    0.170
 6155.00    0.85518   0.85520    0.169
 6156.00    0.84663   0.85116    0.170
 6157.00    0.83801   0.84670    0.171
 6158.00    0.82868   0.84193    0.171
 6159.00    0.81986   0.83761    0.170
 6160.00    0.81521   0.83403    0.171
 6161.00    0.81085   0.83047    0.171
 6162.00    0.80821   0.82755    0.172
 6163.00    0.80565   0.82522    0.172
 6164.00    0.80345   0.82387    0.174
 6165.00    0.80200   0.82359    0.175
 6166.00    0.80348   0.82305    0.177
 6167.00    0.80565   0.82349    0.177
 6168.00    0.81007   0.82535    0.173
 6169.00    0.81500   0.82734    0.170
 6170.00    0.82134   0.82961    0.172
 6171.00    0.82477   0.83186    0.172
 6172.00    0.82137   0.83429    0.171
 6173.00    0.81709   0.83758    0.168
 6174.00    0.81105   0.84037    0.165
 6175.00    0.80715   0.84265    0.164
 6176.00    0.80704   0.84524    0.166
 6177.00    0.80801   0.84718    0.167
 6178.00    0.81062   0.84869    0.166
 6179.00    0.81424   0.85004    0.166
 6180.00    0.81922   0.85063    0.166
 6181.00    0.82229   0.85126    0.167
 6182.00    0.82307   0.85138    0.167
 6183.00    0.82450   0.84996    0.168
 6184.00    0.82661   0.84921    0.168
 6185.00    0.82574   0.84873    0.168
 6186.00    0.82212   0.84735    0.169
 6187.00    0.81972   0.84644    0.171
 6188.00    0.81832   0.84436    0.172
 6189.00    0.82018   0.84329    0.174
 6190.00    0.82439   0.84393    0.175
 6191.00    0.82511   0.84275    0.174
 6192.00    0.82362   0.84238    0.172
 6193.00    0.82249   0.84273    0.172
 6194.00    0.82156   0.84326    0.173
 6195.00    0.82095   0.84511    0.176
 6196.00    0.82050   0.84534   -2.000
 6197.00    0.82692   0.84573   -2.000
 6198.00    0.83619   0.84776   -2.000
 6199.00    0.84631   0.84909   -2.000
 6200.00    0.85674   0.85014   -2.000
 6201.00    0.85816   0.85067   -2.000
 6202.00    0.85688   0.85074   -2.000
 6203.00    0.85434   0.85154   -2.000
 6204.00    0.85150   0.85180   -2.000
 6205.00    0.85447   0.85063   -2.000
 6206.00    0.85861   0.84956   -2.000
 6207.00    0.86008   0.84818   -2.000
 6208.00    0.86112   0.84631    0.170
 6209.00    0.85047   0.84486    0.170
 6210.00    0.83845   0.84207    0.170
 6211.00    0.83002   0.83894    0.167
 6212.00    0.82188   0.83663    0.165
 6213.00    0.81453   0.83375    0.166
 6214.00    0.80723   0.83185    0.168
 6215.00    0.80682   0.82978    0.168
 6216.00    0.80670   0.82672    0.169
 6217.00    0.81648   0.82523    0.170
 6218.00    0.82606   0.82395    0.171
 6219.00    0.83216   0.82279    0.172
 6220.00    0.83750   0.82237    0.174
 6221.00    0.83458   0.82100    0.172
 6222.00    0.83140   0.82010    0.171
 6223.00    0.82620   0.82007    0.171
 6224.00    0.82182   0.81959    0.170
 6225.00    0.82226   0.81932    0.170
 6226.00    0.82272   0.81916    0.170
 6227.00    0.82326   0.81831    0.168
 6228.00    0.82276   0.81819    0.167
 6229.00    0.81825   0.81824    0.168
 6230.00    0.81479   0.81751    0.168
 6231.00    0.81463   0.81771    0.166
 6232.00    0.81427   0.81736    0.164
 6233.00    0.81338   0.81715    0.164
 6234.00    0.81138   0.81755    0.163
 6235.00    0.80683   0.81637    0.163
 6236.00    0.80496   0.81628    0.163
 6237.00    0.80845   0.81610    0.162
 6238.00    0.81144   0.81535    0.163
 6239.00    0.81357   0.81542    0.166
 6240.00    0.81525   0.81396    0.167
 6241.00    0.81625   0.81338    0.168
 6242.00    0.81607   0.81325    0.169
 6243.00    0.81429   0.81181    0.169
 6244.00    0.81344   0.81123    0.169
 6245.00    0.81370   0.81032    0.169
 6246.00    0.81408   0.80950    0.169
 6247.00    0.81460   0.80942    0.169
 6248.00    0.81306   0.80807    0.170
 6249.00    0.80966   0.80678    0.171
 6250.00    0.80639   0.80613    0.170
 6251.00    0.80323   0.80540    0.169
 6252.00    0.80215   0.80535    0.168
 6253.00    0.80255   0.80461    0.167
 6254.00    0.80112   0.80395    0.167
 6255.00    0.79856   0.80435    0.166
 6256.00    0.79784   0.80468    0.166
 6257.00    0.79812   0.80567    0.165
 6258.00    0.79842   0.80654    0.166
 6259.00    0.79873   0.80800    0.169
 6260.00    0.80151   0.81065    0.176
 6261.00    0.80529   0.81233    0.185
 6262.00    0.81559   0.81409    0.192
 6263.00    0.82814   0.81644    0.198
 6264.00    0.83730   0.81903    0.197
 6265.00    0.84547   0.82189    0.194
 6266.00    0.84061   0.82352    0.187
 6267.00    0.83259   0.82502    0.178
 6268.00    0.82994   0.82717    0.173
 6269.00    0.82834   0.82877    0.170
 6270.00    0.83140   0.83019    0.170
 6271.00    0.83517   0.83101    0.171
 6272.00    0.83238   0.83154    0.171
 6273.00    0.82886   0.83280    0.171
 6274.00    0.83363   0.83319    0.171
 6275.00    0.83904   0.83351    0.172
 6276.00    0.84494   0.83427    0.171
 6277.00    0.85087   0.83399    0.171
 6278.00    0.84895   0.83470    0.172
 6279.00    0.84705   0.83535    0.174
 6280.00    0.84841   0.83540    0.000
 6281.00    0.84975   0.83665    0.000
 6282.00    0.85085   0.83663    0.000
 6283.00    0.85227   0.83707    0.000
 6284.00    0.85692   0.83832    0.000
 6285.00    0.86138   0.83810    0.000
 6286.00    0.86449   0.83896    0.000
 6287.00    0.86707   0.83923    0.000
 6288.00    0.86668   0.83859    0.000
 6289.00    0.86585   0.83884    0.000
 6290.00    0.86302   0.83782    0.000
 6291.00    0.86027   0.83732    0.000
 6292.00    0.85785   0.83710    0.000
 6293.00    0.85557   0.83519    0.000
 6294.00    0.85377   0.83394    0.000
 6295.00    0.85197   0.83300    0.000
 6296.00    0.85019   0.83214    0.000
 6297.00    0.84699   0.83157    0.000
 6298.00    0.84060   0.83004    0.000
 6299.00    0.83735   0.82937    0.000
 6300.00    0.84024   0.82983    0.000
 6301.00    0.84306   0.82987    0.000
 6302.00    0.84574   0.82962    0.000
 6303.00    0.84670   0.82954    0.000
 6304.00    0.84509   0.83035    0.000
 6305.00    0.84507   0.83156    0.000
 6306.00    0.84713   0.83162    0.000
 6307.00    0.85055   0.83114    0.000
 6308.00    0.85552   0.83158    0.000
 6309.00    0.85805   0.83204    0.000
 6310.00    0.85810   0.83202    0.000
 6311.00    0.85487   0.83142    0.000
 6312.00    0.84867   0.83037    0.000
 6313.00    0.83973   0.83080    0.000
 6314.00    0.82860   0.83081    0.000
 6315.00    0.81984   0.82945    0.000
 6316.00    0.81272   0.82951    0.000
 6317.00    0.81255   0.83000    0.000
 6318.00    0.81663   0.83074    0.000
 6319.00    0.82429   0.83116    0.000
 6320.00    0.83385   0.83118    0.000
 6321.00    0.83929   0.83295    0.167
 6322.00    0.84280   0.83434    0.170
 6323.00    0.84472   0.83525    0.172
 6324.00    0.84600   0.83616    0.173
 6325.00    0.85054   0.83723    0.172
 6326.00    0.85619   0.83911    0.170
 6327.00    0.85848   0.83904    0.171
 6328.00    0.85981   0.83886    0.172
 6329.00    0.85939   0.83970    0.171
 6330.00    0.85855   0.83986    0.170
 6331.00    0.85949   0.83989    0.169
 6332.00    0.86076   0.83850    0.167
 6333.00    0.85750   0.83730    0.167
 6334.00    0.85357   0.83775    0.167
 6335.00    0.85225   0.83706    0.166
 6336.00    0.85123   0.83561    0.164
 6337.00    0.84989   0.83533    0.164
 6338.00    0.84854   0.83515    0.163
 6339.00    0.84745   0.83492    0.164
 6340.00    0.84636   0.83452    0.165
 6341.00    0.84677   0.83354    0.167
 6342.00    0.84716   0.83421    0.168
 6343.00    0.84610   0.83506    0.167
 6344.00    0.84541   0.83434    0.166
 6345.00    0.85044   0.83462    0.168
 6346.00    0.85550   0.83475    0.170
 6347.00    0.86085   0.83428    0.173
 6348.00    0.86538   0.83432    0.174
 6349.00    0.86399   0.83351    0.172
 6350.00    0.86129   0.83272    0.170
 6351.00    0.85136   0.83178    0.171
 6352.00    0.84267   0.82986    0.171
 6353.00    0.83942   0.82873    0.171
 6354.00    0.83772   0.82749    0.170
 6355.00    0.84163   0.82509    0.169
 6356.00    0.84263   0.82323    0.168
 6357.00    0.83474   0.82219    0.166
 6358.00    0.82746   0.82097    0.164
 6359.00    0.82174   0.81962    0.162
 6360.00    0.81910   0.81881    0.162
 6361.00    0.82333   0.81899    0.166
 6362.00    0.82803   0.81982    0.169
 6363.00    0.83364   0.82032    0.170
 6364.00    0.83981   0.82120    0.170
 6365.00    0.84695   0.82341    0.167
 6366.00    0.85392   0.82559    0.166
 6367.00    0.86063   0.82724    0.167
 6368.00    0.86371   0.82928    0.168
 6369.00    0.86208   0.83187    0.169
 6370.00    0.86004   0.83438    0.169
 6371.00    0.85752   0.83618    0.168
 6372.00    0.85803   0.83761    0.168
 6373.00    0.86159   0.83926    0.170
 6374.00    0.86228   0.84089    0.171
 6375.00    0.86041   0.84150    0.171
 6376.00    0.85706   0.84176    0.171
 6377.00    0.85254   0.84243    0.171
 6378.00    0.85100   0.84265    0.171
 6379.00    0.85151   0.84283    0.169
 6380.00    0.85562   0.84272    0.169
 6381.00    0.86191   0.84204    0.169
 6382.00    0.86815   0.84174    0.168
 6383.00    0.87437   0.84151    0.167
 6384.00    0.87645   0.84103    0.165
 6385.00    0.87665   0.84027    0.163
 6386.00    0.87601   0.83954    0.163
 6387.00    0.87505   0.83918    0.164
 6388.00    0.87121   0.83875    0.165
 6389.00    0.86642   0.83771    0.165
 6390.00    0.85831   0.83627    0.165
 6391.00    0.84927   0.83570    0.165
 6392.00    0.84736   0.83563    0.166
 6393.00    0.84711   0.83511    0.167
 6394.00    0.84758   0.83448    0.170
 6395.00    0.84818   0.83443    0.174
 6396.00    0.84551   0.83411    0.173
 6397.00    0.84236   0.83279    0.172
 6398.00    0.84671   0.83334    0.172
 6399.00    0.85185   0.83438    0.171
 6400.00    0.85899   0.83408    0.172
 6401.00    0.86627   0.83481    0.174
 6402.00    0.86705   0.83486    0.172
 6403.00    0.86761   0.83516    0.171
 6404.00    0.86784   0.83579    0.171
 6405.00    0.86809   0.83435    0.170
 6406.00    0.86910   0.83537    0.169
 6407.00    0.87007   0.83698    0.167
 6408.00    0.87041   0.83546    0.165
 6409.00    0.87020   0.83527    0.163
 6410.00    0.86474   0.83562    0.163
 6411.00    0.85920   0.83524    0.163
 6412.00    0.85315   0.83558    0.163
 6413.00    0.84737   0.83490    0.163
 6414.00    0.84306   0.83477    0.164
 6415.00    0.83979   0.83590    0.166
 6416.00    0.84104   0.83545    0.167
 6417.00    0.84239   0.83497    0.168
 6418.00    0.84410   0.83545    0.168
 6419.00    0.84518   0.83587    0.169
 6420.00    0.84438   0.83696    0.170
 6421.00    0.84632   0.83743    0.171
 6422.00    0.85526   0.83719    0.172
 6423.00    0.86406   0.83799    0.172
 6424.00    0.87257   0.83870    0.171
 6425.00    0.87960   0.83892    0.172
 6426.00    0.88380   0.83939    0.174
 6427.00    0.88541   0.83898    0.176
 6428.00    0.88272   0.83881    0.174
 6429.00    0.87734   0.83977    0.173
 6430.00    0.86802   0.83959    0.171
 6431.00    0.86220   0.83935    0.169
 6432.00    0.86084   0.83965    0.167
 6433.00    0.85951   0.83944    0.166
 6434.00    0.85821   0.84024    0.165
 6435.00    0.85652   0.83979    0.164
 6436.00    0.85444   0.83849    0.163
 6437.00    0.85387   0.84011    0.163
 6438.00    0.85461   0.84091    0.164
 6439.00    0.85540   0.84041    0.165
 6440.00    0.85622   0.84096    0.166
 6441.00    0.85857   0.84057    0.166
 6442.00    0.86196   0.84081    0.166
 6443.00    0.86865   0.84090    0.168
 6444.00    0.87730   0.83946    0.172
 6445.00    0.87512   0.83977    0.174
 6446.00    0.86731   0.83903    0.174
 6447.00    0.85986   0.83690    0.173
 6448.00    0.85259   0.83725    0.171
 6449.00    0.84993   0.83677    0.173
 6450.00    0.84905   0.83588    0.176
 6451.00    0.84169   0.83557    0.173
 6452.00    0.83220   0.83415    0.168
 6453.00    0.82874   0.83412    0.166
 6454.00    0.82695   0.83417    0.164
 6455.00    0.82703   0.83351    0.165
 6456.00    0.82753   0.83419    0.166
 6457.00    0.82953   0.83483    0.165
 6458.00    0.83181   0.83528    0.165
 6459.00    0.83803   0.83478    0.165
 6460.00    0.84480   0.83419    0.166
 6461.00    0.84665   0.83551    0.166
 6462.00    0.84801   0.83638    0.166
 6463.00    0.84731   0.83656    0.166
 6464.00    0.84647   0.83695    0.167
 6465.00    0.85324   0.83736    0.169
 6466.00    0.86021   0.83801    0.171
 6467.00    0.86229   0.83787    0.169
 6468.00    0.86416   0.83727    0.168
 6469.00    0.86021   0.83795    0.169
 6470.00    0.85707   0.83890    0.170
 6471.00    0.86539   0.83838    0.170
 6472.00    0.87372   0.83758    0.171
 6473.00    0.88222   0.83749    0.173
 6474.00    0.88904   0.83731    0.174
 6475.00    0.88455   0.83645    0.172
 6476.00    0.87928   0.83520    0.170
 6477.00    0.86987   0.83444    0.170
 6478.00    0.86152   0.83365    0.170
 6479.00    0.85763   0.83176    0.169
 6480.00    0.85485   0.82981    0.167
 6481.00    0.85595   0.82859    0.166
 6482.00    0.85752   0.82704    0.164
 6483.00    0.86048   0.82431    0.163
 6484.00    0.86341   0.82158    0.163
 6485.00    0.86627   0.81927    0.164
 6486.00    0.86817   0.81638    0.164
 6487.00    0.86798   0.81282    0.164
 6488.00    0.86440   0.80895    0.165
 6489.00    0.85446   0.80628    0.167
 6490.00    0.84395   0.80346    0.169
 6491.00    0.83250   0.79888    0.168
 6492.00    0.82184   0.79607    0.168
 6493.00    0.81230   0.79421    0.170
 6494.00    0.80751   0.79218    0.170
 6495.00    0.80870   0.79171    0.168
 6496.00    0.81356   0.79052    0.168
 6497.00    0.82249   0.79104    0.169
 6498.00    0.82912   0.79327    0.170
 6499.00    0.83347   0.79389    0.171
 6500.00    0.83694   0.79634    0.170
 6501.00    0.83964   0.79970    0.169
 6502.00    0.84214   0.80244    0.167
 6503.00    0.84450   0.80646    0.165
 6504.00    0.84888   0.80928    0.165
 6505.00    0.85461   0.81184    0.165
 6506.00    0.85884   0.81521    0.164
 6507.00    0.86218   0.81741    0.163
 6508.00    0.86441   0.81938    0.163
 6509.00    0.86608   0.82112    0.165
 6510.00    0.86801   0.82212    0.166
 6511.00    0.87005   0.82341    0.168
 6512.00    0.87150   0.82376    0.169
 6513.00    0.87273   0.82352    0.170
 6514.00    0.87151   0.82417    0.170
 6515.00    0.86949   0.82406    0.169
 6516.00    0.87231   0.82368    0.170
 6517.00    0.87643   0.82411    0.173
 6518.00    0.88085   0.82398    0.172
 6519.00    0.88534   0.82410    0.171
 6520.00    0.88282   0.82398    0.171
 6521.00    0.87906   0.82355    0.172
 6522.00    0.87608   0.82429    0.172
 6523.00    0.87321   0.82419    0.171
 6524.00    0.87153   0.82360    0.169
 6525.00    0.86995   0.82431    0.166
 6526.00    0.86886   0.82450    0.166
 6527.00    0.86780   0.82429    0.166
 6528.00    0.86847   0.82424    0.000
 6529.00    0.86919   0.82387    0.000
 6530.00    0.87292   0.82382    0.000
 6531.00    0.87666   0.82348    0.000
 6532.00    0.88076   0.82283    0.000
 6533.00    0.88440   0.82271    0.000
 6534.00    0.88185   0.82207    0.000
 6535.00    0.87961   0.82088    0.000
 6536.00    0.87999   0.82012    0.000
 6537.00    0.88119   0.81893    0.000
 6538.00    0.88768   0.81719    0.000
 6539.00    0.89334   0.81539    0.000
 6540.00    0.89483   0.81307    0.000
 6541.00    0.89412   0.81101    0.000
 6542.00    0.88436   0.80834    0.000
 6543.00    0.87785   0.80432    0.000
 6544.00    0.88247   0.80125    0.000
 6545.00    0.88698   0.79798    0.000
 6546.00    0.89114   0.79360    0.000
 6547.00    0.89521   0.78931    0.000
 6548.00    0.89908   0.78383    0.000
 6549.00    0.90152   0.77863    0.000
 6550.00    0.90093   0.77379    0.000
 6551.00    0.89671   0.76658    0.000
 6552.00    0.88583   0.75981    0.000
 6553.00    0.87473   0.75419    0.000
 6554.00    0.86326   0.74746    0.000
 6555.00    0.85154   0.74097    0.000
 6556.00    0.83945   0.73371    0.000
 6557.00    0.83087   0.72689    0.000
 6558.00    0.82664   0.72298    0.000
 6559.00    0.82658   0.71644    0.000
 6560.00    0.83109   0.70992    0.000
 6561.00    0.83692   0.70986    0.000
 6562.00    0.84403   0.70935    0.000
 6563.00    0.84605   0.70779    0.000
 6564.00    0.84371   0.70936    0.000
 6565.00    0.83896   0.71155    0.000
 6566.00    0.83239   0.71518    0.000
 6567.00    0.83350   0.71889    0.000
 6568.00    0.83968   0.72218    0.000
 6569.00    0.84364   0.72929    0.000
 6570.00    0.84631   0.73660    0.000
 6571.00    0.84608   0.74148    0.000
 6572.00    0.84439   0.74758    0.000
 6573.00    0.84261   0.75436    0.000
 6574.00    0.84078   0.75957    0.000
 6575.00    0.84297   0.76444    0.000
 6576.00    0.84665   0.76983    0.000
 6577.00    0.85377   0.77423    0.000
 6578.00    0.86197   0.77785    0.000
 6579.00    0.87837   0.78169    0.000
 6580.00    0.89694   0.78472    0.000
 6581.00    0.91585   0.78756    0.000
 6582.00    0.93483   0.79009    0.000
 6583.00    0.93886   0.79142    0.000
 6584.00    0.94033   0.79310    0.000
 6585.00    0.93122   0.79459    0.000
 6586.00    0.92074   0.79478    0.000
 6587.00    0.90750   0.79523    0.000
 6588.00    0.89400   0.79602    0.000
 6589.00    0.88186   0.79608    0.000
 6590.00    0.86980   0.79542    0.000
 6591.00    0.86021   0.79549    0.000
 6592.00    0.85077   0.79612    0.000
 6593.00    0.84917   0.79612    0.000
 6594.00    0.84768   0.79621    0.000
 6595.00    0.84870   0.79630    0.000
 6596.00    0.84986   0.79666    0.000
 6597.00    0.85274   0.79751    0.000
 6598.00    0.85662   0.79739    0.000
 6599.00    0.86903   0.79782    0.000
 6600.00    0.88017   0.79917    0.000
 6601.00    0.88327   0.79954    0.000
 6602.00    0.88436   0.79983    0.000
 6603.00    0.87549   0.80037    0.000
 6604.00    0.86650   0.80088    0.000
 6605.00    0.85701   0.80167    0.000
 6606.00    0.84940   0.80185    0.000
 6607.00    0.84801   0.80224    0.000
 6608.00    0.84708   0.80329    0.000
 6609.00    0.84743   0.80399    0.170
 6610.00    0.85001   0.80426    0.171
 6611.00    0.85795   0.80466    0.171
 6612.00    0.86479   0.80584    0.170
 6613.00    0.86936   0.80661    0.171
 6614.00    0.87217   0.80659    0.171
 6615.00    0.87178   0.80727    0.170
 6616.00    0.87207   0.80798    0.169
 6617.00    0.87344   0.80820    0.168
 6618.00    0.87643   0.80803    0.168
 6619.00    0.88165   0.80749    0.168
 6620.00    0.88322   0.80757    0.168
 6621.00    0.88031   0.80696    0.168
 6622.00    0.87602   0.80549    0.169
 6623.00    0.87024   0.80510    0.170
 6624.00    0.86495   0.80424    0.170
 6625.00    0.86012   0.80272    0.169
 6626.00    0.86064   0.80187    0.170
 6627.00    0.86565   0.80058    0.171
 6628.00    0.86546   0.79937    0.172
 6629.00    0.86142   0.79855    0.172
 6630.00    0.85749   0.79712    0.173
 6631.00    0.85364   0.79640    0.173
 6632.00    0.85087   0.79622    0.174
 6633.00    0.84871   0.79539    0.176
 6634.00    0.84787   0.79496    0.174
 6635.00    0.84768   0.79504    0.172
 6636.00    0.84865   0.79478    0.171
 6637.00    0.85011   0.79435    0.171
 6638.00    0.85085   0.79453    0.169
 6639.00    0.85133   0.79490    0.167
 6640.00    0.85175   0.79461    0.166
 6641.00    0.85216   0.79469    0.167
 6642.00    0.84847   0.79521    0.166
 6643.00    0.84371   0.79535    0.166
 6644.00    0.84686   0.79544    0.166
 6645.00    0.85167   0.79525    0.168
 6646.00    0.85148   0.79538    0.168
 6647.00    0.85046   0.79585    0.168
 6648.00    0.84803   0.79518    0.168
 6649.00    0.84542   0.79477    0.167
 6650.00    0.85181   0.79511    0.170
 6651.00    0.85899   0.79461    0.173
 6652.00    0.85946   0.79402    0.173
 6653.00    0.85959   0.79368    0.172
 6654.00    0.85606   0.79290    0.172
 6655.00    0.85246   0.79237    0.172
 6656.00    0.84898   0.79174    0.171
 6657.00    0.84539   0.79048    0.170
 6658.00    0.83967   0.78991    0.170
 6659.00    0.83431   0.78950    0.171
 6660.00    0.83335   0.78819    0.169
 6661.00    0.83233   0.78764    0.168
 6662.00    0.83073   0.78755    0.168
 6663.00    0.82997   0.78682    0.167
 6664.00    0.83444   0.78659    0.166
 6665.00    0.83876   0.78642    0.166
 6666.00    0.84238   0.78616    0.167
 6667.00    0.84627   0.78650    0.168
 6668.00    0.85120   0.78623    0.169
 6669.00    0.85489   0.78591    0.169
 6670.00    0.85450   0.78659    0.169
 6671.00    0.85313   0.78628    0.170
 6672.00    0.84905   0.78548    0.171
 6673.00    0.84793   0.78616    0.173
 6674.00    0.85384   0.78598    0.176
 6675.00    0.85513   0.78481    0.178
 6676.00    0.84692   0.78525    0.176
 6677.00    0.83999   0.78540    0.174
 6678.00    0.83533   0.78476    0.175
 6679.00    0.83467   0.78491    0.175
 6680.00    0.84024   0.78486    0.173
 6681.00    0.84279   0.78503    0.171
 6682.00    0.84118   0.78524    0.171
 6683.00    0.84277   0.78488    0.171
 6684.00    0.84823   0.78540    0.171
 6685.00    0.85519   0.78596    0.171
 6686.00    0.86375   0.78567    0.168
 6687.00    0.87036   0.78581    0.168
 6688.00    0.87514   0.78623    0.169
 6689.00    0.87273   0.78606    0.170
 6690.00    0.86436   0.78555    0.170
 6691.00    0.85773   0.78561    0.171
 6692.00    0.85236   0.78539    0.172
 6693.00    0.84669   0.78450    0.173
 6694.00    0.84082   0.78441    0.175
 6695.00    0.83725   0.78406    0.175
 6696.00    0.83495   0.78330    0.000
 6697.00    0.83329   0.78322    0.000
 6698.00    0.83196   0.78252    0.000
 6699.00    0.83440   0.78200    0.000
 6700.00    0.83844   0.78194    0.000
 6701.00    0.84410   0.78086    0.000
 6702.00    0.85035   0.78049    0.000
 6703.00    0.85140   0.78044    0.000
 6704.00    0.85086   0.77916    0.000
 6705.00    0.85115   0.77869    0.000
 6706.00    0.85165   0.77832    0.000
 6707.00    0.85169   0.77686    0.000
 6708.00    0.85164   0.77608    0.000
 6709.00    0.85041   0.77517    0.000
 6710.00    0.84900   0.77380    0.000
 6711.00    0.84897   0.77279    0.000
 6712.00    0.84910   0.77150    0.000
 6713.00    0.85479   0.77065    0.000
 6714.00    0.86094   0.76992    0.000
 6715.00    0.87108   0.76870    0.000
 6716.00    0.88140   0.76837    0.000
 6717.00    0.87875   0.76830    0.000
 6718.00    0.87573   0.76785    0.000
 6719.00    0.86227   0.76783    0.000
 6720.00    0.84899   0.76803    0.000
 6721.00    0.83897   0.76862    0.000
 6722.00    0.82981   0.76908    0.000
 6723.00    0.83044   0.76929    0.000
 6724.00    0.83205   0.77038    0.000
 6725.00    0.84145   0.77118    0.000
 6726.00    0.85039   0.77143    0.000
 6727.00    0.85652   0.77224    0.000
 6728.00    0.86225   0.77283    0.000
 6729.00    0.86606   0.77306    0.000
 6730.00    0.86971   0.77337    0.000
 6731.00    0.87271   0.77329    0.000
 6732.00    0.87228   0.77324    0.000
 6733.00    0.86078   0.77317    0.000
 6734.00    0.85107   0.77258    0.000
 6735.00    0.84621   0.77224    0.000
 6736.00    0.84205   0.77172    0.000
 6737.00    0.83948   0.77078    0.000
 6738.00    0.83721   0.77036    0.000
 6739.00    0.83555   0.76969    0.000
 6740.00    0.83457   0.76861    0.000
 6741.00    0.83481   0.76806    0.000
 6742.00    0.83280   0.76754    0.000
 6743.00    0.82735   0.76678    0.000
 6744.00    0.82353   0.76607    0.000
 6745.00    0.82195   0.76593    0.000
 6746.00    0.82090   0.76582    0.000
 6747.00    0.82051   0.76512    0.000
 6748.00    0.82013   0.76547    0.000
 6749.00    0.81976   0.76599    0.000
 6750.00    0.81650   0.76578    0.000
 6751.00    0.81055   0.76657    0.000
 6752.00    0.80954   0.76727    0.000
 6753.00    0.81255   0.76766    0.181
 6754.00    0.81472   0.76884    0.185
 6755.00    0.81630   0.76937    0.188
 6756.00    0.81947   0.77000    0.191
 6757.00    0.82365   0.77123    0.194
 6758.00    0.83296   0.77141    0.195
 6759.00    0.84510   0.77198    0.196
 6760.00    0.87105   0.77294    0.199
 6761.00    0.90362   0.77264    0.204
 6762.00    0.93682   0.77284    0.209
 6763.00    0.97028   0.77357    0.215
 6764.00    0.97829   0.77311    0.214
 6765.00    0.97729   0.77289    0.211
 6766.00    0.97818   0.77335    0.207
 6767.00    0.97964   0.77311    0.204
 6768.00    0.96515   0.77295    0.201
 6769.00    0.94671   0.77319    0.199
 6770.00    0.92955   0.77315    0.193
 6771.00    0.91263   0.77325    0.186
 6772.00    0.90684   0.77330    0.185
 6773.00    0.90280   0.77335    0.184
 6774.00    0.88956   0.77351    0.182
 6775.00    0.87526   0.77331    0.181
 6776.00    0.86382   0.77308    0.181
 6777.00    0.85261   0.77291    0.182
 6778.00    0.87446   0.77245    0.187
 6779.00    0.89776   0.77200    0.193
 6780.00    0.88963   0.77132    0.196
 6781.00    0.88103   0.77058    0.199
 6782.00    0.86563   0.77020    0.195
 6783.00    0.85164   0.76935    0.190
 6784.00    0.86335   0.76844    0.193
 6785.00    0.87440   0.76815    0.195
 6786.00    0.87818   0.76753    0.194
 6787.00    0.88085   0.76672    0.192
 6788.00    0.87501   0.76663    0.190
 6789.00    0.87060   0.76640    0.188
 6790.00    0.87462   0.76593    0.190
 6791.00    0.87667   0.76612    0.190
 6792.00    0.86957   0.76607    0.187
 6793.00    0.86593   0.76605    0.185
 6794.00    0.87531   0.76655    0.185
 6795.00    0.87909   0.76646    0.185
 6796.00    0.86519   0.76680    0.185
 6797.00    0.85740   0.76736    0.184
 6798.00    0.86599   0.76688    0.186
 6799.00    0.87194   0.76747    0.187
 6800.00    0.87183   0.76799    0.188
 6801.00    0.87001   0.76720    0.189
 6802.00    0.86481   0.76787    0.190
 6803.00    0.86077   0.76818    0.191
 6804.00    0.85878   0.76735    0.191
 6805.00    0.85657   0.76797    0.191
 6806.00    0.85406   0.76794    0.189
 6807.00    0.85097   0.76745    0.187
 6808.00    0.84711   0.76788    0.184
 6809.00    0.84595   0.76739    0.182
 6810.00    0.84796   0.76744    0.184
 6811.00    0.84962   0.76793    0.184
 6812.00    0.85092   0.76729    0.184
 6813.00    0.85631   0.76760    0.185
 6814.00    0.86544   0.76804    0.187
 6815.00    0.86537   0.76761    0.189
 6816.00    0.85789   0.76813    0.188
 6817.00    0.85553   0.76854    0.187
 6818.00    0.85678   0.76838    0.185
 6819.00    0.86095   0.76879    0.184
 6820.00    0.86695   0.76913    0.184
 6821.00    0.87406   0.76922    0.185
 6822.00    0.88179   0.76928    0.187
 6823.00    0.88207   0.76934    0.187
 6824.00    0.87886   0.76950    0.188
 6825.00    0.87555   0.76951    0.188
 6826.00    0.87220   0.76939    0.188
 6827.00    0.86958   0.76911    0.188
 6828.00    0.86720   0.76883    0.188
 6829.00    0.86897   0.76860    0.189
 6830.00    0.87195   0.76799    0.189
 6831.00    0.88453   0.76746    0.188
 6832.00    0.89944   0.76694    0.186
 6833.00    0.89212   0.76594    0.185
 6834.00    0.88045   0.76526    0.184
 6835.00    0.87044   0.76449    0.184
 6836.00    0.86069   0.76339    0.184
 6837.00    0.86586   0.76274    0.188
 6838.00    0.87271   0.76205    0.192
 6839.00    0.87111   0.76142    0.193
 6840.00    0.86888   0.76088    0.194
 6841.00    0.85937   0.76018    0.192
 6842.00    0.84957   0.75997    0.190
 6843.00    0.84577   0.75968    0.188
 6844.00    0.84211   0.75928    0.187
 6845.00    0.84224   0.75930    0.186
 6846.00    0.84251   0.75891    0.186
 6847.00    0.84507   0.75889    0.186
 6848.00    0.84767   0.75895    0.187
 6849.00    0.85071   0.75801    0.185
 6850.00    0.85299   0.75811    0.184
 6851.00    0.84965   0.75821    0.184
 6852.00    0.84567   0.75701    0.184
 6853.00    0.83810   0.75710    0.182
 6854.00    0.83221   0.75700    0.181
 6855.00    0.83393   0.75570    0.180
 6856.00    0.83373   0.75557    0.180
 6857.00    0.82642   0.75546    0.182
 6858.00    0.81826   0.75481    0.183
 6859.00    0.80748   0.75463    0.183
 6860.00    0.80203   0.75430    0.184
 6861.00    0.81064   0.75423    0.185
 6862.00    0.81959   0.75414    0.186
 6863.00    0.82934   0.75373    0.186
 6864.00    0.83380   0.75418    0.187
 6865.00    0.82795   0.75442    0.190
 6866.00    0.82592   0.75400    0.191
 6867.00    0.83040   0.75442    0.191
 6868.00    0.83461   0.75495    0.191
 6869.00    0.83841   0.75485    0.192
 6870.00    0.84002   0.75508    0.192
 6871.00    0.83874   0.75563    0.188
 6872.00    0.83891   0.75603    0.185
 6873.00    0.84075   0.75622    0.183
 6874.00    0.84004   0.75657    0.182
 6875.00    0.83672   0.75723    0.180
 6876.00    0.83335   0.75750    0.180
 6877.00    0.82993   0.75768    0.180
 6878.00    0.82912   0.75859    0.182
 6879.00    0.83038   0.75930    0.184
 6880.00    0.83287   0.75936    0.185
 6881.00    0.83621   0.76014    0.186
 6882.00    0.84113   0.76125    0.187
 6883.00    0.84702   0.76156    0.188
 6884.00    0.85234   0.76218    0.189
 6885.00    0.85737   0.76339    0.190
 6886.00    0.86071   0.76395    0.190
 6887.00    0.86325   0.76453    0.190
 6888.00    0.85889   0.76558    0.189
 6889.00    0.85177   0.76621    0.188
 6890.00    0.84564   0.76683    0.188
 6891.00    0.83985   0.76751    0.189
 6892.00    0.83541   0.76807    0.189
 6893.00    0.83135   0.76884    0.188
 6894.00    0.83650   0.76912    0.186
 6895.00    0.84383   0.76939    0.184
 6896.00    0.84309   0.77017    0.184
 6897.00    0.84081   0.77035    0.183
 6898.00    0.84518   0.77049    0.184
 6899.00    0.85053   0.77092    0.184
 6900.00    0.85532   0.77102    0.184
 6901.00    0.86004   0.77127    0.184
 6902.00    0.86630   0.77129    0.187
 6903.00    0.87266   0.77130    0.191
 6904.00    0.86103   0.77156    0.190
 6905.00    0.84875   0.77105    0.189
 6906.00    0.84763   0.77104    0.188
 6907.00    0.84651   0.77123    0.187
 6908.00    0.84441   0.77020    0.187
 6909.00    0.84196   0.77015    0.187
 6910.00    0.83410   0.77020    0.185
 6911.00    0.82727   0.76900    0.183
 6912.00    0.83067   0.76895    0.184
 6913.00    0.83362   0.76873    0.185
 6914.00    0.83337   0.76768    0.183
 6915.00    0.83348   0.76774    0.181
 6916.00    0.83555   0.76729    0.181
 6917.00    0.83678   0.76655    0.181
 6918.00    0.83434   0.76669    0.183
 6919.00    0.83109   0.76618    0.184
 6920.00    0.82492   0.76579    0.184
 6921.00    0.82038   0.76603    0.185
 6922.00    0.82076   0.76566    0.185
 6923.00    0.82334   0.76555    0.186
 6924.00    0.83157   0.76570    0.189
 6925.00    0.83470   0.76557    0.190
 6926.00    0.82652   0.76571    0.190
 6927.00    0.82412   0.76574    0.191
 6928.00    0.83287   0.76583    0.192
 6929.00    0.83969   0.76619    0.193
 6930.00    0.84325   0.76613    0.193
 6931.00    0.84724   0.76636    0.193
 6932.00    0.85187   0.76675    0.191
 6933.00    0.85190   0.76658    0.189
 6934.00    0.84596   0.76690    0.187
 6935.00    0.84172   0.76720    0.187
 6936.00    0.83940   0.76679    0.188
 6937.00    0.84015   0.76712    0.189
 6938.00    0.84401   0.76735    0.188
 6939.00    0.84537   0.76671    0.188
 6940.00    0.84451   0.76703    0.189
 6941.00    0.84070   0.76718    0.190
 6942.00    0.83459   0.76635    0.192
 6943.00    0.83347   0.76668    0.192
 6944.00    0.83577   0.76681    0.190
 6945.00    0.83227   0.76594    0.191
 6946.00    0.82525   0.76636    0.193
 6947.00    0.82640   0.76662    0.193
 6948.00    0.83184   0.76597    0.193
 6949.00    0.83703   0.76651    0.193
 6950.00    0.84210   0.76686    0.193
 6951.00    0.84431   0.76658    0.193
 6952.00    0.84540   0.76738    0.192
 6953.00    0.83931   0.76778    0.190
 6954.00    0.83082   0.76777    0.188
 6955.00    0.83618   0.76882    0.189
 6956.00    0.84542   0.76927    0.190
 6957.00    0.84497   0.76938    0.190
 6958.00    0.84228   0.77056    0.188
 6959.00    0.84428   0.77105    0.189
 6960.00    0.84716   0.77107    0.190
 6961.00    0.84529   0.77209    0.190
 6962.00    0.84274   0.77235    0.190
 6963.00    0.83452   0.77212    0.191
 6964.00    0.82571   0.77285    0.192
 6965.00    0.83338   0.77275    0.194
 6966.00    0.84214   0.77202    0.196
 6967.00    0.83813   0.77227    0.196
 6968.00    0.83370   0.77185    0.196
 6969.00    0.83810   0.77056    0.195
 6970.00    0.84230   0.77020    0.194
 6971.00    0.84050   0.76969    0.194
 6972.00    0.83925   0.76831    0.193
 6973.00    0.84604   0.76767    0.192
 6974.00    0.85042   0.76725    0.191
 6975.00    0.83161   0.76619    0.189
 6976.00    0.81453   0.76576    0.188
 6977.00    0.80942   0.76566    0.189
 6978.00    0.80639   0.76525    0.190
 6979.00    0.81455   0.76541    0.190
 6980.00    0.82120   0.76572    0.190
 6981.00    0.82134   0.76595    0.191
 6982.00    0.82323   0.76670    0.193
 6983.00    0.83125   0.76734    0.194
 6984.00    0.83652   0.76797    0.195
 6985.00    0.83355   0.76888    0.195
 6986.00    0.83312   0.76953    0.195
 6987.00    0.83910   0.77013    0.196
 6988.00    0.84144   0.77079    0.197
 6989.00    0.83583   0.77124    0.198
 6990.00    0.83326   0.77147    0.198
 6991.00    0.83643   0.77151    0.198
 6992.00    0.83823   0.77166    0.197
 6993.00    0.83774   0.77161    0.195
 6994.00    0.83666   0.77113    0.195
 6995.00    0.83474   0.77085    0.195
 6996.00    0.83410   0.77046    0.194
 6997.00    0.83511   0.76974    0.191
 6998.00    0.83733   0.76925    0.191
 6999.00    0.84093   0.76868    0.194
 7000.00    0.83616   0.76800    0.195
 7001.00    0.82310   0.76749    0.194
 7002.00    0.80157   0.76684    0.195
 7003.00    0.77261   0.76632    0.196
 7004.00    0.77418   0.76586    0.199
 7005.00    0.79928   0.76532    0.202
 7006.00    0.80384   0.76504    0.204
 7007.00    0.79448   0.76447    0.204
 7008.00    0.79026   0.76399    0.204
 7009.00    0.78908   0.76408    0.203
 7010.00    0.79587   0.76357    0.201
 7011.00    0.80678   0.76318    0.200
 7012.00    0.80639   0.76343    0.199
 7013.00    0.80092   0.76300    0.199
 7014.00    0.79946   0.76278    0.199
 7015.00    0.79953   0.76309    0.199
 7016.00    0.79333   0.76285    0.197
 7017.00    0.78506   0.76299    0.196
 7018.00    0.78817   0.76342    0.197
 7019.00    0.79441   0.76339    0.200
 7020.00    0.79500   0.76380    0.201
 7021.00    0.79431   0.76437    0.202
 7022.00    0.79962   0.76465    0.203
 7023.00    0.80601   0.76520    0.204
 7024.00    0.80034   0.76593    0.205
 7025.00    0.79300   0.76653    0.206
 7026.00    0.80525   0.76701    0.210
 7027.00    0.81944   0.76792    0.214
 7028.00    0.81982   0.76893    0.211
 7029.00    0.81933   0.76924    0.208
 7030.00    0.81650   0.77024    0.208
 7031.00    0.81365   0.77165    0.209
 7032.00    0.82033   0.77195    0.207
 7033.00    0.82662   0.77309    0.206
 7034.00    0.82173   0.77474    0.206
 7035.00    0.81686   0.77506    0.206
 7036.00    0.81201   0.77627    0.204
 7037.00    0.80753   0.77791    0.203
 7038.00    0.80653   0.77828    0.205
 7039.00    0.80593   0.77945    0.206
 7040.00    0.80804   0.78071    0.207
 7041.00    0.81213   0.78080    0.208
 7042.00    0.82651   0.78158    0.209
 7043.00    0.84047   0.78200    0.210
 7044.00    0.85262   0.78136    0.211
 7045.00    0.85841   0.78137    0.213
 7046.00    0.84206   0.78067    0.214
 7047.00    0.82984   0.77904    0.215
 7048.00    0.82973   0.77794    0.215
 7049.00    0.82834   0.77616    0.214
 7050.00    0.82373   0.77365   -2.000
 7051.00    0.82704   0.77151   -2.000
 7052.00    0.84739   0.76902   -2.000
 7053.00    0.86024   0.76611   -2.000
 7054.00    0.85910   0.76338   -2.000
 7055.00    0.85978   0.76081   -2.000
 7056.00    0.86343   0.75806   -2.000
 7057.00    0.85919   0.75531   -2.000
 7058.00    0.84364   0.75327   -2.000
 7059.00    0.84225   0.75118   -2.000
 7060.00    0.85866   0.74894   -2.000
 7061.00    0.86627   0.74775   -2.000
 7062.00    0.86411   0.74649   -2.000
 7063.00    0.86521   0.74505   -2.000
 7064.00    0.86950   0.74475   -2.000
 7065.00    0.86787   0.74423   -2.000
 7066.00    0.86112   0.74361   -2.000
 7067.00    0.85802   0.74394   -2.000
 7068.00    0.85768   0.74393   -2.000
 7069.00    0.85740   0.74385   -2.000
 7070.00    0.85716   0.74437   -2.000
 7071.00    0.87891   0.74448   -2.000
 7072.00    0.91354   0.74440   -2.000
 7073.00    0.92506   0.74454   -2.000
 7074.00    0.92481   0.74441   -2.000
 7075.00    0.91515   0.74381   -2.000
 7076.00    0.90134   0.74311   -2.000
 7077.00    0.90798   0.74238   -2.000
 7078.00    0.92239   0.74087   -2.000
 7079.00    0.91803   0.73921   -2.000
 7080.00    0.90762   0.73784   -2.000
 7081.00    0.89751   0.73541   -2.000
 7082.00    0.88747   0.73304   -2.000
 7083.00    0.87835   0.73125   -2.000
 7084.00    0.86944   0.72837   -2.000
 7085.00    0.84980   0.72588   -2.000
 7086.00    0.82828   0.72409   -2.000
 7087.00    0.84534   0.72142   -2.000
 7088.00    0.86757   0.71944   -2.000
 7089.00    0.84932   0.71810   -2.000
 7090.00    0.82723   0.71620   -2.000
 7091.00    0.82599   0.71509   -2.000
 7092.00    0.82598   0.71442   -2.000
 7093.00    0.82269   0.71358   -2.000
 7094.00    0.81941   0.71334   -2.000
 7095.00    0.82819   0.71330   -2.000
 7096.00    0.83570   0.71336   -2.000
 7097.00    0.81139   0.71371   -2.000
 7098.00    0.78837   0.71409   -2.000
 7099.00    0.78259   0.71466   -2.000
 7100.00    0.77722   0.71518   -2.000
 7101.00    0.77547   0.71570   -2.000
 7102.00    0.77475   0.71637   -2.000
 7103.00    0.78078   0.71680   -2.000
 7104.00    0.78506   0.71725   -2.000
 7105.00    0.78040   0.71775   -2.000
 7106.00    0.77463   0.71798   -2.000
 7107.00    0.76431   0.71826   -2.000
 7108.00    0.75628   0.71854   -2.000
 7109.00    0.75606   0.71862   -2.000
 7110.00    0.75587   0.71871   -2.000
 7111.00    0.75573   0.71879   -2.000
 7112.00    0.75678   0.71875   -2.000
 7113.00    0.76073   0.71861   -2.000
 7114.00    0.76465   0.71852   -2.000
 7115.00    0.76848   0.71831   -2.000
 7116.00    0.77106   0.71786   -2.000
 7117.00    0.77130   0.71757   -2.000
 7118.00    0.77702   0.71710   -2.000
 7119.00    0.79153   0.71633   -2.000
 7120.00    0.80808   0.71583   -2.000
 7121.00    0.82749   0.71502   -2.000
 7122.00    0.83447   0.71407   -2.000
 7123.00    0.82603   0.71349   -2.000
 7124.00    0.82573   0.71242   -2.000
 7125.00    0.83432   0.71155   -2.000
 7126.00    0.81977   0.71114   -2.000
 7127.00    0.78289   0.71003   -2.000
 7128.00    0.77982   0.70957   -2.000
 7129.00    0.80548   0.70953   -2.000
 7130.00    0.81817   0.70857   -2.000
 7131.00    0.82114   0.70870   -2.000
 7132.00    0.82117   0.70910   -2.000
 7133.00    0.81929   0.70835   -2.000
 7134.00    0.80533   0.70902   -2.000
 7135.00    0.78442   0.70971   -2.000
 7136.00    0.76907   0.70906   -2.000
 7137.00    0.75651   0.71004   -2.000
 7138.00    0.77397   0.71081   -2.000
 7139.00    0.80448   0.71013   -2.000
 7140.00    0.81521   0.71118   -2.000
 7141.00    0.81859   0.71190   -2.000
 7142.00    0.80246   0.71117   -2.000
 7143.00    0.78017   0.71219   -2.000
 7144.00    0.77025   0.71286   -2.000
 7145.00    0.76360   0.71224   -2.000
 7146.00    0.76794   0.71322   -2.000
 7147.00    0.77465   0.71392   -2.000
 7148.00    0.77725   0.71360   -2.000
 7149.00    0.77914   0.71452   -2.000
 7150.00    0.77584   0.71527   -2.000
 7151.00    0.77187   0.71530   -2.000
 7152.00    0.77693   0.71603   -2.000
 7153.00    0.78281   0.71672   -2.000
 7154.00    0.79787   0.71696   -2.000
 7155.00    0.81344   0.71735   -2.000
 7156.00    0.79866   0.71786   -2.000
 7157.00    0.78344   0.71814   -2.000
 7158.00    0.78615   0.71816   -2.000
 7159.00    0.78955   0.71847   -2.000
 7160.00    0.80852   0.71875   -2.000
 7161.00    0.82574   0.71853   -2.000
 7162.00    0.82083   0.71879   -2.000
 7163.00    0.81747   0.71913   -2.000
 7164.00    0.82735   0.71888   -2.000
 7165.00    0.83433   0.71922   -2.000
 7166.00    0.82288   0.71968   -2.000
 7167.00    0.81785   0.71950   -2.000
 7168.00    0.84461   0.71993   -2.000
 7169.00    0.86173   0.72040   -2.000
 7170.00    0.84009   0.72020   -2.000
 7171.00    0.81935   0.72059   -2.000
 7172.00    0.80162   0.72084   -2.000
 7173.00    0.78842   0.72047   -2.000
 7174.00    0.78797   0.72067   -2.000
 7175.00    0.79262   0.72049   -2.000
 7176.00    0.80959   0.71989   -2.000
 7177.00    0.82698   0.71986   -2.000
 7178.00    0.84523   0.71920   -2.000
 7179.00    0.84795   0.71846   -2.000
 7180.00    0.82255   0.71831   -2.000
 7181.00    0.80193   0.71730   -2.000
 7182.00    0.78887   0.71665   -2.000
 7183.00    0.77824   0.71653   -2.000
 7184.00    0.77098   0.71541   -2.000
 7185.00    0.75529   0.71501   -2.000
 7186.00    0.72928   0.71506   -2.000
 7187.00    0.72884   0.71409   -2.000
 7188.00    0.75596   0.71402   -2.000
 7189.00    0.76663   0.71430   -2.000
 7190.00    0.76166   0.71362   -2.000
 7191.00    0.75919   0.71380   -2.000
 7192.00    0.75879   0.71424   -2.000
 7193.00    0.75955   0.71388   -2.000
 7194.00    0.76116   0.71415   -2.000
 7195.00    0.76252   0.71459   -2.000
 7196.00    0.76372   0.71449   -2.000
 7197.00    0.76300   0.71469   -2.000
 7198.00    0.76117   0.71495   -2.000
 7199.00    0.77130   0.71505   -2.000
 7200.00    0.78732   0.71512   -2.000
 7201.00    0.79391   0.71514   -2.000
 7202.00    0.79646   0.71545   -2.000
 7203.00    0.79097   0.71547   -2.000
 7204.00    0.78254   0.71535   -2.000
 7205.00    0.76141   0.71595   -2.000
 7206.00    0.73635   0.71609   -2.000
 7207.00    0.73447   0.71601   -2.000
 7208.00    0.73857   0.71696   -2.000
 7209.00    0.74177   0.71739   -2.000
 7210.00    0.74478   0.71751   -2.000
 7211.00    0.73203   0.71875   -2.000
 7212.00    0.71666   0.71953   -2.000
 7213.00    0.73101   0.71994   -2.000
 7214.00    0.74909   0.72131   -2.000
 7215.00    0.74555   0.72240   -2.000
 7216.00    0.74015   0.72309   -2.000
 7217.00    0.74235   0.72439   -2.000
 7218.00    0.74494   0.72569   -2.000
