###################################################################
## OUTPUT of StarlightChains_v04.for    [Cid@UFSC - 01/Apr/2007] ##
###################################################################

## Some input info
KUG0210-078._53_30.txt                   [arq_obs]
Base.CB07.vall.4m                        [arq_base]
Masks.EmLines.NEW.gm                     [arq_masks]
StCv04.C11.config                        [arq_config]
   66                                    [N_base]
    0                                    [N_YAV_components = # of components with extra extinction!]
    0                                    [i_FitPowerLaw (1/0 = Yes/No)]
-9.99                                    [alpha_PowerLaw]
CCM                                      [red_law_option]
 1.458241                                [q_norm = A(l_norm)/A(V)]

## (Re)Sampling Parameters
 3741.00                                 [l_ini (A)]
 7218.00                                 [l_fin (A)]
    1.00                                 [dl    (A)]     (OBS: dl_cushion =    50.00 A)

## Normalization info
 4020.00                                 [l_norm (A) - for base]
 4010.00                                 [llow_norm (A) - window for f_obs]
 4060.00                                 [lupp_norm (A) - window for f_obs]
5.067410E-18                             [fobs_norm (in input units)]

## S/N
 3691.00                                 [llow_SN (A) - window for S/N]
 7268.00                                 [lupp_SN (A) - window for S/N]
   2.384                                 [S/N in S/N window]
   2.333                                 [S/N in norm. window]
   0.006                                 [S/N_err in S/N window]
   0.006                                 [S/N_err in norm. window]
  1.0000                                 [fscale_chi2]

## etc...
    -2007993                             [idum_orig]
  2374                                   [NOl_eff]
  2097                                   [Nl_eff]
   277    NSIGMA                         [Ntot_cliped & clip_method]
  7457520                                [Nglobal_steps]
   7                                     [N_chains]
  33                                     [NEX0s_base = N_base in EX0s-fits]
 0   0   1      277   2.0   3.785E+03    [Clip-Bug, RC-Crash & Burn-In warning-flags, n_censored_weights, wei_nsig_threshold & wei_limit]
    69     67.368     66.261      1.107  [idt_all, wdt_TotTime, wdt_UsrTime & wdt_SysTime (sec)]

## Synthesis Results - Best model ##

 1.12508E-05                             [chi2/Nl_eff]
    23.78777                             [adev (%)]

   129.99997                             [sum-of-x (%)]
 2.08244E-18                             [Flux_tot (units of input spectrum!)]
 6.48840E-14                             [Mini_tot (???)]
 3.37832E-14                             [Mcor_tot (???)]

 445.60                                  [v0_min  (km/s)]
 293.94                                  [vd_min  (km/s)]
-0.8575                                  [AV_min  (mag)]
 0.0000                                  [YAV_min (mag)]

# j     x_j(%)      Mini_j(%)     Mcor_j(%)     age_j(yr)     Z_j      (L/M)_j    YAV?  Mstars   component_j        a/Fe...       SSP_chi2r SSP_adev(%)   SSP_AV   SSP_x(%)
  1      0.0000     0.0000E+00    0.0000E+00    1.000000E+06  0.00400  1.094E-02    0   1.0000   age020_m42            0.0000     8.4354E-06    21.6931   1.4397   172.9024
  2      0.0000     0.0000E+00    0.0000E+00    3.160000E+06  0.00400  4.007E-02    0   0.9999   age045_m42            0.0000     8.6572E-06    21.7107   0.7924   179.5731
  3      0.0141     1.3738E-05    2.5034E-05    5.010000E+06  0.00400  2.539E-02    0   0.9488   age055_m42            0.0000     8.4935E-06    21.6493   1.0742   177.7605
  4      0.0000     0.0000E+00    0.0000E+00    6.610000E+06  0.00400  2.620E-02    0   0.9220   age061_m42            0.0000     8.5904E-06    21.6580   0.7198   180.0969
  5      0.0000     0.0000E+00    0.0000E+00    1.000000E+07  0.00400  1.322E-02    0   0.8862   age070_m42            0.0000     8.4561E-06    21.5296   0.4731   183.5350
  6      0.0000     0.0000E+00    0.0000E+00    1.445000E+07  0.00400  7.883E-03    0   0.8571   age078_m42            0.0000     8.4363E-06    21.5120   0.7737   180.2243
  7      0.0000     0.0000E+00    0.0000E+00    2.512000E+07  0.00400  5.251E-03    0   0.8174   age090_m42            0.0000     8.4566E-06    21.5298   0.3534   184.1174
  8      0.0000     0.0000E+00    0.0000E+00    4.000000E+07  0.00400  3.649E-03    0   0.7851   age104_m42            0.0000     8.4850E-06    21.5324   0.1384   184.7295
  9      0.0000     0.0000E+00    0.0000E+00    5.500000E+07  0.00400  3.098E-03    0   0.7629   age110_m42            0.0000     8.6554E-06    21.5698   0.2864   184.1704
 10      0.0000     0.0000E+00    0.0000E+00    1.015200E+08  0.00400  2.228E-03    0   0.7207   age116_m42            0.0000     8.7310E-06    21.6093   0.3023   184.2075
 11     13.4033     3.0275E-01    3.8655E-01    2.861200E+08  0.00400  1.093E-03    0   0.6648   age125_m42            0.0000     8.6552E-06    21.9501  -0.2340   187.8936
 12      0.0000     0.0000E+00    0.0000E+00    5.088000E+08  0.00400  6.597E-04    0   0.6365   age130_m42            0.0000     8.7667E-06    21.8795  -0.2439   188.5854
 13      0.0000     0.0000E+00    0.0000E+00    1.434000E+09  0.00400  2.132E-04    0   0.5798   age139_m42            0.0000     8.4877E-06    22.1210  -1.0000   183.3383
 14      1.7431     7.2999E-01    7.5387E-01    4.250000E+09  0.00400  5.895E-05    0   0.5377   age158_m42            0.0000     8.9210E-06    27.4710  -1.0000   160.2535
 15     40.5716     2.8537E+01    2.8566E+01    7.500000E+09  0.00400  3.510E-05    0   0.5212   age171_m42            0.0000     9.5089E-06    30.7317  -1.0000   151.6268
 16     29.8804     3.6793E+01    3.5572E+01    1.300000E+10  0.00400  2.005E-05    0   0.5034   age193_m42            0.0000     1.0227E-05    33.9105  -1.0000   144.1863
 17      0.0000     0.0000E+00    0.0000E+00    1.800000E+10  0.00400  1.525E-05    0   0.4967   age213_m42            0.0000     1.0312E-05    34.4950  -1.0000   142.7847
 18      0.0000     0.0000E+00    0.0000E+00    1.000000E+06  0.00800  1.238E-02    0   1.0000   age020_m52            0.0000     8.4432E-06    21.7010   1.4338   173.3189
 19      0.0000     0.0000E+00    0.0000E+00    3.160000E+06  0.00800  3.074E-02    0   0.9966   age045_m52            0.0000     8.4509E-06    21.6345   1.3703   174.2258
 20      0.0000     0.0000E+00    0.0000E+00    5.010000E+06  0.00800  2.668E-02    0   0.9443   age055_m52            0.0000     8.4587E-06    21.5841   1.1543   176.4921
 21      0.0000     0.0000E+00    0.0000E+00    6.610000E+06  0.00800  2.136E-02    0   0.9177   age061_m52            0.0000     8.2826E-06    21.3491  -0.0211   185.1949
 22      0.0000     0.0000E+00    0.0000E+00    1.000000E+07  0.00800  1.215E-02    0   0.8827   age070_m52            0.0000     8.4273E-06    21.6136   0.6516   183.4578
 23      0.0602     1.7043E-04    2.7993E-04    1.445000E+07  0.00800  8.717E-03    0   0.8552   age078_m52            0.0000     8.4510E-06    21.5187   0.7512   182.1104
 24      0.0000     0.0000E+00    0.0000E+00    2.512000E+07  0.00800  5.592E-03    0   0.8162   age090_m52            0.0000     8.5007E-06    21.6171   0.4257   185.7518
 25      0.0000     0.0000E+00    0.0000E+00    4.000000E+07  0.00800  3.896E-03    0   0.7841   age104_m52            0.0000     8.5611E-06    21.6759   0.3480   186.0525
 26      0.0000     0.0000E+00    0.0000E+00    1.015200E+08  0.00800  2.148E-03    0   0.7226   age116_m52            0.0000     8.5698E-06    21.6431   0.2883   184.9449
 27      0.0618     1.5378E-03    1.9739E-03    2.861200E+08  0.00800  9.925E-04    0   0.6683   age125_m52            0.0000     8.7544E-06    21.8049  -0.1760   190.3308
 28      0.0000     0.0000E+00    0.0000E+00    9.047900E+08  0.00800  3.141E-04    0   0.6138   age135_m52            0.0000     8.6912E-06    21.8170  -0.9354   194.0087
 29      0.0000     0.0000E+00    0.0000E+00    1.434000E+09  0.00800  1.719E-04    0   0.5853   age139_m52            0.0000     8.8294E-06    26.2148  -1.0000   171.7957
 30      5.1220     1.6064E+00    1.7277E+00    2.500000E+09  0.00800  7.872E-05    0   0.5600   age150_m52            0.0000     9.5383E-06    30.3132  -1.0000   156.4847
 31      0.0000     0.0000E+00    0.0000E+00    4.250000E+09  0.00800  4.336E-05    0   0.5426   age158_m52            0.0000     9.5592E-06    30.5384  -1.0000   154.3487
 32      3.9410     3.0800E+00    3.1465E+00    6.250000E+09  0.00800  3.159E-05    0   0.5319   age166_m52            0.0000     1.0376E-05    34.2040  -1.0000   145.9200
 33      0.0000     0.0000E+00    0.0000E+00    1.300000E+10  0.00800  1.361E-05    0   0.5073   age193_m52            0.0000     1.3084E-05    43.4132  -1.0000   125.7714
 34      0.0000     0.0000E+00    0.0000E+00    1.800000E+10  0.00800  9.886E-06    0   0.4990   age213_m52            0.0000     1.3925E-05    45.0591  -1.0000   120.5174
 35      0.0000     0.0000E+00    0.0000E+00    1.000000E+06  0.02000  1.544E-02    0   1.0000   age020_m62            0.0000     8.4493E-06    21.6889   1.4329   173.6692
 36      0.0000     0.0000E+00    0.0000E+00    3.160000E+06  0.02000  3.762E-02    0   0.9858   age045_m62            0.0000     8.4864E-06    21.6892   1.3689   175.3044
 37      0.0000     0.0000E+00    0.0000E+00    5.010000E+06  0.02000  3.296E-02    0   0.9342   age055_m62            0.0000     8.5549E-06    21.6760   1.0369   179.5677
 38      0.0000     0.0000E+00    0.0000E+00    8.710000E+06  0.02000  1.154E-02    0   0.8861   age067_m62            0.0000     8.2976E-06    22.4436   0.1428   189.6952
 39      1.1921     3.8406E-03    6.2491E-03    1.445000E+07  0.02000  7.663E-03    0   0.8472   age078_m62            0.0000     8.4004E-06    21.9820   0.3206   187.1148
 40      0.0000     0.0000E+00    0.0000E+00    2.512000E+07  0.02000  4.532E-03    0   0.8099   age090_m62            0.0000     8.3755E-06    22.0955   0.3180   186.3940
 41      0.0000     0.0000E+00    0.0000E+00    5.500000E+07  0.02000  2.733E-03    0   0.7595   age110_m62            0.0000     8.4501E-06    21.6354   0.3196   185.6236
 42      0.0000     0.0000E+00    0.0000E+00    1.609000E+08  0.02000  1.369E-03    0   0.6985   age120_m62            0.0000     8.7055E-06    21.6966   0.1628   189.2714
 43      0.0000     0.0000E+00    0.0000E+00    2.861200E+08  0.02000  9.013E-04    0   0.6714   age125_m62            0.0000     8.9343E-06    21.7229  -0.0707   193.0480
 44      0.0000     0.0000E+00    0.0000E+00    5.088000E+08  0.02000  5.028E-04    0   0.6449   age130_m62            0.0000     9.0968E-06    21.8086  -0.4319   195.4591
 45      0.0000     0.0000E+00    0.0000E+00    9.047900E+08  0.02000  2.428E-04    0   0.6179   age135_m62            0.0000     8.5218E-06    21.6515  -1.0000   192.7559
 46      4.0321     7.8817E-01    8.9433E-01    1.434000E+09  0.02000  1.263E-04    0   0.5908   age139_m62            0.0000     8.6169E-06    24.3311  -1.0000   173.9893
 47      5.3728     2.2163E+00    2.4148E+00    2.500000E+09  0.02000  5.985E-05    0   0.5673   age150_m62            0.0000     9.6288E-06    30.2122  -1.0000   157.2760
 48      0.0000     0.0000E+00    0.0000E+00    4.250000E+09  0.02000  3.271E-05    0   0.5468   age158_m62            0.0000     1.1012E-05    35.7642  -1.0000   143.1689
 49      1.2405     2.2520E+00    2.2348E+00    1.000000E+10  0.02000  1.360E-05    0   0.5167   age181_m62            0.0000     1.3195E-05    42.1701  -1.0000   127.8171
 50      0.0000     0.0000E+00    0.0000E+00    1.800000E+10  0.02000  7.124E-06    0   0.5013   age213_m62            0.0000     1.4919E-05    45.6256  -1.0000   117.9593
 51      2.6506     2.5247E-03    4.8480E-03    1.000000E+06  0.05000  2.592E-02    0   0.9998   age020_m72            0.0000     8.4455E-06    21.6572   1.4265   173.7594
 52      0.0000     0.0000E+00    0.0000E+00    3.160000E+06  0.05000  4.845E-02    0   0.9577   age045_m72            0.0000     8.4837E-06    21.6873   1.2675   176.5862
 53      0.0000     0.0000E+00    0.0000E+00    5.010000E+06  0.05000  3.072E-02    0   0.9147   age055_m72            0.0000     8.4338E-06    22.0494   0.8522   181.8731
 54      0.0000     0.0000E+00    0.0000E+00    6.610000E+06  0.05000  1.455E-02    0   0.8877   age061_m72            0.0000     8.5065E-06    24.5329   0.1852   191.5868
 55      0.0000     0.0000E+00    0.0000E+00    1.000000E+07  0.05000  9.074E-03    0   0.8524   age070_m72            0.0000     8.5476E-06    22.9151   1.0245   181.3223
 56      0.0000     0.0000E+00    0.0000E+00    2.512000E+07  0.05000  4.250E-03    0   0.7902   age090_m72            0.0000     8.5261E-06    22.4215   0.7622   182.8332
 57      0.0000     0.0000E+00    0.0000E+00    4.000000E+07  0.05000  3.087E-03    0   0.7618   age104_m72            0.0000     8.5591E-06    22.5222   0.5521   185.0480
 58      0.0000     0.0000E+00    0.0000E+00    1.015200E+08  0.05000  1.700E-03    0   0.7096   age116_m72            0.0000     8.6656E-06    21.8550   0.3117   188.4640
 59      0.0000     0.0000E+00    0.0000E+00    2.861200E+08  0.05000  7.384E-04    0   0.6633   age125_m72            0.0000     9.0078E-06    21.7649  -0.1973   194.4601
 60      0.0000     0.0000E+00    0.0000E+00    5.088000E+08  0.05000  3.819E-04    0   0.6372   age130_m72            0.0000     8.7753E-06    21.6329  -0.6853   196.1598
 61      0.0000     0.0000E+00    0.0000E+00    9.047900E+08  0.05000  1.676E-04    0   0.6110   age135_m72            0.0000     8.5982E-06    23.0157  -1.0000   178.3041
 62      0.0000     0.0000E+00    0.0000E+00    1.434000E+09  0.05000  8.837E-05    0   0.5874   age139_m72            0.0000     9.6163E-06    30.0718  -1.0000   159.2780
 63     10.5094     6.1294E+00    6.5901E+00    2.500000E+09  0.05000  4.233E-05    0   0.5598   age150_m72            0.0000     1.1096E-05    35.6570  -1.0000   144.3260
 64     10.2050     1.7557E+01    1.7700E+01    6.250000E+09  0.05000  1.435E-05    0   0.5249   age166_m72            0.0000     1.3951E-05    43.8990  -1.0000   123.3059
 65      0.0000     0.0000E+00    0.0000E+00    1.300000E+10  0.05000  6.513E-06    0   0.5036   age193_m72            0.0000     1.6500E-05    48.3076  -1.0000   112.5811
 66      0.0000     0.0000E+00    0.0000E+00    1.800000E+10  0.05000  4.527E-06    0   0.4945   age213_m72            0.0000     1.8143E-05    50.4858  -1.0000   105.5905


## Synthesis Results - Average & Chains ##

# j      x_j: min, <> & last-chain-values for 1 ...  7 chains
  1      0.0000     24.3862     25.6972     24.2095     22.9659     24.6836     24.7329     24.4253     21.8544
  2      0.0000      0.1061      0.4259      0.9417      0.0000      0.0369      0.5502      0.0000      0.0000
  3      0.0141      0.1533      0.2603      0.0000      0.5604      0.0450      0.0768      0.0423      0.4302
  4      0.0000      0.1626      0.2470      0.0000      0.2338      0.0000      0.0000      0.1960      0.3083
  5      0.0000      0.1772      0.0000      0.0070      0.1186      0.3851      0.1506      0.0092      0.0438
  6      0.0000      0.1477      0.0000      0.2451      0.0000      0.4483      0.1256      0.2162      0.5125
  7      0.0000      0.2232      0.0000      0.0000      0.1214      0.2800      0.8206      0.2112      0.9669
  8      0.0000      0.1681      0.0519      0.0000      0.2023      0.1448      0.1754      0.2936      0.0156
  9      0.0000      0.1241      0.2340      0.0000      0.3138      0.3484      0.2916      0.1978      0.0000
 10      0.0000      0.1168      0.3439      0.0000      0.4261      0.0000      0.1569      0.2268      0.7125
 11     13.4033      0.0912      0.0000      0.0423      0.1248      0.5128      0.1415      0.0000      0.2483
 12      0.0000      0.1997      0.0000      0.1628      0.3246      0.2254      0.5512      0.0000      0.4033
 13      0.0000      0.1227      0.1052      0.0580      0.2122      0.5333      0.2578      0.0536      0.1485
 14      1.7431      0.2072      0.2710      0.7226      0.0545      0.3163      0.1769      0.1755      0.8187
 15     40.5716      0.2000      0.3579      0.5495      0.0000      0.0000      0.2658      0.1538      0.3204
 16     29.8804      0.1415      0.0000      0.0000      0.3683      0.3596      0.0886      0.0523      0.4868
 17      0.0000      0.1449      0.0000      1.1123      0.4233      0.1670      0.3378      0.1928      0.0517
 18      0.0000      4.8269      5.0304      4.7351      4.6874      4.6830      4.9391      4.7624      4.0290
 19      0.0000      0.2134      0.4331      0.0000      0.3782      0.1137      0.4369      0.7965      0.4535
 20      0.0000      0.1107      0.3072      0.2671      0.1298      0.6715      0.0069      0.1278      0.0000
 21      0.0000      0.1122      0.0000      0.0000      0.1315      0.2712      0.1973      0.0265      0.0408
 22      0.0000      0.1474      0.2017      0.4899      0.5291      0.0000      0.2995      0.4057      0.0000
 23      0.0602      0.1417      0.3513      0.6004      0.0000      0.0950      0.0825      0.1788      0.2490
 24      0.0000      0.1388      0.2063      0.2132      0.0713      0.0000      0.3195      0.2465      0.0746
 25      0.0000      0.1183      0.0006      0.5199      0.2401      0.1226      0.0756      0.5869      0.1767
 26      0.0000      0.1721      0.0000      0.3199      0.3917      0.4564      0.3616      0.2874      0.1141
 27      0.0618      0.1292      0.0000      0.1398      0.2799      0.0000      0.0000      0.0274      0.8569
 28      0.0000      0.1182      0.0000      0.1160      0.0406      0.0035      0.2900      0.2346      0.0181
 29      0.0000      0.1567      0.7143      0.1964      0.0182      0.2625      0.1957      0.1143      0.2883
 30      5.1220      0.1307      0.1346      0.0000      0.3523      0.3582      0.2625      0.5932      0.7608
 31      0.0000      0.1414      0.4130      0.2553      0.0946      0.1354      0.1559      0.0224      0.8848
 32      3.9410      0.2119      1.6735      0.6270      0.1616      0.3384      0.4318      0.2952      2.4950
 33      0.0000      0.1814      0.5714      0.3629      0.3130      0.7378      0.0000      0.0000      0.0000
 34      0.0000     34.1836     31.7004     30.5304     32.6531     33.5805     31.7108     33.6398     31.7321
 35      0.0000      0.1442      0.5211      0.0116      0.1463      0.1798      0.4014      0.2209      0.3491
 36      0.0000      0.2012      0.3110      1.7614      0.0818      0.0000      0.3701      0.5000      0.2165
 37      0.0000      0.1621      0.1248      0.3938      0.3460      0.0877      0.0009      0.0740      0.0000
 38      0.0000      0.1353      0.1319      0.1139      0.0000      0.0000      0.2419      0.1926      1.1820
 39      1.1921      0.1538      0.2671      0.3400      1.1657      0.8384      0.2870      0.0458      0.6427
 40      0.0000      0.1408      0.0570      0.1100      0.1669      0.0000      0.1090      0.0874      0.1134
 41      0.0000      0.1104      0.0257      0.0000      0.3742      0.3208      0.0338      0.0753      0.0000
 42      0.0000      0.1940      0.0000      0.5474      0.4758      0.1907      0.1229      0.4274      0.5331
 43      0.0000      0.1516      0.2293      0.1021      0.3296      0.4717      0.0000      0.1399      0.1706
 44      0.0000      0.1588      0.0273      0.4243      0.0334      0.0605      0.0000      0.1700      0.2117
 45      0.0000      0.1157      0.3249      0.0000      0.4905      0.1523      0.3074      0.1139      0.0000
 46      4.0321      0.1215      0.1302      0.0043      0.8469      0.0879      0.1000      0.0778      0.3898
 47      5.3728      0.1271      0.4040      0.2016      0.2239      0.0719      0.0497      0.0404      0.4343
 48      0.0000      0.1681      1.5235      0.0095      0.8189      0.2898      0.0893      0.1454      0.1655
 49      1.2405      8.1870      7.2742      8.3820      8.5993      8.2142      8.2800      8.0868      7.7923
 50      0.0000     47.7371     44.2789     45.2651     44.3440     44.8010     46.3837     45.6157     42.8264
 51      2.6506      0.1131      0.0000      0.1211      0.0637      0.3260      0.2669      0.3008      0.7167
 52      0.0000      0.1307      0.0000      0.1772      0.5656      0.0000      0.3784      0.1211      0.1876
 53      0.0000      0.1388      0.2533      0.0297      0.0000      0.0000      0.1638      0.0636      0.1219
 54      0.0000      0.1489      0.3634      0.4058      0.4247      0.0000      0.2727      0.6907      0.2837
 55      0.0000      0.1527      0.3276      0.4106      0.3186      0.0000      0.0311      0.1119      0.0000
 56      0.0000      0.1970      0.0000      0.8812      0.1460      0.2084      0.2175      0.3414      0.0000
 57      0.0000      0.1631      0.5835      0.2471      0.7508      0.2978      0.0000      0.1826      0.0877
 58      0.0000      0.1274      0.0000      0.0000      0.1019      0.1096      0.0000      0.3099      0.1860
 59      0.0000      0.1895      0.8554      0.0000      0.0000      0.3064      0.2460      0.1278      0.0097
 60      0.0000      0.1429      0.0000      0.1962      0.0000      0.0000      0.0000      0.1695      0.8988
 61      0.0000      0.1525      0.1080      0.0000      0.4482      0.0584      0.1230      0.7810      0.1173
 62      0.0000      0.1245      0.2431      0.2102      0.0000      0.3887      0.2430      0.0000      0.1420
 63     10.5094      0.1290      0.0430      0.0376      0.4599      0.0277      0.1254      0.0530      1.0161
 64     10.2050      1.6043      1.4591      1.5813      1.2586      1.7688      1.5912      1.3919      1.5742
 65      0.0000      0.1604      0.4011      0.3295      0.0097      0.3665      0.7102      0.3631      0.0000
 66      0.0000      0.1495      0.0000      0.2813      0.0708      0.0589      0.1875      0.1097      0.1356

# j      m_j: min, <> & last-chain-values for 1 ...  7 chains
  1  0.0000E+00  4.0363E-02  4.5342E-02  4.2176E-02  4.0172E-02  4.2327E-02  4.2212E-02  4.1813E-02  3.9171E-02
  2  0.0000E+00  4.7921E-05  2.0513E-04  4.4784E-04  0.0000E+00  1.7284E-05  2.5637E-04  0.0000E+00  0.0000E+00
  3  2.5034E-05  1.0374E-04  1.8773E-04  0.0000E+00  4.0073E-04  3.1542E-05  5.3620E-05  2.9588E-05  3.1521E-04
  4  0.0000E+00  1.0361E-04  1.6776E-04  0.0000E+00  1.5743E-04  0.0000E+00  0.0000E+00  1.2920E-04  2.1275E-04
  5  0.0000E+00  2.1513E-04  0.0000E+00  8.9259E-06  1.5217E-04  4.8425E-04  1.8854E-04  1.1593E-05  5.7603E-05
  6  0.0000E+00  2.9070E-04  0.0000E+00  5.0783E-04  0.0000E+00  9.1441E-04  2.5497E-04  4.4019E-04  1.0927E-03
  7  0.0000E+00  6.2903E-04  0.0000E+00  0.0000E+00  3.6171E-04  8.1779E-04  2.3852E-03  6.1569E-04  2.9514E-03
  8  0.0000E+00  6.5478E-04  2.1540E-04  0.0000E+00  8.3295E-04  5.8437E-04  7.0479E-04  1.1832E-03  6.5886E-05
  9  0.0000E+00  5.5349E-04  1.1121E-03  0.0000E+00  1.4786E-03  1.6096E-03  1.3409E-03  9.1226E-04  0.0000E+00
 10  0.0000E+00  6.8430E-04  2.1471E-03  0.0000E+00  2.6376E-03  0.0000E+00  9.4735E-04  1.3740E-03  4.5191E-03
 11  3.8655E-01  1.0049E-03  0.0000E+00  4.9026E-04  1.4527E-03  5.8512E-03  1.6066E-03  0.0000E+00  2.9612E-03
 12  0.0000E+00  3.4894E-03  0.0000E+00  2.9937E-03  5.9938E-03  4.0795E-03  9.9296E-03  0.0000E+00  7.6305E-03
 13  0.0000E+00  6.0442E-03  5.5205E-03  3.0077E-03  1.1045E-02  2.7208E-02  1.3092E-02  2.7284E-03  7.9163E-03
 14  7.5387E-01  3.4214E-02  4.7712E-02  1.2562E-01  9.5156E-03  5.4131E-02  3.0131E-02  2.9977E-02  1.4642E-01
 15  2.8566E+01  5.3781E-02  1.0260E-01  1.5551E-01  0.0000E+00  0.0000E+00  7.3705E-02  4.2762E-02  9.3277E-02
 16  3.5572E+01  6.4326E-02  0.0000E+00  0.0000E+00  1.7698E-01  1.6937E-01  4.1513E-02  2.4612E-02  2.3965E-01
 17  0.0000E+00  8.5468E-02  0.0000E+00  6.9049E-01  2.6382E-01  1.0205E-01  2.0545E-01  1.1758E-01  3.3009E-02
 18  0.0000E+00  7.0600E-03  7.8437E-03  7.2896E-03  7.2455E-03  7.0963E-03  7.4491E-03  7.2044E-03  6.3815E-03
 19  0.0000E+00  1.2526E-04  2.7101E-04  0.0000E+00  2.3462E-04  6.9136E-05  2.6448E-04  4.8358E-04  2.8830E-04
 20  0.0000E+00  7.0941E-05  2.0986E-04  1.8016E-04  8.7939E-05  4.4588E-04  4.5892E-06  8.4715E-05  0.0000E+00
 21  0.0000E+00  8.7323E-05  0.0000E+00  0.0000E+00  1.0809E-04  2.1860E-04  1.5827E-04  2.1349E-05  3.4350E-05
 22  0.0000E+00  1.9385E-04  2.8290E-04  6.7828E-04  7.3562E-04  0.0000E+00  4.0632E-04  5.5204E-04  0.0000E+00
 23  2.7993E-04  2.5167E-04  6.6538E-04  1.1226E-03  0.0000E+00  1.7478E-04  1.5110E-04  3.2851E-04  4.7903E-04
 24  0.0000E+00  3.6686E-04  5.8138E-04  5.9321E-04  1.9914E-04  0.0000E+00  8.7068E-04  6.7369E-04  2.1344E-04
 25  0.0000E+00  4.3107E-04  2.3311E-06  1.9943E-03  9.2490E-04  4.6274E-04  2.8413E-04  2.2122E-03  6.9743E-04
 26  0.0000E+00  1.0484E-03  0.0000E+00  2.0512E-03  2.5219E-03  2.8801E-03  2.2713E-03  1.8107E-03  7.5234E-04
 27  1.9739E-03  1.5754E-03  0.0000E+00  1.7943E-03  3.6060E-03  0.0000E+00  0.0000E+00  3.4561E-04  1.1314E-02
 28  0.0000E+00  4.1817E-03  0.0000E+00  4.3190E-03  1.5169E-03  1.2934E-04  1.0581E-02  8.5868E-03  6.9487E-04
 29  0.0000E+00  9.6608E-03  4.6946E-02  1.2743E-02  1.1891E-03  1.6766E-02  1.2440E-02  7.2871E-03  1.9248E-02
 30  1.7277E+00  1.6830E-02  1.8477E-02  0.0000E+00  4.7955E-02  4.7799E-02  3.4873E-02  7.9029E-02  1.0612E-01
 31  0.0000E+00  3.2040E-02  9.9767E-02  6.0889E-02  2.2643E-02  3.1797E-02  3.6427E-02  5.2584E-03  2.1710E-01
 32  3.1465E+00  6.4596E-02  5.4392E-01  2.0121E-01  5.2056E-02  1.0690E-01  1.3575E-01  9.3089E-02  8.2374E-01
 33  0.0000E+00  1.2241E-01  4.1111E-01  2.5779E-01  2.2325E-01  5.1594E-01  0.0000E+00  0.0000E+00  0.0000E+00
 34  0.0000E+00  3.1243E+01  3.0887E+01  2.9370E+01  3.1540E+01  3.1798E+01  2.9886E+01  3.1800E+01  3.1407E+01
 35  0.0000E+00  1.6914E-04  6.5147E-04  1.4310E-05  1.8135E-04  2.1842E-04  4.8539E-04  2.6795E-04  4.4341E-04
 36  0.0000E+00  9.5472E-05  1.5729E-04  8.7968E-04  4.1028E-05  0.0000E+00  1.8106E-04  2.4536E-04  1.1124E-04
 37  0.0000E+00  8.3201E-05  6.8264E-05  2.1271E-04  1.8768E-04  4.6644E-05  4.9906E-07  3.9302E-05  0.0000E+00
 38  0.0000E+00  1.8808E-04  1.9546E-04  1.6670E-04  0.0000E+00  0.0000E+00  3.4684E-04  2.7699E-04  1.7796E-03
 39  6.2491E-03  3.0789E-04  5.6999E-04  7.1646E-04  2.4663E-03  1.7390E-03  5.9242E-04  9.4776E-05  1.3932E-03
 40  0.0000E+00  4.5558E-04  1.9648E-04  3.7480E-04  5.7080E-04  0.0000E+00  3.6364E-04  2.9267E-04  3.9723E-04
 41  0.0000E+00  5.5553E-04  1.3764E-04  0.0000E+00  1.9898E-03  1.6725E-03  1.7528E-04  3.9205E-04  0.0000E+00
 42  0.0000E+00  1.7919E-03  0.0000E+00  5.3228E-03  4.6455E-03  1.8250E-03  1.1707E-03  4.0840E-03  5.3334E-03
 43  0.0000E+00  2.0450E-03  3.2977E-03  1.4499E-03  4.6979E-03  6.5918E-03  0.0000E+00  1.9512E-03  2.4916E-03
 44  0.0000E+00  3.6872E-03  6.7638E-04  1.0373E-02  8.1997E-04  1.4554E-03  0.0000E+00  4.0847E-03  5.3251E-03
 45  0.0000E+00  5.3316E-03  1.5963E-02  0.0000E+00  2.3889E-02  7.2705E-03  1.4608E-02  5.4267E-03  0.0000E+00
 46  8.9433E-01  1.0292E-02  1.1752E-02  3.8328E-04  7.5807E-02  7.7148E-03  8.7298E-03  6.8194E-03  3.5752E-02
 47  2.4148E+00  2.1818E-02  7.3925E-02  3.6418E-02  4.0619E-02  1.2778E-02  8.8008E-03  7.1767E-03  8.0722E-02
 48  0.0000E+00  5.0876E-02  4.9161E-01  3.0280E-03  2.6197E-01  9.0882E-02  2.7884E-02  4.5535E-02  5.4253E-02
 49  2.2348E+00  5.6322E+00  5.3348E+00  6.0693E+00  6.2521E+00  5.8546E+00  5.8737E+00  5.7540E+00  5.8051E+00
 50  0.0000E+00  6.0825E+01  6.0146E+01  6.0706E+01  5.9713E+01  5.9141E+01  6.0942E+01  6.0115E+01  5.9092E+01
 51  4.8480E-03  7.9026E-05  0.0000E+00  8.9055E-05  4.7019E-05  2.3588E-04  1.9221E-04  2.1733E-04  5.4209E-04
 52  0.0000E+00  4.6771E-05  0.0000E+00  6.6750E-05  2.1396E-04  0.0000E+00  1.3967E-04  4.4819E-05  7.2712E-05
 53  0.0000E+00  7.4829E-05  1.4557E-04  1.6865E-05  0.0000E+00  0.0000E+00  9.1071E-05  3.5450E-05  7.1175E-05
 54  0.0000E+00  1.6452E-04  4.2793E-04  4.7188E-04  4.9590E-04  0.0000E+00  3.1070E-04  7.8915E-04  3.3939E-04
 55  0.0000E+00  2.5981E-04  5.9396E-04  7.3521E-04  5.7275E-04  0.0000E+00  5.4492E-05  1.9682E-04  0.0000E+00
 56  0.0000E+00  6.6309E-04  0.0000E+00  3.1225E-03  5.1960E-04  7.2700E-04  7.5511E-04  1.1887E-03  0.0000E+00
 57  0.0000E+00  7.2903E-04  2.7797E-03  1.1621E-03  3.5456E-03  1.3786E-03  0.0000E+00  8.4403E-04  4.2426E-04
 58  0.0000E+00  9.6315E-04  0.0000E+00  0.0000E+00  8.1383E-04  8.5828E-04  0.0000E+00  2.4228E-03  1.5224E-03
 59  0.0000E+00  3.0824E-03  1.4833E-02  0.0000E+00  0.0000E+00  5.1626E-03  4.1259E-03  2.1493E-03  1.7004E-04
 60  0.0000E+00  4.3180E-03  0.0000E+00  6.2403E-03  0.0000E+00  0.0000E+00  0.0000E+00  5.2951E-03  2.9404E-02
 61  0.0000E+00  1.0065E-02  7.6002E-03  0.0000E+00  3.1270E-02  3.9960E-03  8.3721E-03  5.3324E-02  8.3841E-03
 62  0.0000E+00  1.4985E-02  3.1189E-02  2.6631E-02  0.0000E+00  4.8467E-02  3.0160E-02  0.0000E+00  1.8504E-02
 63  6.5901E+00  3.0882E-02  1.0985E-02  9.4709E-03  1.1639E-01  6.8661E-03  3.0966E-02  1.3114E-02  2.6348E-01
 64  1.7700E+01  1.0626E+00  1.0302E+00  1.1024E+00  8.8099E-01  1.2138E+00  1.0868E+00  9.5352E-01  1.1291E+00
 65  0.0000E+00  2.2452E-01  5.9874E-01  4.8554E-01  1.4339E-02  5.3167E-01  1.0253E+00  5.2578E-01  0.0000E+00
 66  0.0000E+00  2.9578E-01  0.0000E+00  5.8554E-01  1.4801E-01  1.2064E-01  3.8239E-01  2.2444E-01  2.9036E-01

# AV, chi2 & Mass for <> & i_chain = 1 ...  7 solutions
AV      -0.8575     -0.9948     -1.0000     -1.0000     -1.0000     -1.0000     -1.0000     -1.0000     -1.0000
chi2 1.1251E-05  1.1720E-05  1.1651E-05  1.1659E-05  1.1666E-05  1.1668E-05  1.1672E-05  1.1681E-05  1.1651E-05
Mass 3.3783E-14  7.3561E-14  6.8526E-14  6.9406E-14  6.9124E-14  7.0511E-14  7.0846E-14  7.0631E-14  6.7460E-14
 445.60                                  [v0_min (km/s) before EX0s...]
 293.94                                  [vd_min (km/s) before EX0s...]


## Synthetic spectrum (Best Model) ##l_obs f_obs f_syn wei
 3478    [Nl_obs]
 3741.00    0.37091   0.67594    0.000
 3742.00    0.68862   0.68709    0.000
 3743.00    0.21405   0.70394    0.000
 3744.00   -0.01051   0.72220    0.000
 3745.00   -0.08939   0.74249    0.000
 3746.00    0.98352   0.75621   -1.000
 3747.00    2.64132   0.76077   -1.000
 3748.00    2.29653   0.75911   -1.000
 3749.00    1.07116   0.74690   -1.000
 3750.00    0.36308   0.72837   -1.000
 3751.00   -0.14971   0.71261    0.000
 3752.00    0.11786   0.69633   -1.000
 3753.00    0.63553   0.68403   -1.000
 3754.00    0.90286   0.68588   -1.000
 3755.00    1.10312   0.69623   -1.000
 3756.00    1.41191   0.71214   -1.000
 3757.00    1.74453   0.73785   -1.000
 3758.00    1.12908   0.76739   -1.000
 3759.00    0.34814   0.79286   -1.000
 3760.00   -0.18013   0.81455    0.000
 3761.00   -0.67483   0.83033    0.000
 3762.00   -0.51435   0.83827    0.000
 3763.00   -0.29230   0.84250    0.000
 3764.00   -0.11052   0.84132    0.000
 3765.00    0.06894   0.83781   -1.000
 3766.00    0.27151   0.83850   -1.000
 3767.00    0.47921   0.83592   -1.000
 3768.00    1.24251   0.83219   -1.000
 3769.00    2.00161   0.83379   -1.000
 3770.00    2.65869   0.83010   -1.000
 3771.00    3.17964   0.82385   -1.000
 3772.00    1.91664   0.82448   -1.000
 3773.00    0.81556   0.82243   -1.000
 3774.00    1.13603   0.81948   -1.000
 3775.00    1.46423   0.82700   -1.000
 3776.00    1.84259   0.83796   -1.000
 3777.00    1.98481   0.84897   -1.000
 3778.00    0.93187   0.86758   -1.000
 3779.00    0.19943   0.89002   -1.000
 3780.00    0.77882   0.91182   -1.000
 3781.00    1.11930   0.93497   -1.000
 3782.00    0.64949   0.95760   -1.000
 3783.00    0.33500   0.97883   -1.000
 3784.00    0.46471   0.99790   -1.000
 3785.00    0.51816   1.01215   -1.000
 3786.00    0.38529   1.02188   -1.000
 3787.00    0.29067   1.02664   -1.000
 3788.00    0.27666   1.02508   -1.000
 3789.00   -0.03016   1.01598    0.000
 3790.00   -0.87334   1.00089    0.000
 3791.00   -1.14340   0.98352    0.000
 3792.00   -0.49607   0.96193    0.000
 3793.00    0.19509   0.93696   -1.000
 3794.00    0.94780   0.91439   -1.000
 3795.00    1.39760   0.89237   -1.000
 3796.00    1.47300   0.86861   -1.000
 3797.00    1.20271   0.84631   -1.000
 3798.00    0.55578   0.82510   -1.000
 3799.00   -0.03619   0.80392    0.000
 3800.00   -0.57532   0.78536    0.000
 3801.00   -0.60924   0.77093    0.000
 3802.00   -0.21507   0.76263    0.000
 3803.00   -0.25475   0.76350    0.000
 3804.00   -0.61818   0.77323    0.000
 3805.00   -0.64645   0.79047    0.000
 3806.00   -0.45499   0.81594    0.000
 3807.00   -0.16458   0.84647    0.000
 3808.00    0.18263   0.87624   -1.000
 3809.00    0.40349   0.90536   -1.000
 3810.00    0.56121   0.93179   -1.000
 3811.00    0.25141   0.95160   -1.000
 3812.00   -0.26057   0.96718    0.000
 3813.00   -0.15286   0.97739    0.000
 3814.00    0.18466   0.98103   -1.000
 3815.00    0.45760   0.98125   -1.000
 3816.00    0.71023   0.97574   -1.000
 3817.00    0.47347   0.96474   -1.000
 3818.00    0.10833   0.95245   -1.000
 3819.00   -0.03769   0.93658    0.000
 3820.00   -0.13678   0.91868    0.000
 3821.00    0.37175   0.90328   -1.000
 3822.00    0.98340   0.88776   -1.000
 3823.00    0.73624   0.87227   -1.000
 3824.00    0.37886   0.85911   -1.000
 3825.00    0.81744   0.84633   -1.000
 3826.00    1.32747   0.83296   -1.000
 3827.00    0.63685   0.81894   -1.000
 3828.00   -0.11831   0.80434    0.000
 3829.00   -0.47901   0.78921    0.000
 3830.00   -0.82759   0.77249    0.000
 3831.00   -0.82119   0.75502    0.000
 3832.00   -0.77443   0.73715    0.000
 3833.00    0.16917   0.71857   -1.000
 3834.00    1.00826   0.70027   -1.000
 3835.00    0.54784   0.68072   -1.000
 3836.00    0.11855   0.66141   -1.000
 3837.00   -0.04765   0.64508    0.000
 3838.00   -0.15799   0.62905    0.000
 3839.00    0.08314   0.61660   -1.000
 3840.00    0.30882   0.61200   -1.000
 3841.00    0.45825   0.61143   -1.000
 3842.00    0.68228   0.61819   -1.000
 3843.00    1.20495   0.63498   -1.000
 3844.00    1.49814   0.65633   -1.000
 3845.00    1.02838   0.68442   -1.000
 3846.00    0.62187   0.71891   -1.000
 3847.00    0.39295   0.75369    0.000
 3848.00    0.32467   0.79007    0.000
 3849.00    0.64222   0.82551    0.000
 3850.00    0.71621   0.85554    0.000
 3851.00    0.28511   0.88226    0.000
 3852.00    0.05793   0.90383    0.000
 3853.00    0.19856   0.91840    0.000
 3854.00    0.51644   0.92926    0.000
 3855.00    1.11386   0.93654    0.000
 3856.00    1.22184   0.93834    0.000
 3857.00    0.65226   0.93752    0.000
 3858.00    0.05446   0.93549    0.000
 3859.00   -0.57774   0.92904    0.000
 3860.00   -0.50250   0.92079    0.000
 3861.00    0.33266   0.91378    0.000
 3862.00    0.64588   0.90541    0.000
 3863.00    0.46457   0.89856    0.000
 3864.00    0.66179   0.89673    0.000
 3865.00    1.17524   0.89755    0.000
 3866.00    1.22436   0.90169    0.000
 3867.00    0.93198   0.91025    0.000
 3868.00    1.06717   0.91974    0.000
 3869.00    1.47854   0.92841    0.000
 3870.00    1.40940   0.93601    0.000
 3871.00    1.06869   0.94003    0.000
 3872.00    0.65925   0.93995    0.000
 3873.00    0.21601   0.93663    0.000
 3874.00    0.18232   0.93023    0.000
 3875.00    0.32278   0.92209    0.000
 3876.00    0.19586   0.91320    0.000
 3877.00   -0.02846   0.90531    0.000
 3878.00   -0.23178   0.89847    0.000
 3879.00   -0.42863   0.89208    0.000
 3880.00   -0.23811   0.88782    0.000
 3881.00    0.05187   0.88322   -1.000
 3882.00    0.52836   0.87705   -1.000
 3883.00    1.04385   0.87139   -1.000
 3884.00    0.98457   0.86356   -1.000
 3885.00    0.83052   0.85332   -1.000
 3886.00    0.31817   0.84244   -1.000
 3887.00   -0.23854   0.82949    0.000
 3888.00   -0.24819   0.81483    0.000
 3889.00   -0.21102   0.79899    0.000
 3890.00   -0.06442   0.78391    0.000
 3891.00    0.08762   0.77064   -1.000
 3892.00    0.40095   0.75930   -1.000
 3893.00    0.70733   0.75481   -1.000
 3894.00    0.39439   0.75738   -1.000
 3895.00    0.10738   0.76480   -1.000
 3896.00    0.35078   0.77984   -1.000
 3897.00    0.61543   0.80069   -1.000
 3898.00    1.13136   0.82265   -1.000
 3899.00    1.52435   0.84550   -1.000
 3900.00    0.91571   0.86869   -1.000
 3901.00    0.46690   0.88853   -1.000
 3902.00    0.99433   0.90522   -1.000
 3903.00    1.44205   0.91998   -1.000
 3904.00    1.50614   0.93126   -1.000
 3905.00    1.44899   0.94027   -1.000
 3906.00    0.91702   0.94703   -1.000
 3907.00    0.53876   0.95323   -1.000
 3908.00    0.66148   0.95909   -1.000
 3909.00    0.73592   0.96355   -1.000
 3910.00    0.67721   0.97183   -1.000
 3911.00    0.57288   0.98128   -1.000
 3912.00    0.36085   0.99078   -1.000
 3913.00    0.17045   1.00508   -1.000
 3914.00    0.02423   1.01886   -1.000
 3915.00    0.00355   1.03124   -1.000
 3916.00    0.20588   1.04337   -1.000
 3917.00    0.60277   1.05108   -1.000
 3918.00    1.30195   1.05542   -1.000
 3919.00    1.66926   1.05469   -1.000
 3920.00    1.58372   1.04884   -1.000
 3921.00    1.43156   1.04075   -1.000
 3922.00    1.19938   1.02767   -1.000
 3923.00    0.87127   1.01204   -1.000
 3924.00    0.44155   0.99629   -1.000
 3925.00   -0.22686   0.97818    0.000
 3926.00   -1.11826   0.95886    0.000
 3927.00   -1.21439   0.93910    0.000
 3928.00   -0.65556   0.91708    0.000
 3929.00   -0.28634   0.89100    0.000
 3930.00   -0.05457   0.86136    0.000
 3931.00   -0.05532   0.82665    0.000
 3932.00   -0.20404   0.78583    0.000
 3933.00    0.21641   0.74169   -1.000
 3934.00    0.95362   0.69475   -1.000
 3935.00    0.67859   0.64790   -1.000
 3936.00   -0.08644   0.60575    0.000
 3937.00    0.05798   0.57054   -1.000
 3938.00    0.58264   0.54595   -1.000
 3939.00    1.02868   0.53460   -1.000
 3940.00    1.44660   0.53715   -1.000
 3941.00    1.15206   0.55303   -1.000
 3942.00    0.64218   0.58044   -1.000
 3943.00    1.05621   0.61712   -1.000
 3944.00    1.70230   0.65852   -1.000
 3945.00    1.32934   0.70198   -1.000
 3946.00    0.74857   0.74575   -1.000
 3947.00    1.09176   0.78556   -1.000
 3948.00    1.58289   0.82256   -1.000
 3949.00    1.32524   0.85709   -1.000
 3950.00    0.97820   0.88573   -1.000
 3951.00    1.27137   0.91275   -1.000
 3952.00    1.61668   0.93846   -1.000
 3953.00    1.28834   0.95827   -1.000
 3954.00    0.92904   0.97659   -1.000
 3955.00    0.30454   0.99350   -1.000
 3956.00   -0.30756   1.00456    0.000
 3957.00   -0.09493   1.01283    0.000
 3958.00    0.14459   1.01723   -1.000
 3959.00    0.89340   1.01620   -1.000
 3960.00    1.59114   1.01293    0.000
 3961.00    1.71320   1.00261    0.000
 3962.00    1.72420   0.98482    0.000
 3963.00    0.86221   0.96458    0.000
 3964.00    0.11303   0.93632    0.000
 3965.00    0.03319   0.89939    0.000
 3966.00   -0.04581   0.85830    0.000
 3967.00   -0.12091   0.81047    0.000
 3968.00   -0.12184   0.75867    0.000
 3969.00    0.16142   0.70605    0.000
 3970.00    0.40201   0.65207    0.000
 3971.00    0.50623   0.60282    0.000
 3972.00    0.77094   0.56262    0.000
 3973.00    1.47030   0.53240    0.000
 3974.00    1.84900   0.51573    0.000
 3975.00    1.48309   0.51498    0.000
 3976.00    0.92988   0.53000    0.000
 3977.00    0.00048   0.55971    0.000
 3978.00   -0.40702   0.60254    0.000
 3979.00    0.09841   0.65412    0.000
 3980.00    0.48592   0.71100    0.000
 3981.00    0.69293   0.77088   -1.000
 3982.00    1.11201   0.82809   -1.000
 3983.00    1.81630   0.88126   -1.000
 3984.00    1.81068   0.93027   -1.000
 3985.00    0.96436   0.97160   -1.000
 3986.00    0.65598   1.00684   -1.000
 3987.00    0.90930   1.03627   -1.000
 3988.00    0.94618   1.05964   -1.000
 3989.00    0.78372   1.08026   -1.000
 3990.00    0.75061   1.09722   -1.000
 3991.00    0.82253   1.11235   -1.000
 3992.00    0.66737   1.12598   -1.000
 3993.00    0.34996   1.13735   -1.000
 3994.00    0.42284   1.15027   -1.000
 3995.00    0.74042   1.15938   -1.000
 3996.00    1.20531   1.16562   -1.000
 3997.00    1.75092   1.17332   -1.000
 3998.00    1.48633   1.17715   -1.000
 3999.00    0.83581   1.17903   -1.000
 4000.00    0.79033   1.18052   -1.000
 4001.00    0.99353   1.18129   -1.000
 4002.00    0.60556   1.18306   -1.000
 4003.00    0.00996   1.18437   -1.000
 4004.00   -0.18567   1.18621    0.000
 4005.00   -0.26280   1.19051    0.000
 4006.00    0.00088   1.19411    0.000
 4007.00    0.34828   1.19491   -1.000
 4008.00    0.10750   1.19607   -1.000
 4009.00   -0.25023   1.19793    0.000
 4010.00   -0.06203   1.19721    0.000
 4011.00    0.21101   1.19558   -1.000
 4012.00    0.11875   1.19768   -1.000
 4013.00   -0.01552   1.20261    0.000
 4014.00    0.21997   1.20786   -1.000
 4015.00    0.48405   1.21428   -1.000
 4016.00    0.85881   1.22301   -1.000
 4017.00    1.23824   1.23213   -1.000
 4018.00    1.05025   1.23914   -1.000
 4019.00    0.86150   1.24628   -1.000
 4020.00    0.86574   1.25168   -1.000
 4021.00    0.84940   1.25587   -1.000
 4022.00    0.46986   1.26039   -1.000
 4023.00    0.19136   1.26110   -1.000
 4024.00    1.00000   1.26185   -1.000
 4025.00    1.76572   1.26415   -1.000
 4026.00    2.20566   1.26347   -1.000
 4027.00    2.39830   1.26146   -1.000
 4028.00    1.16455   1.26035   -1.000
 4029.00    0.26973   1.25945   -1.000
 4030.00    0.92817   1.25543   -1.000
 4031.00    1.45064   1.25056   -1.000
 4032.00    1.46305   1.24692   -1.000
 4033.00    1.37621   1.23908   -1.000
 4034.00    0.97822   1.23017   -1.000
 4035.00    0.79985   1.22257   -1.000
 4036.00    1.20575   1.21150   -1.000
 4037.00    1.63326   1.20419   -1.000
 4038.00    2.11008   1.20262   -1.000
 4039.00    2.39432   1.20239   -1.000
 4040.00    2.29784   1.20827   -1.000
 4041.00    2.07337   1.21740   -1.000
 4042.00    1.62838   1.22746   -1.000
 4043.00    1.19386   1.23830   -1.000
 4044.00    0.77512   1.24469   -1.000
 4045.00    0.69447   1.24756   -1.000
 4046.00    1.06196   1.24477   -1.000
 4047.00    1.18810   1.23635   -1.000
 4048.00    1.03246   1.22762   -1.000
 4049.00    0.92627   1.21676   -1.000
 4050.00    0.87098   1.20622   -1.000
 4051.00    0.76987   1.19804   -1.000
 4052.00    0.62714   1.19400   -1.000
 4053.00    0.48653   1.19917   -1.000
 4054.00    0.34763   1.20572   -1.000
 4055.00    1.20608   1.21063   -1.000
 4056.00    2.76682   1.21914   -1.000
 4057.00    3.04249   1.22559   -1.000
 4058.00    2.52438   1.22719   -1.000
 4059.00    1.57049   1.22777   -1.000
 4060.00    0.38145   1.22437   -1.000
 4061.00    0.41053   1.21828   -1.000
 4062.00    1.01051   1.21405   -1.000
 4063.00    1.11066   1.20714   -1.000
 4064.00    1.00887   1.19881   -1.000
 4065.00    0.74846   1.19318   -1.000
 4066.00    0.43336   1.18685   -1.000
 4067.00    0.71550   1.18123   -1.000
 4068.00    1.17106   1.17747   -1.000
 4069.00    1.12011   1.17139   -1.000
 4070.00    0.94751   1.16918   -1.000
 4071.00    0.27729   1.17354   -1.000
 4072.00   -0.48934   1.17565    0.000
 4073.00    1.10985   1.17788   -1.000
 4074.00    3.06554   1.18191   -1.000
 4075.00    2.22404   1.18563   -1.000
 4076.00    1.07313   1.18873   -1.000
 4077.00    1.42257   1.18606   -1.000
 4078.00    1.88188   1.18203   -1.000
 4079.00    2.06467   1.18113   -1.000
 4080.00    2.23688   1.17697   -1.000
 4081.00    1.37926   1.17282   -1.000
 4082.00    0.55996   1.17132   -1.000
 4083.00    1.40007   1.17077   -1.000
 4084.00    2.19904   1.17579   -1.000
 4085.00    2.32008   1.18333   -1.000
 4086.00    2.35723   1.19175   -1.000
 4087.00    1.53104   1.20361   -1.000
 4088.00    0.80205   1.21488   -1.000
 4089.00    0.78632   1.22569   -1.000
 4090.00    0.84686   1.23700   -1.000
 4091.00    1.33529   1.24701   -1.000
 4092.00    1.84884   1.25556    0.000
 4093.00    2.47478   1.26179    0.000
 4094.00    2.81679   1.26551    0.000
 4095.00    2.11597   1.26465    0.000
 4096.00    1.64705   1.25914    0.000
 4097.00    1.89133   1.25001    0.000
 4098.00    1.79456   1.23339    0.000
 4099.00    0.80638   1.21257    0.000
 4100.00    0.37543   1.18908    0.000
 4101.00    1.19590   1.15941    0.000
 4102.00    1.61415   1.12817    0.000
 4103.00    1.24971   1.09741    0.000
 4104.00    1.22375   1.06688    0.000
 4105.00    1.77215   1.04204    0.000
 4106.00    2.52250   1.02354    0.000
 4107.00    3.57306   1.00996    0.000
 4108.00    3.36720   1.00743    0.000
 4109.00    1.51969   1.01502    0.000
 4110.00    0.63084   1.02801    0.000
 4111.00    0.84543   1.04768    0.000
 4112.00    1.03004   1.07003    0.000
 4113.00    1.18420   1.09291    0.053
 4114.00    1.70238   1.11726   -1.000
 4115.00    2.54647   1.13866   -1.000
 4116.00    2.72723   1.15732   -1.000
 4117.00    2.38463   1.17456   -1.000
 4118.00    2.04092   1.18847   -1.000
 4119.00    1.69643   1.20052   -1.000
 4120.00    2.17974   1.21041    0.042
 4121.00    3.16675   1.21645    0.016
 4122.00    3.20380   1.22130    0.013
 4123.00    2.73618   1.22537    0.013
 4124.00    2.60155   1.22608    0.014
 4125.00    2.62046   1.22602    0.014
 4126.00    2.07688   1.22652    0.013
 4127.00    1.30994   1.22655    0.013
 4128.00    0.78877   1.22702    0.013
 4129.00    0.35078   1.22580    0.013
 4130.00    0.60580   1.22380    0.013
 4131.00    1.05800   1.22254    0.013
 4132.00    2.03337   1.21887    0.013
 4133.00    3.13157   1.21337    0.013
 4134.00    3.23568   1.20737    0.013
 4135.00    3.15216   1.20015    0.013
 4136.00    3.01022   1.19553    0.013
 4137.00    2.85974   1.19192    0.013
 4138.00    2.16896   1.18926    0.012
 4139.00    1.42076   1.19228    0.012
 4140.00    0.49794   1.19510    0.012
 4141.00   -0.43696   1.20126    0.000
 4142.00   -0.46841   1.20930    0.000
 4143.00   -0.46870   1.21289    0.000
 4144.00    0.64189   1.21743    0.013
 4145.00    1.73849   1.21735    0.013
 4146.00    2.30004   1.21353    0.012
 4147.00    2.78969   1.21014    0.012
 4148.00    2.16748   1.20398    0.012
 4149.00    1.58677   1.19751    0.012
 4150.00    1.41513   1.19289    0.012
 4151.00    1.31905   1.19062    0.012
 4152.00    1.75946   1.19007    0.012
 4153.00    2.10665   1.19082    0.012
 4154.00    1.94488   1.19212    0.012
 4155.00    1.72177   1.19292    0.012
 4156.00    1.23050   1.19493    0.012
 4157.00    0.94433   1.19568    0.011
 4158.00    1.39590   1.19552    0.011
 4159.00    1.93016   1.19663    0.012
 4160.00    2.71392   1.19734    0.012
 4161.00    3.05566   1.20063    0.012
 4162.00    2.26225   1.20548    0.012
 4163.00    1.49334   1.21143    0.012
 4164.00    0.77852   1.21884    0.012
 4165.00    0.46653   1.22619    0.012
 4166.00    0.92618   1.23416    0.012
 4167.00    1.39056   1.23963    0.012
 4168.00    1.86287   1.24347    0.012
 4169.00    2.09952   1.24528    0.012
 4170.00    1.99098   1.24271    0.012
 4171.00    2.00271   1.23850    0.012
 4172.00    2.16935   1.23188    0.012
 4173.00    2.15676   1.22227    0.012
 4174.00    1.94077   1.21163    0.012
 4175.00    1.72813   1.19858    0.012
 4176.00    1.51886   1.18595    0.012
 4177.00    1.30018   1.17597    0.012
 4178.00    1.07321   1.16563    0.012
 4179.00    1.44057   1.15771    0.012
 4180.00    2.27018   1.15275    0.012
 4181.00    1.81825   1.15043    0.012
 4182.00    0.48991   1.15264    0.012
 4183.00    0.47688   1.15619    0.012
 4184.00    1.25228   1.16015    0.012
 4185.00    1.27401   1.16525    0.012
 4186.00    0.90156   1.17139    0.012
 4187.00    1.25061   1.17694    0.012
 4188.00    1.92692   1.18173    0.012
 4189.00    1.76308   1.18474    0.012
 4190.00    1.27140   1.18547    0.012
 4191.00    1.49530   1.18891    0.012
 4192.00    1.95687   1.19155    0.012
 4193.00    1.77046   1.19265    0.012
 4194.00    1.40345   1.19427    0.012
 4195.00    0.72596   1.19536    0.012
 4196.00   -0.02276   1.19823    0.000
 4197.00    0.74004   1.19947    0.012
 4198.00    1.78063   1.19738    0.012
 4199.00    1.86889   1.19383    0.012
 4200.00    1.82247   1.18909    0.012
 4201.00    1.24954   1.18205    0.011
 4202.00    0.62292   1.17312    0.011
 4203.00    0.95067   1.16441    0.011
 4204.00    1.34060   1.15586    0.011
 4205.00    1.51921   1.14984    0.011
 4206.00    1.69032   1.14744    0.011
 4207.00    1.21477   1.14745    0.011
 4208.00    0.76498   1.15151    0.011
 4209.00    1.07191   1.15896    0.011
 4210.00    1.38236   1.16769    0.011
 4211.00    1.74416   1.17951    0.011
 4212.00    2.00847   1.19092    0.011
 4213.00    1.35097   1.19985    0.011
 4214.00    0.88515   1.20958    0.011
 4215.00    1.73699   1.21708    0.011
 4216.00    2.35323   1.22129    0.011
 4217.00    1.71730   1.22371    0.011
 4218.00    1.24578   1.22238    0.011
 4219.00    1.47644   1.22110    0.011
 4220.00    1.77274   1.22161    0.011
 4221.00    2.30035   1.21956    0.011
 4222.00    2.51066   1.21752    0.011
 4223.00    1.78131   1.21487    0.011
 4224.00    1.23327   1.21078    0.011
 4225.00    1.14278   1.20597    0.010
 4226.00    1.08335   1.19722    0.010
 4227.00    1.09140   1.18401    0.010
 4228.00    1.06897   1.16756    0.010
 4229.00    0.98907   1.14865    0.010
 4230.00    1.02607   1.12943    0.010
 4231.00    1.25553   1.11564    0.010
 4232.00    1.52768   1.10567    0.010
 4233.00    1.86149   1.09973    0.010
 4234.00    1.62773   1.10057    0.010
 4235.00    0.67337   1.10603    0.010
 4236.00    0.24061   1.11744    0.010
 4237.00    0.39143   1.13148    0.010
 4238.00    0.64765   1.14264    0.010
 4239.00    1.00788   1.15188    0.010
 4240.00    1.31389   1.16044    0.010
 4241.00    1.57270   1.16624    0.010
 4242.00    1.68382   1.17228    0.010
 4243.00    1.68173   1.17802    0.010
 4244.00    1.49921   1.18264    0.010
 4245.00    1.19512   1.18903    0.011
 4246.00    1.25877   1.19523    0.011
 4247.00    1.53955   1.20241    0.011
 4248.00    1.63279   1.20800    0.011
 4249.00    1.62949   1.21149    0.011
 4250.00    1.32438   1.21211    0.011
 4251.00    0.88460   1.20915    0.011
 4252.00    0.62704   1.20603    0.011
 4253.00    0.43933   1.19890    0.011
 4254.00    1.14317   1.19070    0.011
 4255.00    2.13756   1.18410    0.011
 4256.00    2.28313   1.17641    0.011
 4257.00    2.19701   1.17077    0.011
 4258.00    1.62969   1.16571    0.011
 4259.00    0.95454   1.16384    0.011
 4260.00    1.17350   1.16668    0.011
 4261.00    1.55238   1.16614    0.011
 4262.00    1.92246   1.16519    0.011
 4263.00    2.29134   1.16565    0.011
 4264.00    1.14993   1.16848    0.011
 4265.00   -0.13902   1.17569    0.000
 4266.00    0.29508   1.17986    0.011
 4267.00    0.83456   1.18354    0.011
 4268.00    0.66813   1.18841    0.011
 4269.00    0.48972   1.19369    0.011
 4270.00    1.69356   1.19849    0.011
 4271.00    2.82707   1.19944    0.011
 4272.00    2.10182   1.19528    0.011
 4273.00    1.45856   1.18672    0.010
 4274.00    1.94261   1.17445    0.010
 4275.00    2.31219   1.15964    0.010
 4276.00    1.64203   1.14663    0.010
 4277.00    0.99260   1.13327    0.010
 4278.00    0.48127   1.12237    0.010
 4279.00    0.18957   1.11684    0.010
 4280.00    1.03498   1.11607    0.010
 4281.00    1.85421   1.12246    0.010
 4282.00    2.56420   1.12940   -2.000
 4283.00    3.01669   1.13567   -2.000
 4284.00    2.58026   1.14584   -2.000
 4285.00    2.31576   1.15367   -2.000
 4286.00    2.55099   1.15918   -2.000
 4287.00    2.61026   1.16124   -2.000
 4288.00    2.23310   1.15619   -2.000
 4289.00    1.71831   1.15160   -2.000
 4290.00    0.90929   1.14524   -2.000
 4291.00    0.75745   1.13628   -2.000
 4292.00    1.82578   1.12568   -2.000
 4293.00    2.30202   1.11295   -2.000
 4294.00    1.81800   1.10334   -2.000
 4295.00    1.42775   1.09618   -2.000
 4296.00    1.17090   1.09020   -2.000
 4297.00    1.09616   1.08198   -2.000
 4298.00    1.24934   1.07496    0.010
 4299.00    1.33953   1.06978    0.010
 4300.00    1.36023   1.06218    0.010
 4301.00    1.18787   1.05329    0.010
 4302.00    0.82767   1.03796    0.010
 4303.00    0.54582   1.02141    0.010
 4304.00    0.33119   1.00609    0.010
 4305.00    0.73302   0.98755    0.010
 4306.00    1.60069   0.97058    0.010
 4307.00    1.73064   0.95472    0.010
 4308.00    1.37067   0.94075    0.010
 4309.00    1.47134   0.93232    0.010
 4310.00    1.83987   0.92504    0.010
 4311.00    1.58506   0.92033    0.010
 4312.00    1.01432   0.92134    0.010
 4313.00    1.02141   0.92539    0.010
 4314.00    1.28205   0.93519    0.010
 4315.00    1.18522   0.94950    0.009
 4316.00    0.95374   0.96838    0.010
 4317.00    0.76392   0.99383    0.010
 4318.00    0.58743   1.02432    0.010
 4319.00    0.98447   1.06005    0.010
 4320.00    1.53481   1.09630    0.010
 4321.00    1.92795   1.13072    0.010
 4322.00    2.28669   1.16160    0.010
 4323.00    1.61665   1.18692    0.010
 4324.00    0.76764   1.20555    0.010
 4325.00    0.85793   1.21668    0.010
 4326.00    1.07246   1.21742    0.010
 4327.00    1.14859   1.21121    0.010
 4328.00    1.21179   1.19965    0.010
 4329.00    1.62628   1.18589    0.010
 4330.00    2.06085   1.17667    0.000
 4331.00    2.03219   1.16831    0.000
 4332.00    1.99368   1.16464    0.000
 4333.00    2.06279   1.16436    0.000
 4334.00    2.16353   1.16809    0.000
 4335.00    3.02387   1.17686    0.000
 4336.00    3.78581   1.18450    0.000
 4337.00    3.26703   1.19033    0.000
 4338.00    2.71183   1.19058    0.000
 4339.00    1.83837   1.18459    0.000
 4340.00    1.08692   1.17144    0.000
 4341.00    1.12349   1.15242    0.000
 4342.00    1.18608   1.13002    0.000
 4343.00    1.37992   1.10421    0.000
 4344.00    1.57886   1.08081    0.000
 4345.00    1.79864   1.06164    0.000
 4346.00    1.90694   1.04827    0.000
 4347.00    1.63811   1.04299    0.000
 4348.00    1.44549   1.04578    0.000
 4349.00    1.47036   1.05647    0.000
 4350.00    1.40437   1.07338    0.000
 4351.00    1.11691   1.09371    0.029
 4352.00    0.99917   1.11560   -1.000
 4353.00    1.23841   1.13542   -1.000
 4354.00    1.56464   1.15001   -1.000
 4355.00    2.04989   1.16171   -1.000
 4356.00    2.15681   1.17166   -1.000
 4357.00    1.65923   1.17924   -1.000
 4358.00    1.30322   1.18507   -1.000
 4359.00    1.14569   1.19055   -1.000
 4360.00    1.21381   1.19662   -1.000
 4361.00    1.56033   1.20384   -1.000
 4362.00    1.88680   1.21214   -1.000
 4363.00    2.19145   1.22316   -1.000
 4364.00    2.48683   1.23546    0.038
 4365.00    2.77331   1.24659    0.013
 4366.00    2.70363   1.25653    0.010
 4367.00    2.33268   1.26582    0.010
 4368.00    1.92853   1.27401    0.010
 4369.00    1.49965   1.27929    0.010
 4370.00    1.36726   1.28196    0.010
 4371.00    1.42886   1.28198    0.010
 4372.00    1.41502   1.27978    0.010
 4373.00    1.35797   1.27428    0.009
 4374.00    1.33437   1.26730    0.009
 4375.00    1.32746   1.25951    0.009
 4376.00    1.83331   1.24996    0.009
 4377.00    2.56044   1.23985    0.009
 4378.00    2.63156   1.23003    0.009
 4379.00    2.45994   1.22271    0.009
 4380.00    2.21114   1.21661    0.009
 4381.00    1.93814   1.21053    0.009
 4382.00    1.62610   1.20485    0.009
 4383.00    1.30385   1.19826    0.009
 4384.00    1.52909   1.19109    0.009
 4385.00    1.87128   1.18199    0.009
 4386.00    2.12819   1.17030    0.009
 4387.00    2.37069   1.15851    0.009
 4388.00    2.06046   1.14629    0.009
 4389.00    1.67962   1.13614    0.009
 4390.00    1.78502   1.12846    0.009
 4391.00    1.93380   1.12413    0.009
 4392.00    1.68302   1.12409    0.009
 4393.00    1.41096   1.12626    0.009
 4394.00    1.47708   1.13386    0.009
 4395.00    1.54829   1.14590    0.009
 4396.00    1.49597   1.15920    0.009
 4397.00    1.44529   1.17149    0.009
 4398.00    1.43091   1.18169    0.009
 4399.00    1.37589   1.19223    0.009
 4400.00    0.81895   1.20198    0.009
 4401.00    0.35566   1.20955    0.009
 4402.00    0.68032   1.21557    0.009
 4403.00    1.05184   1.21768    0.009
 4404.00    1.71709   1.21748    0.009
 4405.00    2.15639   1.21590    0.009
 4406.00    1.48432   1.21257    0.009
 4407.00    0.98275   1.20797    0.009
 4408.00    1.16180   1.20117    0.009
 4409.00    1.33796   1.19506    0.009
 4410.00    1.50452   1.18982    0.009
 4411.00    1.62129   1.18750    0.009
 4412.00    1.59854   1.18953    0.009
 4413.00    1.62425   1.19331    0.009
 4414.00    1.76610   1.19797    0.009
 4415.00    1.79661   1.20550    0.009
 4416.00    1.59667   1.21642    0.009
 4417.00    1.48067   1.22539    0.009
 4418.00    1.51580   1.23156    0.009
 4419.00    1.46867   1.23783    0.009
 4420.00    1.29209   1.24300    0.009
 4421.00    1.30734   1.24734    0.009
 4422.00    1.58767   1.25111    0.009
 4423.00    1.85525   1.25397    0.009
 4424.00    2.10732   1.25635    0.009
 4425.00    2.19569   1.25697    0.009
 4426.00    2.10853   1.25959    0.009
 4427.00    1.91025   1.26244    0.009
 4428.00    1.60689   1.26340    0.009
 4429.00    1.35105   1.26502    0.009
 4430.00    1.13485   1.26430    0.009
 4431.00    1.30362   1.26284    0.009
 4432.00    1.75501   1.26058    0.009
 4433.00    1.59894   1.25748    0.009
 4434.00    1.05124   1.25605    0.009
 4435.00    1.04910   1.25314    0.009
 4436.00    1.35470   1.25016    0.009
 4437.00    1.41716   1.24770    0.009
 4438.00    1.36028   1.24465    0.009
 4439.00    1.38251   1.24333    0.009
 4440.00    1.43832   1.24228    0.009
 4441.00    1.41257   1.24343    0.009
 4442.00    1.35717   1.24721    0.009
 4443.00    1.36506   1.25005    0.009
 4444.00    1.39240   1.25334    0.009
 4445.00    0.94242   1.25595    0.009
 4446.00    0.37024   1.25889    0.009
 4447.00    0.71904   1.26269    0.009
 4448.00    1.25980   1.26613    0.009
 4449.00    1.42183   1.26985    0.009
 4450.00    1.52163   1.27267    0.009
 4451.00    1.61566   1.27514    0.009
 4452.00    1.70898   1.27675    0.009
 4453.00    1.60935   1.27746    0.009
 4454.00    1.49331   1.27819    0.009
 4455.00    1.76692   1.27658    0.009
 4456.00    2.05975   1.27270    0.009
 4457.00    1.85855   1.26568    0.009
 4458.00    1.65881   1.25591    0.009
 4459.00    2.04426   1.24540    0.009
 4460.00    2.39147   1.23293    0.009
 4461.00    1.96400   1.22244    0.000
 4462.00    1.57292   1.21265    0.000
 4463.00    1.60961   1.20443    0.000
 4464.00    1.64054   1.19810    0.000
 4465.00    1.62468   1.19422    0.000
 4466.00    1.56905   1.19466    0.000
 4467.00    1.27136   1.19651    0.000
 4468.00    1.12464   1.20206    0.000
 4469.00    1.70214   1.20844    0.000
 4470.00    2.20115   1.21563    0.000
 4471.00    2.39362   1.22361    0.000
 4472.00    2.45529   1.23121    0.000
 4473.00    2.09171   1.24063    0.000
 4474.00    1.86821   1.24908    0.000
 4475.00    2.03015   1.25877    0.000
 4476.00    2.04431   1.26893    0.000
 4477.00    1.71026   1.27887    0.000
 4478.00    1.44363   1.28886    0.000
 4479.00    1.31432   1.29809    0.000
 4480.00    1.47146   1.30648    0.000
 4481.00    2.13640   1.31302    0.000
 4482.00    2.32035   1.31796    0.009
 4483.00    1.75830   1.32004    0.009
 4484.00    1.35409   1.31963    0.009
 4485.00    1.16483   1.31683    0.009
 4486.00    1.02483   1.31386    0.009
 4487.00    0.94392   1.31097    0.009
 4488.00    0.98897   1.30911    0.009
 4489.00    1.16719   1.30849    0.009
 4490.00    1.41390   1.30782    0.009
 4491.00    1.72448   1.30765    0.009
 4492.00    1.82102   1.30701    0.009
 4493.00    1.74161   1.30648    0.009
 4494.00    1.57999   1.30553    0.009
 4495.00    1.35888   1.30445    0.008
 4496.00    1.31048   1.30336    0.008
 4497.00    1.37179   1.30109    0.008
 4498.00    1.41543   1.29906    0.008
 4499.00    1.44925   1.29669    0.008
 4500.00    1.24142   1.29619    0.008
 4501.00    0.91684   1.29782    0.008
 4502.00    1.08701   1.30129    0.008
 4503.00    1.46358   1.30742    0.008
 4504.00    1.48859   1.31393    0.008
 4505.00    1.38812   1.32214    0.008
 4506.00    1.50640   1.33049    0.008
 4507.00    1.69063   1.34006    0.008
 4508.00    1.50814   1.35114    0.008
 4509.00    1.23379   1.36061    0.008
 4510.00    1.45279   1.36911    0.008
 4511.00    1.77206   1.37543    0.008
 4512.00    1.79093   1.37980    0.008
 4513.00    1.76187   1.38224    0.008
 4514.00    1.60938   1.38278    0.008
 4515.00    1.44221   1.38218    0.008
 4516.00    1.16770   1.37916    0.008
 4517.00    0.88449   1.37398    0.008
 4518.00    1.15502   1.36791    0.008
 4519.00    1.45072   1.36158    0.008
 4520.00    1.46042   1.35500    0.008
 4521.00    1.45955   1.34898    0.008
 4522.00    1.09878   1.34325    0.008
 4523.00    0.77523   1.33688    0.008
 4524.00    1.15029   1.33166    0.008
 4525.00    1.49954   1.32545    0.008
 4526.00    1.55960   1.31932    0.008
 4527.00    1.59609   1.31144    0.008
 4528.00    1.44817   1.30188    0.008
 4529.00    1.38238   1.29222    0.008
 4530.00    1.80211   1.27993    0.008
 4531.00    2.14083   1.26760    0.008
 4532.00    2.10030   1.25470    0.008
 4533.00    2.01659   1.24279    0.008
 4534.00    1.76780   1.23188    0.008
 4535.00    1.54511   1.22382    0.008
 4536.00    1.40563   1.21790    0.008
 4537.00    1.40657   1.21569    0.008
 4538.00    1.78696   1.21522    0.008
 4539.00    1.82458   1.21741    0.008
 4540.00    1.06794   1.22317    0.008
 4541.00    0.61224   1.23081    0.008
 4542.00    0.75979   1.24237    0.008
 4543.00    0.86473   1.25253    0.008
 4544.00    0.89530   1.26284    0.008
 4545.00    0.93683   1.27162    0.008
 4546.00    0.99514   1.27864    0.008
 4547.00    1.13631   1.28483    0.008
 4548.00    1.38873   1.28858    0.008
 4549.00    1.53419   1.29030    0.008
 4550.00    1.55322   1.28893    0.000
 4551.00    1.44721   1.28692    0.000
 4552.00    1.21086   1.28309    0.000
 4553.00    1.08271   1.27887    0.000
 4554.00    1.05403   1.27404    0.000
 4555.00    1.14741   1.27023    0.000
 4556.00    1.33972   1.26878    0.000
 4557.00    1.31138   1.26678    0.000
 4558.00    1.12568   1.26731    0.000
 4559.00    1.13982   1.26872    0.000
 4560.00    1.27901   1.27261    0.000
 4561.00    1.29629   1.27811    0.000
 4562.00    1.24689   1.28563    0.000
 4563.00    1.08963   1.29364    0.000
 4564.00    0.88109   1.30108    0.000
 4565.00    0.91635   1.30832    0.000
 4566.00    1.05159   1.31406    0.000
 4567.00    1.29638   1.31896    0.000
 4568.00    1.57955   1.32143    0.000
 4569.00    1.58135   1.32287    0.000
 4570.00    1.50000   1.32382    0.000
 4571.00    1.47135   1.32428    0.000
 4572.00    1.45562   1.32544    0.000
 4573.00    1.38168   1.32572    0.000
 4574.00    1.29619   1.32591    0.000
 4575.00    1.31146   1.32639    0.000
 4576.00    1.34233   1.32550    0.000
 4577.00    1.54590   1.32531    0.000
 4578.00    1.76923   1.32633    0.000
 4579.00    1.51550   1.32607    0.000
 4580.00    1.22513   1.32453    0.000
 4581.00    1.30135   1.32242    0.000
 4582.00    1.39283   1.31905    0.000
 4583.00    1.56217   1.31458    0.000
 4584.00    1.72717   1.30881    0.000
 4585.00    1.67737   1.30294    0.000
 4586.00    1.63830   1.29700    0.000
 4587.00    1.78668   1.29271    0.000
 4588.00    1.89357   1.28899    0.000
 4589.00    1.55654   1.28582    0.000
 4590.00    1.24995   1.28500    0.000
 4591.00    1.17346   1.28457    0.000
 4592.00    1.14497   1.28656    0.000
 4593.00    1.39238   1.28868    0.000
 4594.00    1.59456   1.29128    0.000
 4595.00    1.59010   1.29322    0.000
 4596.00    1.57205   1.29438    0.000
 4597.00    1.50320   1.29465    0.000
 4598.00    1.44654   1.29411    0.000
 4599.00    1.42797   1.29338    0.000
 4600.00    1.41983   1.29174    0.000
 4601.00    1.43938   1.29047    0.000
 4602.00    1.49670   1.28944    0.000
 4603.00    1.64007   1.28821    0.000
 4604.00    1.71330   1.28839    0.000
 4605.00    1.64814   1.28797    0.000
 4606.00    1.57310   1.28892    0.000
 4607.00    1.48105   1.29104    0.000
 4608.00    1.27647   1.29359    0.000
 4609.00    0.90245   1.29776    0.000
 4610.00    0.74219   1.30179    0.000
 4611.00    0.86478   1.30760    0.000
 4612.00    1.01477   1.31318    0.000
 4613.00    1.19669   1.31999    0.000
 4614.00    1.55366   1.32617    0.000
 4615.00    2.09053   1.33177    0.000
 4616.00    2.22251   1.33626    0.000
 4617.00    1.98745   1.33999    0.000
 4618.00    1.72785   1.34239    0.000
 4619.00    1.44864   1.34397    0.000
 4620.00    1.24792   1.34547    0.000
 4621.00    1.10237   1.34527    0.000
 4622.00    1.07955   1.34599    0.000
 4623.00    1.13241   1.34580    0.000
 4624.00    1.31733   1.34562    0.000
 4625.00    1.57335   1.34562    0.000
 4626.00    1.63667   1.34608    0.000
 4627.00    1.60985   1.34617    0.000
 4628.00    1.51166   1.34632    0.000
 4629.00    1.38470   1.34634    0.000
 4630.00    1.23903   1.34546    0.000
 4631.00    1.08692   1.34451    0.000
 4632.00    0.94893   1.34310    0.000
 4633.00    0.81503   1.34117    0.000
 4634.00    1.06299   1.33857    0.000
 4635.00    1.40241   1.33583    0.000
 4636.00    1.51676   1.33276    0.000
 4637.00    1.58764   1.32908    0.000
 4638.00    1.45336   1.32486    0.000
 4639.00    1.28828   1.32035    0.000
 4640.00    1.23652   1.31526    0.000
 4641.00    1.19723   1.31041    0.000
 4642.00    1.13611   1.30521    0.000
 4643.00    1.07341   1.30022    0.000
 4644.00    1.14664   1.29560    0.000
 4645.00    1.22501   1.29090    0.000
 4646.00    1.28315   1.28736    0.000
 4647.00    1.33602   1.28349    0.000
 4648.00    1.19765   1.28007    0.000
 4649.00    1.06202   1.27629    0.000
 4650.00    0.97094   1.27266    0.000
 4651.00    0.88015   1.26862    0.000
 4652.00    0.79229   1.26550    0.000
 4653.00    0.74018   1.26286    0.000
 4654.00    0.94939   1.26153    0.000
 4655.00    1.15230   1.26174    0.000
 4656.00    1.31999   1.26304    0.000
 4657.00    1.49848   1.26539    0.000
 4658.00    1.72513   1.26895    0.000
 4659.00    1.81747   1.27247    0.000
 4660.00    1.41782   1.27703    0.000
 4661.00    1.14978   1.28164    0.000
 4662.00    1.28552   1.28613    0.000
 4663.00    1.35638   1.29116    0.000
 4664.00    1.25800   1.29492    0.000
 4665.00    1.21888   1.29810    0.000
 4666.00    1.31257   1.29867    0.000
 4667.00    1.39081   1.29717    0.000
 4668.00    1.43905   1.29284    0.000
 4669.00    1.47377   1.28654    0.000
 4670.00    1.48559   1.27876    0.000
 4671.00    1.46827   1.26991    0.000
 4672.00    1.40772   1.26133    0.000
 4673.00    1.33256   1.25359    0.000
 4674.00    1.23834   1.24773    0.000
 4675.00    1.32046   1.24467    0.000
 4676.00    1.60519   1.24485    0.000
 4677.00    1.61766   1.24693    0.000
 4678.00    1.35426   1.25085    0.000
 4679.00    1.30181   1.25558    0.000
 4680.00    1.43789   1.26036    0.000
 4681.00    1.22174   1.26514    0.000
 4682.00    0.72817   1.26883    0.000
 4683.00    0.69915   1.27150    0.000
 4684.00    0.99191   1.27288    0.000
 4685.00    1.16370   1.27283    0.000
 4686.00    1.26202   1.27233    0.000
 4687.00    1.25349   1.27153    0.000
 4688.00    1.18832   1.27110    0.000
 4689.00    1.26578   1.27089    0.000
 4690.00    1.40887   1.27143    0.000
 4691.00    1.44160   1.27242    0.000
 4692.00    1.43060   1.27335    0.000
 4693.00    1.27127   1.27483    0.000
 4694.00    1.06185   1.27616    0.000
 4695.00    1.15842   1.27772    0.000
 4696.00    1.34182   1.27922    0.000
 4697.00    1.42997   1.28066    0.000
 4698.00    1.49582   1.28149    0.000
 4699.00    1.20915   1.28218    0.000
 4700.00    0.85615   1.28238    0.000
 4701.00    0.99291   1.28136    0.000
 4702.00    1.20091   1.27956    0.000
 4703.00    1.24612   1.27631    0.000
 4704.00    1.27412   1.27194    0.000
 4705.00    1.21632   1.26637    0.000
 4706.00    1.15261   1.26032    0.000
 4707.00    1.25180   1.25520    0.000
 4708.00    1.35653   1.24962    0.000
 4709.00    1.29222   1.24518    0.000
 4710.00    1.22742   1.24094    0.000
 4711.00    1.15550   1.23908    0.000
 4712.00    1.08520   1.23819    0.000
 4713.00    1.03982   1.23836    0.000
 4714.00    0.98353   1.23925    0.000
 4715.00    0.82019   1.24142    0.000
 4716.00    0.70860   1.24501    0.000
 4717.00    0.96291   1.24929    0.000
 4718.00    1.16796   1.25535    0.000
 4719.00    1.10495   1.26114    0.000
 4720.00    1.05912   1.26747    0.000
 4721.00    1.08813   1.27374    0.000
 4722.00    1.14084   1.28029    0.000
 4723.00    1.27858   1.28745    0.000
 4724.00    1.43130   1.29397    0.000
 4725.00    1.62906   1.29931    0.000
 4726.00    1.64714   1.30373    0.000
 4727.00    1.20478   1.30649    0.000
 4728.00    0.91280   1.30747    0.000
 4729.00    0.95233   1.30633    0.000
 4730.00    1.06748   1.30344    0.000
 4731.00    1.32720   1.29932    0.000
 4732.00    1.45760   1.29355    0.000
 4733.00    1.37226   1.28719    0.000
 4734.00    1.29769   1.27987    0.000
 4735.00    1.23889   1.27333    0.000
 4736.00    1.18705   1.26805    0.000
 4737.00    1.14416   1.26423    0.000
 4738.00    1.08235   1.26204    0.000
 4739.00    0.99910   1.26140    0.000
 4740.00    0.98337   1.26245    0.000
 4741.00    1.03511   1.26411    0.000
 4742.00    1.05220   1.26726    0.000
 4743.00    1.03876   1.27020    0.000
 4744.00    1.02869   1.27357    0.000
 4745.00    1.02123   1.27761    0.000
 4746.00    1.12215   1.28130    0.000
 4747.00    1.29705   1.28493    0.000
 4748.00    1.32876   1.28831    0.000
 4749.00    1.27481   1.29157    0.000
 4750.00    1.21510   1.29457    0.000
 4751.00    1.15239   1.29729    0.000
 4752.00    1.03617   1.29912    0.000
 4753.00    0.89571   1.30070    0.000
 4754.00    0.94878   1.30122    0.000
 4755.00    1.07720   1.30084    0.000
 4756.00    0.93982   1.29963    0.000
 4757.00    0.71436   1.29724    0.000
 4758.00    0.67450   1.29434    0.000
 4759.00    0.68623   1.29021    0.000
 4760.00    0.84777   1.28609    0.000
 4761.00    1.04357   1.28097    0.007
 4762.00    1.02699   1.27621    0.007
 4763.00    0.97152   1.27089    0.007
 4764.00    0.98640   1.26578    0.007
 4765.00    1.01118   1.26045    0.007
 4766.00    0.97424   1.25510    0.007
 4767.00    0.93104   1.24991    0.007
 4768.00    1.10993   1.24484    0.007
 4769.00    1.30317   1.24015    0.007
 4770.00    1.25602   1.23646    0.007
 4771.00    1.20152   1.23369    0.007
 4772.00    1.11215   1.23271    0.007
 4773.00    1.02607   1.23324    0.007
 4774.00    1.03499   1.23551    0.007
 4775.00    1.05321   1.23904    0.007
 4776.00    1.20580   1.24386    0.007
 4777.00    1.32225   1.24939    0.007
 4778.00    1.09875   1.25489    0.007
 4779.00    0.89064   1.26047    0.007
 4780.00    0.78783   1.26514    0.007
 4781.00    0.76600   1.26924    0.006
 4782.00    1.17312   1.27237    0.006
 4783.00    1.50791   1.27434    0.006
 4784.00    1.53462   1.27498    0.006
 4785.00    1.51703   1.27393    0.006
 4786.00    1.34376   1.27195    0.006
 4787.00    1.22197   1.26896    0.006
 4788.00    1.25226   1.26523    0.007
 4789.00    1.21345   1.26112    0.007
 4790.00    1.00064   1.25749    0.007
 4791.00    0.85793   1.25400    0.007
 4792.00    0.86721   1.25165    0.007
 4793.00    0.91476   1.25014    0.007
 4794.00    1.03433   1.25077    0.007
 4795.00    1.08046   1.25187    0.007
 4796.00    1.00594   1.25463    0.007
 4797.00    0.99749   1.25881    0.007
 4798.00    1.08425   1.26320    0.007
 4799.00    1.21776   1.26798    0.007
 4800.00    1.41053   1.27287    0.007
 4801.00    1.35769   1.27670    0.007
 4802.00    1.03053   1.27999    0.007
 4803.00    0.92422   1.28199    0.007
 4804.00    1.03545   1.28296    0.007
 4805.00    1.10077   1.28253    0.007
 4806.00    1.12621   1.28142    0.007
 4807.00    1.24352   1.27969    0.007
 4808.00    1.43115   1.27758    0.007
 4809.00    1.49410   1.27567    0.007
 4810.00    1.47318   1.27362    0.007
 4811.00    1.36270   1.27213    0.007
 4812.00    1.19943   1.27025    0.007
 4813.00    1.19453   1.26910    0.007
 4814.00    1.27100   1.26784    0.007
 4815.00    1.28326   1.26786    0.007
 4816.00    1.26693   1.26824    0.007
 4817.00    1.43540   1.26950    0.007
 4818.00    1.67456   1.27143    0.007
 4819.00    1.59981   1.27392    0.007
 4820.00    1.42301   1.27651    0.007
 4821.00    1.45430   1.27914    0.007
 4822.00    1.54224   1.28140    0.007
 4823.00    1.57265   1.28299    0.007
 4824.00    1.59021   1.28386    0.007
 4825.00    1.46755   1.28348    0.007
 4826.00    1.31990   1.28232    0.007
 4827.00    1.36092   1.27980    0.007
 4828.00    1.42765   1.27672    0.007
 4829.00    1.36294   1.27281    0.007
 4830.00    1.28546   1.26870    0.007
 4831.00    1.11670   1.26458    0.007
 4832.00    0.94242   1.26050    0.007
 4833.00    0.95147   1.25700    0.007
 4834.00    0.96610   1.25413    0.007
 4835.00    1.10846   1.25172    0.007
 4836.00    1.24149   1.24995    0.007
 4837.00    1.13131   1.24844    0.007
 4838.00    1.01770   1.24705    0.007
 4839.00    0.85727   1.24589    0.007
 4840.00    0.74065   1.24476    0.007
 4841.00    1.02006   1.24352    0.007
 4842.00    1.24717   1.24238    0.007
 4843.00    1.12730   1.24070    0.007
 4844.00    1.06636   1.23925    0.007
 4845.00    1.30954   1.23743    0.007
 4846.00    1.52380   1.23572    0.007
 4847.00    1.61761   1.23374    0.007
 4848.00    1.62835   1.23212    0.000
 4849.00    1.35306   1.23051    0.000
 4850.00    1.13008   1.22894    0.000
 4851.00    1.05877   1.22730    0.000
 4852.00    1.00834   1.22545    0.000
 4853.00    1.00958   1.22299    0.000
 4854.00    0.95187   1.21934    0.000
 4855.00    0.76838   1.21443    0.000
 4856.00    0.71047   1.20813    0.000
 4857.00    0.88526   1.19973    0.000
 4858.00    1.07570   1.18910    0.000
 4859.00    1.29147   1.17627    0.000
 4860.00    1.37972   1.16129    0.000
 4861.00    1.28688   1.14476    0.000
 4862.00    1.22880   1.12656    0.000
 4863.00    1.21414   1.10756    0.000
 4864.00    1.14936   1.08886    0.000
 4865.00    1.02939   1.07139    0.000
 4866.00    1.11497   1.05624    0.000
 4867.00    1.40019   1.04478    0.000
 4868.00    1.47883   1.03782    0.000
 4869.00    1.38055   1.03528    0.000
 4870.00    1.33650   1.03737    0.000
 4871.00    1.33337   1.04328    0.000
 4872.00    1.26859   1.05259    0.000
 4873.00    1.16295   1.06406    0.000
 4874.00    1.12243   1.07724    0.000
 4875.00    1.11972   1.08991    0.007
 4876.00    1.18022   1.10249    0.007
 4877.00    1.27268   1.11379    0.007
 4878.00    1.32951   1.12430    0.007
 4879.00    1.37074   1.13392    0.007
 4880.00    1.29943   1.14309    0.007
 4881.00    1.18581   1.15170    0.007
 4882.00    1.02810   1.16000    0.007
 4883.00    0.85631   1.16768    0.007
 4884.00    0.95864   1.17488    0.007
 4885.00    1.13402   1.18071    0.007
 4886.00    1.09854   1.18573    0.007
 4887.00    1.01704   1.18870    0.007
 4888.00    1.07298   1.19039    0.007
 4889.00    1.15273   1.19019    0.007
 4890.00    1.12809   1.18923    0.007
 4891.00    1.08970   1.18713    0.007
 4892.00    1.26802   1.18505    0.007
 4893.00    1.46647   1.18330    0.007
 4894.00    1.46626   1.18233    0.007
 4895.00    1.45479   1.18302    0.007
 4896.00    1.44615   1.18564    0.007
 4897.00    1.43545   1.19046    0.007
 4898.00    1.19254   1.19682    0.007
 4899.00    0.96527   1.20529    0.007
 4900.00    1.10935   1.21446    0.007
 4901.00    1.24825   1.22444    0.007
 4902.00    1.32032   1.23358    0.007
 4903.00    1.38066   1.24193    0.007
 4904.00    1.33901   1.24845    0.007
 4905.00    1.31859   1.25330    0.007
 4906.00    1.43476   1.25633    0.007
 4907.00    1.53782   1.25734    0.007
 4908.00    1.57497   1.25702    0.007
 4909.00    1.53305   1.25538    0.007
 4910.00    1.16930   1.25306    0.007
 4911.00    0.90808   1.25022    0.007
 4912.00    0.99287   1.24710    0.007
 4913.00    1.07201   1.24386    0.007
 4914.00    1.13508   1.24056    0.007
 4915.00    1.20640   1.23723    0.007
 4916.00    1.29777   1.23373    0.007
 4917.00    1.24711   1.23018    0.007
 4918.00    0.89830   1.22626    0.007
 4919.00    0.70563   1.22195    0.006
 4920.00    0.79786   1.21710    0.006
 4921.00    0.93211   1.21150    0.006
 4922.00    1.13339   1.20525    0.006
 4923.00    1.19044   1.19837    0.006
 4924.00    1.04562   1.19153    0.006
 4925.00    1.04184   1.18497    0.006
 4926.00    1.21176   1.17966    0.006
 4927.00    1.23969   1.17598    0.006
 4928.00    1.11346   1.17461    0.006
 4929.00    1.06435   1.17566    0.006
 4930.00    1.08910   1.17928    0.006
 4931.00    1.15320   1.18504    0.006
 4932.00    1.25055   1.19228    0.006
 4933.00    1.20521   1.20026    0.006
 4934.00    1.05379   1.20806    0.006
 4935.00    0.95874   1.21490    0.006
 4936.00    0.90052   1.22013    0.006
 4937.00    0.86275   1.22330    0.006
 4938.00    0.83668   1.22435    0.006
 4939.00    0.95975   1.22334    0.006
 4940.00    1.15706   1.22093    0.000
 4941.00    1.23972   1.21755    0.000
 4942.00    1.27302   1.21414    0.000
 4943.00    1.25609   1.21120    0.000
 4944.00    1.22061   1.20954    0.000
 4945.00    1.31835   1.20936    0.000
 4946.00    1.45776   1.21109    0.000
 4947.00    1.37243   1.21449    0.000
 4948.00    1.22845   1.21954    0.000
 4949.00    1.18261   1.22558    0.000
 4950.00    1.15767   1.23235    0.000
 4951.00    1.30251   1.23897    0.000
 4952.00    1.47596   1.24529    0.000
 4953.00    1.34702   1.25039    0.000
 4954.00    1.17962   1.25419    0.000
 4955.00    1.18285   1.25604    0.000
 4956.00    1.20121   1.25615    0.000
 4957.00    1.00075   1.25405    0.000
 4958.00    0.78874   1.25018    0.000
 4959.00    0.93231   1.24448    0.000
 4960.00    1.08202   1.23756    0.000
 4961.00    1.17918   1.22990    0.000
 4962.00    1.27743   1.22207    0.000
 4963.00    1.39919   1.21485    0.000
 4964.00    1.49715   1.20853    0.000
 4965.00    1.30296   1.20373    0.000
 4966.00    1.10877   1.20031    0.000
 4967.00    0.91464   1.19844    0.000
 4968.00    0.75830   1.19770    0.000
 4969.00    0.83790   1.19775    0.000
 4970.00    0.92322   1.19836    0.000
 4971.00    1.03656   1.19903    0.000
 4972.00    1.11316   1.19992    0.000
 4973.00    1.04352   1.20062    0.000
 4974.00    1.03264   1.20158    0.000
 4975.00    1.21618   1.20244    0.000
 4976.00    1.34825   1.20361    0.000
 4977.00    1.33647   1.20463    0.000
 4978.00    1.25220   1.20562    0.000
 4979.00    0.99456   1.20597    0.000
 4980.00    0.82041   1.20552    0.000
 4981.00    0.81869   1.20380    0.000
 4982.00    0.82427   1.20058    0.000
 4983.00    0.84299   1.19579    0.000
 4984.00    0.85983   1.18950    0.000
 4985.00    0.87372   1.18206    0.000
 4986.00    0.98632   1.17398    0.000
 4987.00    1.23506   1.16589    0.000
 4988.00    1.29691   1.15850    0.000
 4989.00    1.13186   1.15239    0.000
 4990.00    1.08153   1.14809    0.000
 4991.00    1.15400   1.14581    0.000
 4992.00    1.17050   1.14563    0.000
 4993.00    1.13417   1.14731    0.000
 4994.00    1.07915   1.15044    0.000
 4995.00    1.00859   1.15453    0.000
 4996.00    1.00209   1.15899    0.000
 4997.00    1.04253   1.16335    0.000
 4998.00    1.09634   1.16708    0.000
 4999.00    1.15875   1.16995    0.000
 5000.00    1.14464   1.17159    0.000
 5001.00    1.08745   1.17199    0.000
 5002.00    1.16671   1.17100    0.000
 5003.00    1.31282   1.16872    0.000
 5004.00    1.19602   1.16523    0.000
 5005.00    0.96791   1.16075    0.000
 5006.00    1.12281   1.15550    0.000
 5007.00    1.41659   1.14982    0.000
 5008.00    1.23024   1.14395    0.000
 5009.00    0.89662   1.13828    0.000
 5010.00    0.94076   1.13297    0.000
 5011.00    1.08135   1.12824    0.000
 5012.00    0.99370   1.12409    0.000
 5013.00    0.85861   1.12053    0.000
 5014.00    0.65051   1.11737    0.000
 5015.00    0.43045   1.11451    0.000
 5016.00    0.45655   1.11179    0.000
 5017.00    0.51286   1.10909    0.000
 5018.00    0.50398   1.10645    0.000
 5019.00    0.48959   1.10390    0.000
 5020.00    0.43743   1.10172    0.000
 5021.00    0.38343   1.09999    0.000
 5022.00    0.55392   1.09912    0.000
 5023.00    0.72772   1.09911    0.000
 5024.00    0.89183   1.10024    0.000
 5025.00    1.04603   1.10231    0.000
 5026.00    1.00149   1.10543    0.000
 5027.00    0.95073   1.10927    0.000
 5028.00    0.82723   1.11382    0.000
 5029.00    0.74064   1.11874    0.006
 5030.00    0.95209   1.12397    0.006
 5031.00    1.15535   1.12927    0.006
 5032.00    1.30895   1.13458    0.006
 5033.00    1.41765   1.13969    0.006
 5034.00    1.31165   1.14445    0.006
 5035.00    1.19538   1.14864    0.006
 5036.00    1.03916   1.15199    0.006
 5037.00    0.91268   1.15424    0.006
 5038.00    0.88266   1.15508    0.006
 5039.00    0.85315   1.15432    0.006
 5040.00    0.82504   1.15186    0.006
 5041.00    0.79052   1.14780    0.006
 5042.00    0.74096   1.14243    0.006
 5043.00    0.75669   1.13622    0.006
 5044.00    0.90515   1.12983    0.006
 5045.00    1.03231   1.12393    0.006
 5046.00    1.12181   1.11922    0.006
 5047.00    1.13036   1.11619    0.006
 5048.00    1.01360   1.11516    0.006
 5049.00    0.89502   1.11617    0.006
 5050.00    0.77396   1.11894    0.006
 5051.00    0.69173   1.12310    0.006
 5052.00    0.65596   1.12806    0.006
 5053.00    0.67255   1.13332    0.006
 5054.00    0.74439   1.13843    0.006
 5055.00    0.89858   1.14318    0.006
 5056.00    1.12942   1.14749    0.006
 5057.00    1.26571   1.15149    0.006
 5058.00    1.32440   1.15534    0.006
 5059.00    1.21196   1.15925    0.006
 5060.00    0.97590   1.16330    0.006
 5061.00    0.95509   1.16747    0.006
 5062.00    1.07077   1.17160    0.006
 5063.00    1.01591   1.17542    0.006
 5064.00    0.86651   1.17858    0.006
 5065.00    0.93648   1.18075    0.006
 5066.00    1.11222   1.18165    0.006
 5067.00    0.94939   1.18113    0.006
 5068.00    0.64562   1.17918    0.006
 5069.00    0.69134   1.17593    0.006
 5070.00    0.86150   1.17165    0.006
 5071.00    0.95051   1.16669    0.006
 5072.00    1.01510   1.16144    0.006
 5073.00    0.89567   1.15623    0.006
 5074.00    0.73029   1.15139    0.006
 5075.00    0.73202   1.14702    0.006
 5076.00    0.76762   1.14322    0.006
 5077.00    0.92826   1.13985    0.006
 5078.00    1.10878   1.13678    0.006
 5079.00    0.98592   1.13379    0.006
 5080.00    0.82718   1.13066    0.006
 5081.00    0.91594   1.12728    0.006
 5082.00    1.02461   1.12359    0.006
 5083.00    0.89422   1.11969    0.006
 5084.00    0.75308   1.11579    0.006
 5085.00    0.70679   1.11215    0.006
 5086.00    0.66711   1.10922    0.006
 5087.00    0.90063   1.10724    0.006
 5088.00    1.12301   1.10663    0.006
 5089.00    1.13824   1.10744    0.006
 5090.00    1.14844   1.10985    0.006
 5091.00    1.10255   1.11359    0.006
 5092.00    1.06645   1.11849    0.006
 5093.00    1.10655   1.12407    0.006
 5094.00    1.11980   1.12995    0.006
 5095.00    0.97485   1.13560    0.006
 5096.00    0.85889   1.14060    0.006
 5097.00    0.87817   1.14458    0.006
 5098.00    0.89668   1.14725    0.006
 5099.00    0.91229   1.14847    0.006
 5100.00    0.90702   1.14820    0.006
 5101.00    0.83537   1.14657    0.006
 5102.00    0.83096   1.14379    0.006
 5103.00    1.00783   1.14016    0.006
 5104.00    1.09020   1.13609    0.006
 5105.00    0.95409   1.13186    0.006
 5106.00    0.88001   1.12785    0.006
 5107.00    0.93004   1.12417    0.006
 5108.00    0.92743   1.12108    0.006
 5109.00    0.83313   1.11845    0.006
 5110.00    0.77387   1.11644    0.006
 5111.00    0.76808   1.11483    0.006
 5112.00    0.88095   1.11378    0.006
 5113.00    1.15283   1.11320    0.006
 5114.00    1.20606   1.11325    0.006
 5115.00    1.00127   1.11398    0.006
 5116.00    0.88323   1.11548    0.006
 5117.00    0.85546   1.11782    0.006
 5118.00    0.93907   1.12081    0.006
 5119.00    1.12492   1.12438    0.006
 5120.00    1.31648   1.12810    0.006
 5121.00    1.51267   1.13167    0.006
 5122.00    1.45210   1.13459    0.006
 5123.00    1.20875   1.13649    0.006
 5124.00    1.17493   1.13700    0.006
 5125.00    1.27198   1.13590    0.006
 5126.00    1.12652   1.13320    0.006
 5127.00    0.84867   1.12895    0.006
 5128.00    0.75106   1.12353    0.006
 5129.00    0.73895   1.11728    0.006
 5130.00    0.70470   1.11080    0.006
 5131.00    0.66140   1.10452    0.006
 5132.00    0.86978   1.09897    0.006
 5133.00    1.16615   1.09448    0.006
 5134.00    1.21204   1.09129    0.006
 5135.00    1.18408   1.08948    0.006
 5136.00    0.97634   1.08887    0.006
 5137.00    0.72468   1.08935    0.006
 5138.00    0.74579   1.09042    0.006
 5139.00    0.82079   1.09189    0.006
 5140.00    1.02874   1.09317    0.006
 5141.00    1.25720   1.09413    0.006
 5142.00    1.18941   1.09436    0.006
 5143.00    1.08788   1.09387    0.006
 5144.00    0.97662   1.09259    0.006
 5145.00    0.86462   1.09058    0.006
 5146.00    0.78922   1.08817    0.006
 5147.00    0.71532   1.08536    0.006
 5148.00    0.88521   1.08263    0.006
 5149.00    1.05271   1.07992    0.006
 5150.00    1.03568   1.07761    0.006
 5151.00    1.02795   1.07561    0.006
 5152.00    1.18142   1.07412    0.006
 5153.00    1.30229   1.07312    0.006
 5154.00    1.07627   1.07260    0.006
 5155.00    0.87926   1.07269    0.006
 5156.00    0.90055   1.07328    0.006
 5157.00    0.92899   1.07462    0.006
 5158.00    0.99842   1.07652    0.006
 5159.00    1.07197   1.07916    0.006
 5160.00    1.16430   1.08222    0.006
 5161.00    1.21675   1.08569    0.006
 5162.00    1.12045   1.08900    0.006
 5163.00    1.04119   1.09183    0.006
 5164.00    1.01516   1.09347    0.006
 5165.00    0.93696   1.09338    0.006
 5166.00    0.72057   1.09089    0.006
 5167.00    0.66655   1.08561    0.006
 5168.00    0.98173   1.07722    0.006
 5169.00    1.13820   1.06575    0.006
 5170.00    0.98216   1.05153    0.006
 5171.00    0.92949   1.03513    0.006
 5172.00    1.05422   1.01754    0.006
 5173.00    1.08317   0.99965    0.006
 5174.00    0.96817   0.98283    0.006
 5175.00    0.83499   0.96788    0.006
 5176.00    0.67781   0.95607    0.006
 5177.00    0.65929   0.94769    0.006
 5178.00    0.80210   0.94336    0.006
 5179.00    0.89794   0.94272    0.006
 5180.00    0.94560   0.94552    0.006
 5181.00    0.98182   0.95082    0.006
 5182.00    1.00767   0.95778    0.006
 5183.00    0.95709   0.96529    0.006
 5184.00    0.84557   0.97240    0.006
 5185.00    0.86838   0.97836    0.006
 5186.00    0.98545   0.98287    0.006
 5187.00    0.94473   0.98576    0.006
 5188.00    0.80692   0.98752    0.006
 5189.00    0.83026   0.98860    0.006
 5190.00    0.94023   0.98977    0.000
 5191.00    0.89251   0.99165    0.000
 5192.00    0.77118   0.99464    0.000
 5193.00    0.70647   0.99915    0.000
 5194.00    0.66452   1.00483    0.000
 5195.00    0.70442   1.01177    0.000
 5196.00    0.77240   1.01918    0.000
 5197.00    0.74968   1.02697    0.000
 5198.00    0.70077   1.03448    0.000
 5199.00    0.80305   1.04162    0.000
 5200.00    0.94146   1.04821    0.000
 5201.00    0.91440   1.05406    0.000
 5202.00    0.85549   1.05930    0.000
 5203.00    0.82133   1.06364    0.000
 5204.00    0.79087   1.06714    0.000
 5205.00    0.80491   1.06950    0.000
 5206.00    0.82383   1.07058    0.000
 5207.00    0.85548   1.07030    0.000
 5208.00    0.88806   1.06849    0.000
 5209.00    0.90603   1.06555    0.000
 5210.00    0.92347   1.06143    0.000
 5211.00    1.12342   1.05709    0.006
 5212.00    1.31772   1.05254    0.006
 5213.00    1.27479   1.04911    0.006
 5214.00    1.23215   1.04661    0.006
 5215.00    1.19404   1.04625    0.006
 5216.00    1.14178   1.04752    0.006
 5217.00    0.94550   1.05107    0.006
 5218.00    0.79322   1.05617    0.006
 5219.00    0.96112   1.06271    0.006
 5220.00    1.10188   1.07011    0.006
 5221.00    1.09152   1.07760    0.006
 5222.00    1.07970   1.08502    0.006
 5223.00    1.06139   1.09131    0.006
 5224.00    1.03322   1.09668    0.006
 5225.00    0.96906   1.10023    0.006
 5226.00    0.90053   1.10233    0.006
 5227.00    0.81864   1.10253    0.006
 5228.00    0.77651   1.10121    0.006
 5229.00    0.83781   1.09845    0.006
 5230.00    0.81382   1.09478    0.006
 5231.00    0.59906   1.09056    0.006
 5232.00    0.59783   1.08649    0.006
 5233.00    1.01047   1.08289    0.006
 5234.00    1.25401   1.08054    0.006
 5235.00    1.21172   1.07941    0.006
 5236.00    1.16654   1.08011    0.006
 5237.00    1.11706   1.08220    0.006
 5238.00    1.08971   1.08596    0.006
 5239.00    1.09118   1.09075    0.006
 5240.00    1.11919   1.09662    0.006
 5241.00    1.17764   1.10284    0.006
 5242.00    1.32008   1.10946    0.006
 5243.00    1.54749   1.11578    0.006
 5244.00    1.41273   1.12187    0.006
 5245.00    0.95486   1.12710    0.006
 5246.00    0.85701   1.13150    0.006
 5247.00    1.04221   1.13463    0.006
 5248.00    1.04504   1.13652    0.006
 5249.00    0.92178   1.13697    0.006
 5250.00    0.76864   1.13612    0.006
 5251.00    0.59737   1.13406    0.006
 5252.00    0.68093   1.13095    0.006
 5253.00    0.89934   1.12716    0.006
 5254.00    1.10458   1.12295    0.006
 5255.00    1.30377   1.11884    0.006
 5256.00    1.30070   1.11507    0.006
 5257.00    1.21767   1.11203    0.006
 5258.00    1.17207   1.10981    0.006
 5259.00    1.13908   1.10839    0.006
 5260.00    0.93299   1.10776    0.006
 5261.00    0.67790   1.10727    0.006
 5262.00    0.68112   1.10703    0.006
 5263.00    0.74464   1.10584    0.006
 5264.00    0.87231   1.10391    0.006
 5265.00    1.01201   1.10001    0.006
 5266.00    1.13344   1.09471    0.006
 5267.00    1.25223   1.08709    0.006
 5268.00    1.31693   1.07791    0.006
 5269.00    1.37594   1.06724    0.006
 5270.00    1.25494   1.05574    0.006
 5271.00    1.12166   1.04452    0.006
 5272.00    1.05152   1.03358    0.006
 5273.00    0.98351   1.02459    0.006
 5274.00    1.08070   1.01731    0.006
 5275.00    1.17708   1.01317    0.006
 5276.00    1.24190   1.01163    0.006
 5277.00    1.29516   1.01347    0.006
 5278.00    1.17245   1.01795    0.006
 5279.00    1.05191   1.02512    0.006
 5280.00    0.95252   1.03417    0.006
 5281.00    0.87599   1.04451    0.006
 5282.00    0.96049   1.05554    0.006
 5283.00    1.06043   1.06689    0.006
 5284.00    1.24404   1.07772    0.006
 5285.00    1.40456   1.08799    0.006
 5286.00    1.46473   1.09700    0.006
 5287.00    1.51617   1.10524    0.006
 5288.00    1.53636   1.11214    0.006
 5289.00    1.55520   1.11890    0.006
 5290.00    1.57001   1.12458    0.006
 5291.00    1.53491   1.13022    0.006
 5292.00    1.37225   1.13508    0.006
 5293.00    1.22667   1.13999    0.006
 5294.00    1.11869   1.14410    0.006
 5295.00    0.98394   1.14785    0.006
 5296.00    0.79813   1.15032    0.006
 5297.00    0.73800   1.15191    0.006
 5298.00    0.88712   1.15195    0.006
 5299.00    0.97497   1.15027    0.006
 5300.00    0.97339   1.14729    0.006
 5301.00    0.98962   1.14314    0.006
 5302.00    1.02870   1.13855    0.006
 5303.00    1.18384   1.13367    0.006
 5304.00    1.47019   1.12925    0.006
 5305.00    1.45179   1.12573    0.006
 5306.00    1.12943   1.12353    0.006
 5307.00    0.99384   1.12294    0.006
 5308.00    1.02252   1.12393    0.006
 5309.00    0.96189   1.12660    0.006
 5310.00    0.83206   1.13066    0.006
 5311.00    0.79807   1.13552    0.006
 5312.00    0.82939   1.14102    0.006
 5313.00    0.99142   1.14622    0.006
 5314.00    1.23149   1.15129    0.006
 5315.00    1.21180   1.15541    0.006
 5316.00    1.05678   1.15869    0.006
 5317.00    0.94861   1.16065    0.006
 5318.00    0.86159   1.16161    0.006
 5319.00    0.87338   1.16142    0.006
 5320.00    0.92357   1.16025    0.006
 5321.00    1.09323   1.15795    0.006
 5322.00    1.30239   1.15486    0.006
 5323.00    1.17640   1.15078    0.006
 5324.00    0.95750   1.14612    0.006
 5325.00    0.98239   1.14057    0.006
 5326.00    1.06290   1.13442    0.006
 5327.00    1.02533   1.12748    0.006
 5328.00    0.96621   1.12025    0.006
 5329.00    1.04272   1.11250    0.006
 5330.00    1.13824   1.10435    0.006
 5331.00    1.15603   1.09670    0.006
 5332.00    1.16597   1.08900    0.006
 5333.00    0.98885   1.08298    0.006
 5334.00    0.79972   1.07730    0.006
 5335.00    0.86557   1.07456    0.006
 5336.00    0.93897   1.07277    0.006
 5337.00    0.99102   1.07350    0.006
 5338.00    1.04141   1.07499    0.006
 5339.00    1.04405   1.07905    0.006
 5340.00    1.05528   1.08413    0.006
 5341.00    1.18957   1.08925    0.006
 5342.00    1.28922   1.09418    0.006
 5343.00    1.06470   1.09817    0.006
 5344.00    0.88414   1.10194    0.006
 5345.00    1.00339   1.10437    0.013
 5346.00    1.09098   1.10625   -1.000
 5347.00    1.01146   1.10707   -1.000
 5348.00    0.97788   1.10785   -1.000
 5349.00    1.13933   1.10819   -1.000
 5350.00    1.22717   1.10898   -1.000
 5351.00    1.05698   1.10991   -1.000
 5352.00    0.94169   1.11183   -1.000
 5353.00    0.98821   1.11404   -1.000
 5354.00    1.03415   1.11683   -1.000
 5355.00    1.07866   1.12048   -1.000
 5356.00    1.11686   1.12452    0.037
 5357.00    1.14145   1.12938    0.009
 5358.00    1.14843   1.13465    0.006
 5359.00    1.12235   1.14023    0.006
 5360.00    1.09991   1.14586    0.006
 5361.00    1.08347   1.15111    0.006
 5362.00    1.05485   1.15567    0.006
 5363.00    1.00871   1.15929    0.006
 5364.00    0.99621   1.16148    0.006
 5365.00    1.02629   1.16239    0.006
 5366.00    1.02190   1.16150    0.006
 5367.00    0.97909   1.15914    0.006
 5368.00    0.96524   1.15523   -2.000
 5369.00    0.97984   1.14994   -2.000
 5370.00    1.11854   1.14374   -2.000
 5371.00    1.36486   1.13680   -2.000
 5372.00    1.44513   1.12993   -2.000
 5373.00    1.39856   1.12277   -2.000
 5374.00    1.44022   1.11677   -2.000
 5375.00    1.54111   1.11128   -2.000
 5376.00    1.43958   1.10729   -2.000
 5377.00    1.21898   1.10467   -2.000
 5378.00    0.99429   1.10323   -2.000
 5379.00    0.76750   1.10380   -2.000
 5380.00    0.81120   1.10554   -2.000
 5381.00    0.97508   1.10946   -2.000
 5382.00    1.11078   1.11320   -2.000
 5383.00    1.23572   1.11783    0.006
 5384.00    1.13114   1.12184    0.006
 5385.00    0.95212   1.12543    0.006
 5386.00    1.05715   1.12859    0.006
 5387.00    1.23931   1.13060    0.006
 5388.00    1.12804   1.13195    0.006
 5389.00    0.95139   1.13196    0.006
 5390.00    1.05993   1.13164    0.006
 5391.00    1.21913   1.13001    0.006
 5392.00    1.11753   1.12809    0.006
 5393.00    0.98055   1.12553    0.006
 5394.00    1.02091   1.12219    0.006
 5395.00    1.07841   1.11835    0.006
 5396.00    1.11721   1.11387    0.006
 5397.00    1.15488   1.10913    0.006
 5398.00    0.98963   1.10390    0.006
 5399.00    0.82157   1.09892    0.006
 5400.00    1.06591   1.09377    0.006
 5401.00    1.30213   1.08894    0.006
 5402.00    1.32926   1.08439    0.006
 5403.00    1.34646   1.08015    0.006
 5404.00    1.22918   1.07651    0.006
 5405.00    1.12356   1.07276    0.006
 5406.00    1.12293   1.07020    0.006
 5407.00    1.12344   1.06774    0.006
 5408.00    1.13149   1.06541    0.006
 5409.00    1.16128   1.06299    0.006
 5410.00    1.30293   1.06095    0.006
 5411.00    1.38507   1.05906    0.006
 5412.00    1.22022   1.05733    0.006
 5413.00    1.10441   1.05682    0.006
 5414.00    1.15704   1.05703    0.006
 5415.00    1.16859   1.05893    0.006
 5416.00    1.06128   1.06137    0.006
 5417.00    1.01361   1.06528    0.006
 5418.00    1.11326   1.06969    0.006
 5419.00    1.19138   1.07550    0.006
 5420.00    1.22369   1.08155    0.006
 5421.00    1.24122   1.08765    0.006
 5422.00    1.23140   1.09357    0.006
 5423.00    1.18436   1.09886    0.006
 5424.00    1.07718   1.10365    0.006
 5425.00    1.08610   1.10736    0.006
 5426.00    1.25957   1.11000    0.006
 5427.00    1.34153   1.11153    0.006
 5428.00    1.30936   1.11210    0.006
 5429.00    1.24052   1.11174    0.006
 5430.00    1.13136   1.11031    0.006
 5431.00    1.13664   1.10851    0.006
 5432.00    1.25288   1.10567    0.006
 5433.00    1.26856   1.10296    0.006
 5434.00    1.19828   1.09958    0.006
 5435.00    1.20023   1.09597    0.006
 5436.00    1.25657   1.09229    0.006
 5437.00    1.26914   1.08939    0.005
 5438.00    1.25276   1.08667    0.005
 5439.00    1.24586   1.08542    0.005
 5440.00    1.24446   1.08464    0.005
 5441.00    1.25160   1.08502    0.005
 5442.00    1.26306   1.08672    0.005
 5443.00    1.14481   1.08916    0.005
 5444.00    0.96989   1.09286    0.005
 5445.00    1.01897   1.09643    0.005
 5446.00    1.15206   1.10028    0.006
 5447.00    1.11556   1.10337    0.006
 5448.00    1.02510   1.10567    0.006
 5449.00    0.97145   1.10704    0.005
 5450.00    0.92760   1.10697    0.005
 5451.00    0.87814   1.10584    0.005
 5452.00    0.82746   1.10345    0.005
 5453.00    0.81211   1.10035    0.006
 5454.00    0.80285   1.09758    0.006
 5455.00    1.07718   1.09431    0.006
 5456.00    1.38869   1.09164    0.006
 5457.00    1.35786   1.08866    0.006
 5458.00    1.29541   1.08630    0.006
 5459.00    1.26334   1.08394    0.006
 5460.00    1.23297   1.08210    0.006
 5461.00    1.33549   1.08023    0.006
 5462.00    1.44021   1.07906    0.006
 5463.00    1.46427   1.07888    0.006
 5464.00    1.48043   1.07871    0.006
 5465.00    1.31114   1.07919    0.006
 5466.00    1.15590   1.07935    0.006
 5467.00    1.18126   1.07992    0.006
 5468.00    1.18092   1.08037    0.006
 5469.00    0.95817   1.08071    0.006
 5470.00    0.78178   1.08149    0.006
 5471.00    0.90257   1.08213    0.006
 5472.00    1.00345   1.08246    0.006
 5473.00    1.00457   1.08246    0.006
 5474.00    1.02322   1.08227    0.006
 5475.00    1.11309   1.08134    0.006
 5476.00    1.15443   1.07992    0.006
 5477.00    1.03246   1.07791    0.006
 5478.00    0.90694   1.07571   -2.000
 5479.00    0.77134   1.07268   -2.000
 5480.00    0.65193   1.06959   -2.000
 5481.00    0.57181   1.06674   -2.000
 5482.00    0.65991   1.06331   -2.000
 5483.00    1.10040   1.06071   -2.000
 5484.00    1.64860   1.05936   -2.000
 5485.00    2.39297   1.05876   -2.000
 5486.00    3.25321   1.05868   -2.000
 5487.00    4.29790   1.05894   -2.000
 5488.00    4.86709   1.06053   -2.000
 5489.00    4.77205   1.06278   -2.000
 5490.00    4.47181   1.06560   -2.000
 5491.00    3.91931   1.06881   -2.000
 5492.00    2.89977   1.07167   -2.000
 5493.00    1.37408   1.07447   -2.000
 5494.00    0.67715   1.07682   -2.000
 5495.00    0.77243   1.07967   -2.000
 5496.00    0.88982   1.08149   -2.000
 5497.00    1.02584   1.08317   -2.000
 5498.00    1.03398   1.08455   -2.000
 5499.00    0.94719   1.08506   -2.000
 5500.00    0.98428   1.08553   -2.000
 5501.00    1.10213   1.08545   -2.000
 5502.00    1.10040   1.08528    0.005
 5503.00    1.03044   1.08414    0.005
 5504.00    1.05051   1.08327    0.005
 5505.00    1.11530   1.08233    0.005
 5506.00    1.05823   1.08082    0.005
 5507.00    0.94880   1.07888    0.005
 5508.00    0.93274   1.07692    0.005
 5509.00    0.95108   1.07523    0.005
 5510.00    0.97824   1.07319    0.005
 5511.00    1.00817   1.07137    0.005
 5512.00    1.01358   1.06915    0.006
 5513.00    1.01262   1.06736    0.006
 5514.00    1.16047   1.06622    0.006
 5515.00    1.33992   1.06489    0.006
 5516.00    1.21733   1.06383    0.006
 5517.00    1.04402   1.06317    0.006
 5518.00    1.05816   1.06272    0.005
 5519.00    1.09604   1.06307    0.005
 5520.00    1.04189   1.06401    0.005
 5521.00    0.97963   1.06562    0.005
 5522.00    1.02827   1.06791    0.005
 5523.00    1.08271   1.07039    0.005
 5524.00    0.97366   1.07340    0.005
 5525.00    0.86489   1.07617    0.005
 5526.00    1.00761   1.07879    0.005
 5527.00    1.14287   1.08097    0.005
 5528.00    1.11779   1.08258    0.005
 5529.00    1.09796   1.08348    0.005
 5530.00    1.14213   1.08358    0.005
 5531.00    1.18459   1.08298    0.005
 5532.00    1.21292   1.08152    0.005
 5533.00    1.22688   1.08008    0.005
 5534.00    1.15138   1.07809    0.005
 5535.00    1.08140   1.07681    0.005
 5536.00    1.03836   1.07577    0.005
 5537.00    1.01458   1.07499    0.005
 5538.00    1.06721   1.07465    0.005
 5539.00    1.09700   1.07460    0.005
 5540.00    1.05141   1.07543    0.005
 5541.00    1.05333   1.07630    0.005
 5542.00    1.18773   1.07797    0.005
 5543.00    1.26590   1.07981    0.005
 5544.00    1.20989   1.08174    0.005
 5545.00    1.12245   1.08387    0.005
 5546.00    0.97024   1.08596    0.005
 5547.00    0.93878   1.08796    0.007
 5548.00    1.12384   1.08973    0.018
 5549.00    1.27672   1.09124   -1.000
 5550.00    1.37913   1.09269   -1.000
 5551.00    1.36769   1.09401   -1.000
 5552.00    1.19948   1.09522   -1.000
 5553.00    1.13005   1.09622   -1.000
 5554.00    1.18036   1.09727   -1.000
 5555.00    1.19292   1.09787   -1.000
 5556.00    1.16517   1.09822   -1.000
 5557.00    1.14113   1.09823   -1.000
 5558.00    1.12059   1.09779   -1.000
 5559.00    1.07335   1.09707    0.019
 5560.00    1.00391   1.09593    0.007
 5561.00    1.05380   1.09464    0.005
 5562.00    1.19097   1.09306    0.005
 5563.00    1.20544   1.09120    0.005
 5564.00    1.14110   1.08904    0.005
 5565.00    1.12971   1.08681    0.005
 5566.00    1.14807   1.08431    0.005
 5567.00    1.20925   1.08155    0.005
 5568.00    1.29138   1.07893    0.005
 5569.00    1.30636   1.07594    0.005
 5570.00    1.29296   1.07337    0.005
 5571.00    1.21971   1.07062    0.005
 5572.00    1.12480   1.06826    0.005
 5573.00    1.01809   1.06598    0.005
 5574.00    0.90777   1.06407    0.005
 5575.00    0.93072   1.06261    0.005
 5576.00    0.98760   1.06118    0.005
 5577.00    1.06224   1.06062    0.005
 5578.00    1.14057   1.06019    0.005
 5579.00    1.15044   1.06023    0.005
 5580.00    1.14916   1.06059    0.005
 5581.00    1.17870   1.06144    0.005
 5582.00    1.21201   1.06198    0.005
 5583.00    1.18113   1.06269    0.005
 5584.00    1.14486   1.06316    0.005
 5585.00    1.05692   1.06310    0.005
 5586.00    0.96649   1.06251    0.005
 5587.00    0.98676   1.06131    0.005
 5588.00    1.00901   1.05932    0.005
 5589.00    1.05054   1.05669    0.005
 5590.00    1.09741   1.05315    0.005
 5591.00    1.25046   1.04903    0.005
 5592.00    1.39202   1.04473    0.005
 5593.00    1.40023   1.04001    0.005
 5594.00    1.41279   1.03597    0.005
 5595.00    1.46036   1.03238    0.005
 5596.00    1.51266   1.02928    0.005
 5597.00    1.59354   1.02716    0.005
 5598.00    1.63598   1.02536    0.005
 5599.00    1.49511   1.02480    0.005
 5600.00    1.35061   1.02477    0.005
 5601.00    1.19198   1.02546    0.005
 5602.00    1.03922   1.02621    0.005
 5603.00    0.90549   1.02749    0.005
 5604.00    0.86149   1.02887    0.005
 5605.00    1.06326   1.03044    0.005
 5606.00    1.22454   1.03252    0.005
 5607.00    1.29083   1.03437    0.005
 5608.00    1.35331   1.03727    0.005
 5609.00    1.40806   1.04009    0.005
 5610.00    1.36713   1.04379    0.005
 5611.00    1.15723   1.04763    0.005
 5612.00    1.05387   1.05151    0.005
 5613.00    1.11510   1.05537    0.005
 5614.00    1.09962   1.05880    0.005
 5615.00    0.98005   1.06211    0.005
 5616.00    0.94898   1.06443    0.005
 5617.00    1.02363   1.06609    0.005
 5618.00    1.07109   1.06652    0.005
 5619.00    1.08990   1.06549    0.005
 5620.00    1.12627   1.06419    0.005
 5621.00    1.17896   1.06200    0.005
 5622.00    1.21230   1.05958    0.005
 5623.00    1.22980   1.05690    0.005
 5624.00    1.24267   1.05416    0.005
 5625.00    1.25221   1.05191    0.005
 5626.00    1.20843   1.04988    0.005
 5627.00    1.13091   1.04854    0.005
 5628.00    1.09408   1.04715    0.005
 5629.00    1.07977   1.04655    0.005
 5630.00    1.13763   1.04648    0.005
 5631.00    1.23022   1.04708    0.005
 5632.00    1.33789   1.04855    0.005
 5633.00    1.45182   1.05004    0.005
 5634.00    1.38210   1.05163    0.005
 5635.00    1.24714   1.05326    0.005
 5636.00    1.23951   1.05486    0.005
 5637.00    1.27009   1.05623    0.005
 5638.00    1.27050   1.05723    0.005
 5639.00    1.26340   1.05773    0.005
 5640.00    1.27777   1.05788    0.005
 5641.00    1.29647   1.05782    0.005
 5642.00    1.26647   1.05731    0.005
 5643.00    1.22877   1.05641    0.005
 5644.00    1.12627   1.05531    0.005
 5645.00    1.01614   1.05384    0.005
 5646.00    1.04405   1.05262    0.005
 5647.00    1.08299   1.05150    0.005
 5648.00    1.06158   1.05060    0.005
 5649.00    1.03747   1.05022    0.005
 5650.00    1.09466   1.04993    0.005
 5651.00    1.15070   1.05029    0.005
 5652.00    1.10568   1.05059    0.005
 5653.00    1.06546   1.05121    0.005
 5654.00    1.11344   1.05174    0.005
 5655.00    1.15963   1.05236    0.005
 5656.00    1.18607   1.05262    0.005
 5657.00    1.19622   1.05251    0.005
 5658.00    1.07993   1.05202    0.005
 5659.00    0.97852   1.05065    0.005
 5660.00    0.96438   1.04932    0.005
 5661.00    0.94904   1.04710    0.005
 5662.00    0.92816   1.04404    0.005
 5663.00    0.91932   1.04128    0.005
 5664.00    0.95626   1.03887    0.005
 5665.00    0.99945   1.03642    0.005
 5666.00    1.06251   1.03407    0.005
 5667.00    1.11335   1.03240    0.005
 5668.00    1.13131   1.03143    0.005
 5669.00    1.13014   1.03113    0.005
 5670.00    1.08486   1.03149    0.005
 5671.00    1.08038   1.03214    0.005
 5672.00    1.15738   1.03379    0.005
 5673.00    1.21499   1.03571    0.005
 5674.00    1.23885   1.03835    0.005
 5675.00    1.24822   1.04116    0.005
 5676.00    1.23552   1.04430    0.005
 5677.00    1.23621   1.04727    0.005
 5678.00    1.25481   1.05022    0.005
 5679.00    1.23884   1.05285    0.005
 5680.00    1.18214   1.05517    0.005
 5681.00    1.07292   1.05737    0.005
 5682.00    0.90913   1.05863    0.005
 5683.00    0.85094   1.05978    0.005
 5684.00    0.88950   1.06009    0.005
 5685.00    0.96536   1.06032    0.005
 5686.00    1.07133   1.05918    0.005
 5687.00    1.07471   1.05808    0.005
 5688.00    1.00518   1.05643    0.005
 5689.00    0.98779   1.05482    0.005
 5690.00    1.00291   1.05299    0.005
 5691.00    1.04142   1.05085    0.005
 5692.00    1.09266   1.04939    0.005
 5693.00    1.22141   1.04792    0.005
 5694.00    1.38686   1.04760    0.005
 5695.00    1.40037   1.04699    0.005
 5696.00    1.35182   1.04737    0.005
 5697.00    1.27127   1.04786    0.005
 5698.00    1.17957   1.04847    0.005
 5699.00    1.05745   1.04932    0.005
 5700.00    0.92638   1.04969    0.005
 5701.00    0.87611   1.05027    0.005
 5702.00    0.84552   1.04966    0.005
 5703.00    0.87419   1.04936    0.005
 5704.00    0.91452   1.04813    0.005
 5705.00    0.89609   1.04608    0.005
 5706.00    0.86864   1.04379    0.005
 5707.00    0.91200   1.04074    0.005
 5708.00    0.96340   1.03789    0.005
 5709.00    1.06683   1.03429    0.005
 5710.00    1.17421   1.03059    0.005
 5711.00    1.17809   1.02683    0.005
 5712.00    1.17776   1.02332    0.005
 5713.00    1.11920   1.02008    0.005
 5714.00    1.05970   1.01763    0.005
 5715.00    0.98002   1.01586    0.005
 5716.00    0.91152   1.01488    0.005
 5717.00    1.03492   1.01542    0.005
 5718.00    1.14318   1.01649    0.005
 5719.00    1.09119   1.01822    0.005
 5720.00    1.05383   1.02107    0.005
 5721.00    1.12607   1.02467    0.005
 5722.00    1.19084   1.02856    0.005
 5723.00    1.21303   1.03356    0.005
 5724.00    1.24869   1.03861    0.005
 5725.00    1.34556   1.04340    0.005
 5726.00    1.41181   1.04850    0.005
 5727.00    1.36411   1.05286    0.005
 5728.00    1.28649   1.05634    0.005
 5729.00    1.11573   1.05930    0.005
 5730.00    1.00683   1.06150    0.005
 5731.00    1.06139   1.06257    0.005
 5732.00    1.09660   1.06383    0.005
 5733.00    1.08790   1.06445    0.005
 5734.00    1.09007   1.06460    0.005
 5735.00    1.11359   1.06420    0.005
 5736.00    1.13784   1.06377    0.005
 5737.00    1.16335   1.06352    0.005
 5738.00    1.22196   1.06304    0.005
 5739.00    1.33023   1.06293    0.005
 5740.00    1.33097   1.06238    0.000
 5741.00    1.18993   1.06258    0.000
 5742.00    1.11469   1.06291    0.000
 5743.00    1.11587   1.06307    0.000
 5744.00    1.15921   1.06313    0.000
 5745.00    1.24574   1.06321    0.000
 5746.00    1.29313   1.06366    0.000
 5747.00    1.30516   1.06360    0.000
 5748.00    1.29927   1.06358    0.000
 5749.00    1.27912   1.06333    0.000
 5750.00    1.23236   1.06291    0.000
 5751.00    1.16696   1.06231    0.000
 5752.00    1.08497   1.06124    0.000
 5753.00    0.99279   1.06054    0.000
 5754.00    0.96297   1.05961    0.000
 5755.00    0.96659   1.05857    0.000
 5756.00    0.98837   1.05704    0.000
 5757.00    1.01862   1.05552    0.000
 5758.00    0.98822   1.05404    0.000
 5759.00    0.93350   1.05293    0.000
 5760.00    0.97183   1.05202    0.000
 5761.00    1.04202   1.05095    0.000
 5762.00    1.04009   1.05052    0.000
 5763.00    1.01738   1.04995    0.000
 5764.00    0.99211   1.04941    0.000
 5765.00    0.96623   1.04871    0.000
 5766.00    0.98478   1.04853    0.000
 5767.00    1.01185   1.04848    0.000
 5768.00    1.06275   1.04949    0.000
 5769.00    1.11720   1.05035    0.000
 5770.00    1.15422   1.05104    0.000
 5771.00    1.18934   1.05175    0.000
 5772.00    1.20383   1.05237    0.000
 5773.00    1.21684   1.05308    0.000
 5774.00    1.21080   1.05354    0.000
 5775.00    1.20406   1.05453    0.000
 5776.00    1.25335   1.05470    0.000
 5777.00    1.30329   1.05529    0.000
 5778.00    1.36818   1.05502    0.000
 5779.00    1.42986   1.05418    0.000
 5780.00    1.43990   1.05299    0.000
 5781.00    1.44016   1.05119    0.000
 5782.00    1.34145   1.04900    0.000
 5783.00    1.23454   1.04603    0.000
 5784.00    1.06815   1.04294    0.000
 5785.00    0.93606   1.03908    0.000
 5786.00    0.99433   1.03557    0.000
 5787.00    1.03671   1.03219    0.000
 5788.00    1.00862   1.02890    0.000
 5789.00    0.98896   1.02581    0.000
 5790.00    0.99999   1.02340    0.000
 5791.00    1.03587   1.02185   -2.000
 5792.00    1.14763   1.02035   -2.000
 5793.00    1.25392   1.02029   -2.000
 5794.00    1.34600   1.02062   -2.000
 5795.00    1.36386   1.02180   -2.000
 5796.00    1.21607   1.02391   -2.000
 5797.00    1.12169   1.02643   -2.000
 5798.00    1.13062   1.02960   -2.000
 5799.00    1.16578   1.03256   -2.000
 5800.00    1.24518   1.03597   -2.000
 5801.00    1.26497   1.03872   -2.000
 5802.00    1.19663   1.04130   -2.000
 5803.00    1.17706   1.04456   -2.000
 5804.00    1.22089   1.04724   -2.000
 5805.00    1.27845   1.04982   -2.000
 5806.00    1.35172   1.05208   -2.000
 5807.00    1.33417   1.05387   -2.000
 5808.00    1.22494   1.05497   -2.000
 5809.00    1.13664   1.05589   -2.000
 5810.00    1.06700   1.05690   -2.000
 5811.00    1.04394   1.05766    0.000
 5812.00    1.05744   1.05825    0.000
 5813.00    1.06750   1.05855    0.000
 5814.00    1.07518   1.05859    0.000
 5815.00    1.11332   1.05824    0.000
 5816.00    1.16988   1.05798    0.000
 5817.00    1.20240   1.05760    0.000
 5818.00    1.22223   1.05732    0.000
 5819.00    1.25355   1.05713    0.000
 5820.00    1.29013   1.05689    0.000
 5821.00    1.32564   1.05693    0.000
 5822.00    1.36074   1.05725    0.000
 5823.00    1.22177   1.05746    0.000
 5824.00    1.02429   1.05787    0.000
 5825.00    0.95594   1.05835    0.000
 5826.00    0.92405   1.05889    0.000
 5827.00    1.03552   1.05960    0.000
 5828.00    1.18036   1.06049    0.000
 5829.00    1.26455   1.06189    0.000
 5830.00    1.33741   1.06285    0.000
 5831.00    1.21841   1.06389    0.000
 5832.00    1.07172   1.06469    0.000
 5833.00    1.07873   1.06526    0.000
 5834.00    1.10182   1.06582    0.000
 5835.00    1.15505   1.06600    0.000
 5836.00    1.21032   1.06642    0.000
 5837.00    1.24165   1.06635    0.000
 5838.00    1.27219   1.06633    0.000
 5839.00    1.23063   1.06603    0.000
 5840.00    1.19030   1.06574    0.000
 5841.00    1.19027   1.06548    0.000
 5842.00    1.18925   1.06479    0.000
 5843.00    1.17326   1.06446    0.000
 5844.00    1.15522   1.06396    0.000
 5845.00    1.11724   1.06359    0.000
 5846.00    1.09163   1.06290    0.000
 5847.00    1.15285   1.06240    0.000
 5848.00    1.20966   1.06164    0.000
 5849.00    1.24268   1.06029    0.000
 5850.00    1.24285   1.05906    0.000
 5851.00    1.10070   1.05738    0.000
 5852.00    0.97709   1.05566    0.000
 5853.00    0.91965   1.05330    0.000
 5854.00    0.90427   1.05060    0.000
 5855.00    1.01493   1.04741    0.000
 5856.00    1.09046   1.04382    0.000
 5857.00    1.07637   1.04003    0.000
 5858.00    1.06813   1.03611    0.000
 5859.00    1.07275   1.03238    0.000
 5860.00    1.08812   1.02875    0.000
 5861.00    1.12398   1.02494    0.000
 5862.00    1.11459   1.02151    0.000
 5863.00    1.03001   1.01874    0.000
 5864.00    0.98254   1.01590    0.000
 5865.00    0.98915   1.01444    0.000
 5866.00    1.00901   1.01333    0.000
 5867.00    1.04585   1.01285    0.000
 5868.00    1.07830   1.01227    0.000
 5869.00    1.10579   1.01252    0.000
 5870.00    1.14933   1.01399    0.000
 5871.00    1.20883   1.01513    0.000
 5872.00    1.23293   1.01725    0.000
 5873.00    1.22595   1.01873    0.000
 5874.00    1.17786   1.02049    0.000
 5875.00    1.09799   1.02225    0.000
 5876.00    1.04655   1.02374    0.000
 5877.00    1.01445   1.02489    0.000
 5878.00    1.02517   1.02558    0.000
 5879.00    1.06140   1.02662    0.000
 5880.00    1.05489   1.02676    0.000
 5881.00    1.02616   1.02631    0.000
 5882.00    1.06900   1.02524    0.000
 5883.00    1.14410   1.02347    0.000
 5884.00    1.09238   1.02085    0.000
 5885.00    0.99149   1.01766    0.000
 5886.00    0.99046   1.01391    0.000
 5887.00    1.02236   1.00888    0.000
 5888.00    1.06026   1.00319    0.000
 5889.00    1.09983   0.99649    0.000
 5890.00    1.12765   0.98881    0.000
 5891.00    1.15281   0.97954    0.000
 5892.00    1.10912   0.96922    0.000
 5893.00    1.05290   0.95845    0.000
 5894.00    1.03129   0.94670    0.000
 5895.00    1.01453   0.93641    0.000
 5896.00    1.05001   0.92641    0.000
 5897.00    1.09075   0.91631    0.000
 5898.00    1.11246   0.90689    0.000
 5899.00    1.13296   0.89811    0.000
 5900.00    1.08001   0.89138    0.000
 5901.00    1.02521   0.88762    0.005
 5902.00    1.07407   0.88844    0.005
 5903.00    1.12002   0.89140    0.005
 5904.00    1.08376   0.89469    0.005
 5905.00    1.05580   0.89989    0.005
 5906.00    1.14598   0.90626    0.005
 5907.00    1.22000   0.91341    0.005
 5908.00    1.14364   0.92346    0.005
 5909.00    1.07226   0.93456    0.005
 5910.00    1.03470   0.94460    0.005
 5911.00    1.00218   0.95363    0.005
 5912.00    0.99613   0.96213    0.005
 5913.00    0.98168   0.96939    0.004
 5914.00    0.93170   0.97549    0.004
 5915.00    0.89756   0.98136    0.004
 5916.00    0.91876   0.98589    0.004
 5917.00    0.96214   0.98916    0.004
 5918.00    1.07071   0.99112    0.004
 5919.00    1.14862   0.99308    0.004
 5920.00    1.14965   0.99406    0.004
 5921.00    1.15106   0.99469    0.004
 5922.00    1.15327   0.99540    0.004
 5923.00    1.13193   0.99528    0.004
 5924.00    1.06642   0.99565    0.004
 5925.00    1.01970   0.99541    0.004
 5926.00    1.00375   0.99607    0.004
 5927.00    1.01025   0.99670    0.004
 5928.00    1.04900   0.99744    0.004
 5929.00    1.01922   0.99840    0.004
 5930.00    0.90290   0.99885    0.004
 5931.00    0.80451   0.99944    0.004
 5932.00    0.72608   0.99964    0.004
 5933.00    0.72632   1.00015    0.004
 5934.00    0.80378   1.00049    0.004
 5935.00    0.91986   1.00104    0.004
 5936.00    1.06938   1.00118    0.004
 5937.00    1.08960   1.00107    0.005
 5938.00    1.01123   1.00089    0.005
 5939.00    0.96481   1.00040    0.005
 5940.00    0.93979   1.00071    0.005
 5941.00    0.94709   1.00076    0.005
 5942.00    0.97336   1.00105    0.004
 5943.00    0.96091   1.00108    0.004
 5944.00    0.92862   1.00088    0.004
 5945.00    0.91813   1.00082    0.004
 5946.00    0.91731   1.00069    0.004
 5947.00    0.94968   1.00114    0.004
 5948.00    0.99470   1.00130    0.004
 5949.00    1.03410   1.00123    0.004
 5950.00    1.07167   1.00071    0.004
 5951.00    1.11050   1.00020    0.004
 5952.00    1.14966   0.99963    0.004
 5953.00    1.13696   0.99909    0.004
 5954.00    1.11275   0.99879    0.004
 5955.00    1.06729   0.99823    0.004
 5956.00    1.01808   0.99753    0.004
 5957.00    1.01373   0.99649    0.004
 5958.00    1.01545   0.99571    0.004
 5959.00    1.05923   0.99527    0.004
 5960.00    1.10706   0.99492    0.004
 5961.00    1.07255   0.99478    0.004
 5962.00    1.03313   0.99490    0.004
 5963.00    1.00365   0.99532    0.004
 5964.00    0.97470   0.99597    0.004
 5965.00    0.98735   0.99671    0.004
 5966.00    1.00194   0.99790    0.004
 5967.00    1.06583   0.99911    0.004
 5968.00    1.12370   1.00031    0.004
 5969.00    1.10040   1.00198    0.004
 5970.00    1.07656   1.00336    0.004
 5971.00    1.04785   1.00506    0.004
 5972.00    1.00585   1.00618    0.004
 5973.00    0.87642   1.00723    0.004
 5974.00    0.76078   1.00807    0.004
 5975.00    0.71581   1.00843    0.004
 5976.00    0.68913   1.00909    0.004
 5977.00    0.73814   1.00901    0.004
 5978.00    0.79335   1.00885    0.004
 5979.00    0.86975   1.00819    0.004
 5980.00    0.94668   1.00718    0.004
 5981.00    1.02511   1.00596    0.004
 5982.00    1.05320   1.00462    0.004
 5983.00    0.95721   1.00324    0.004
 5984.00    0.89779   1.00165    0.004
 5985.00    0.91606   0.99972    0.004
 5986.00    0.93646   0.99777    0.004
 5987.00    0.96082   0.99614    0.004
 5988.00    0.96125   0.99454    0.004
 5989.00    0.92308   0.99370    0.004
 5990.00    0.91334   0.99280    0.004
 5991.00    0.94382   0.99217    0.004
 5992.00    0.98346   0.99150    0.004
 5993.00    1.03450   0.99075    0.004
 5994.00    1.06122   0.99104    0.004
 5995.00    1.06126   0.99151    0.004
 5996.00    1.03691   0.99236    0.004
 5997.00    0.98895   0.99324    0.004
 5998.00    1.00569   0.99407    0.004
 5999.00    1.07766   0.99474    0.004
 6000.00    1.11627   0.99494    0.004
 6001.00    1.12982   0.99552    0.004
 6002.00    1.07834   0.99622    0.004
 6003.00    0.98391   0.99658    0.004
 6004.00    0.95381   0.99634    0.004
 6005.00    0.96092   0.99576    0.004
 6006.00    0.92835   0.99489    0.004
 6007.00    0.87579   0.99371    0.004
 6008.00    0.86506   0.99276    0.004
 6009.00    0.87258   0.99173    0.004
 6010.00    0.97011   0.99031    0.004
 6011.00    1.10134   0.98877    0.004
 6012.00    1.13998   0.98701    0.004
 6013.00    1.14924   0.98601    0.004
 6014.00    1.05223   0.98505    0.004
 6015.00    0.92704   0.98378    0.004
 6016.00    0.88049   0.98292    0.004
 6017.00    0.85098   0.98147    0.004
 6018.00    0.88649   0.98089    0.004
 6019.00    0.93320   0.98074    0.004
 6020.00    0.96722   0.98049    0.004
 6021.00    0.99959   0.98018    0.004
 6022.00    1.06773   0.97930    0.004
 6023.00    1.13916   0.97904    0.004
 6024.00    1.13920   0.97888    0.004
 6025.00    1.13525   0.97873    0.004
 6026.00    1.08291   0.97900    0.004
 6027.00    1.03025   0.97969    0.004
 6028.00    1.05200   0.97984    0.004
 6029.00    1.07264   0.98010    0.004
 6030.00    1.06752   0.98127    0.004
 6031.00    1.06462   0.98266    0.004
 6032.00    1.08995   0.98448    0.004
 6033.00    1.11022   0.98593    0.004
 6034.00    1.08698   0.98840    0.004
 6035.00    1.06178   0.99079    0.004
 6036.00    1.02411   0.99247    0.004
 6037.00    0.99092   0.99515    0.004
 6038.00    0.98007   0.99746    0.004
 6039.00    0.96660   0.99965    0.004
 6040.00    0.94245   1.00142    0.004
 6041.00    0.91175   1.00311    0.004
 6042.00    0.85908   1.00485    0.004
 6043.00    0.80209   1.00580    0.004
 6044.00    0.73289   1.00676    0.004
 6045.00    0.71636   1.00771    0.004
 6046.00    0.82745   1.00820    0.004
 6047.00    0.91978   1.00879    0.004
 6048.00    0.97288   1.00907    0.004
 6049.00    0.99321   1.00931    0.004
 6050.00    0.95400   1.00975    0.004
 6051.00    0.92053   1.00969    0.004
 6052.00    0.89618   1.01020    0.004
 6053.00    0.89406   1.01035    0.004
 6054.00    0.92293   1.01042    0.004
 6055.00    0.94600   1.01034    0.004
 6056.00    0.96192   1.01006    0.004
 6057.00    0.96650   1.00982    0.004
 6058.00    0.95880   1.00894    0.004
 6059.00    0.92226   1.00847    0.004
 6060.00    0.85819   1.00760    0.004
 6061.00    0.82919   1.00661    0.004
 6062.00    0.82971   1.00523    0.004
 6063.00    0.84441   1.00404    0.004
 6064.00    0.86963   1.00284    0.004
 6065.00    0.87493   1.00131    0.004
 6066.00    0.86728   1.00033    0.004
 6067.00    0.86571   0.99891    0.004
 6068.00    0.86761   0.99830    0.004
 6069.00    0.87190   0.99747    0.004
 6070.00    0.87739   0.99704    0.004
 6071.00    0.89634   0.99703    0.004
 6072.00    0.92108   0.99668    0.004
 6073.00    0.92319   0.99718    0.004
 6074.00    0.91700   0.99697    0.004
 6075.00    0.91451   0.99789    0.004
 6076.00    0.91318   0.99957    0.004
 6077.00    0.94708   1.00058    0.004
 6078.00    0.99011   1.00147    0.004
 6079.00    1.00271   1.00186    0.004
 6080.00    1.00888   1.00217    0.004
 6081.00    1.00630   1.00245    0.004
 6082.00    1.00226   1.00230    0.004
 6083.00    1.00144   1.00168    0.004
 6084.00    1.00102   1.00078    0.004
 6085.00    1.00694   0.99911    0.004
 6086.00    1.01341   0.99739    0.004
 6087.00    0.97919   0.99512    0.004
 6088.00    0.94286   0.99313    0.004
 6089.00    0.90021   0.99162    0.004
 6090.00    0.85769   0.98967    0.004
 6091.00    0.83261   0.98776    0.004
 6092.00    0.80901   0.98615    0.004
 6093.00    0.81685   0.98511    0.004
 6094.00    0.82343   0.98391    0.004
 6095.00    0.81463   0.98319    0.004
 6096.00    0.80954   0.98289    0.004
 6097.00    0.83517   0.98291    0.004
 6098.00    0.85625   0.98265    0.004
 6099.00    0.84903   0.98201    0.004
 6100.00    0.83250   0.98202    0.004
 6101.00    0.77056   0.98228    0.004
 6102.00    0.71447   0.98241    0.004
 6103.00    0.68153   0.98232    0.004
 6104.00    0.66710   0.98171    0.004
 6105.00    0.71358   0.98080    0.004
 6106.00    0.76506   0.98004    0.004
 6107.00    0.83050   0.97934    0.004
 6108.00    0.86646   0.97915    0.004
 6109.00    0.83224   0.97841    0.004
 6110.00    0.81957   0.97745    0.004
 6111.00    0.85125   0.97612    0.004
 6112.00    0.86096   0.97519    0.004
 6113.00    0.83137   0.97635    0.004
 6114.00    0.81558   0.97709    0.004
 6115.00    0.82141   0.97763    0.004
 6116.00    0.84575   0.97786    0.004
 6117.00    0.89552   0.97803    0.004
 6118.00    0.90779   0.97940    0.004
 6119.00    0.87468   0.98045    0.004
 6120.00    0.86797   0.98105    0.004
 6121.00    0.88943   0.98119    0.004
 6122.00    0.91873   0.98116    0.004
 6123.00    0.95540   0.98058    0.004
 6124.00    0.99326   0.97933    0.004
 6125.00    1.03212   0.97815    0.004
 6126.00    1.04384   0.97668    0.004
 6127.00    1.03575   0.97567    0.004
 6128.00    1.04422   0.97396    0.004
 6129.00    1.06330   0.97172    0.004
 6130.00    1.08589   0.97016    0.004
 6131.00    1.11044   0.96817    0.004
 6132.00    1.13607   0.96778    0.004
 6133.00    1.16223   0.96753    0.004
 6134.00    1.13323   0.96631    0.004
 6135.00    1.08097   0.96570    0.004
 6136.00    1.00720   0.96450    0.004
 6137.00    0.92566   0.96418    0.004
 6138.00    0.92153   0.96353    0.004
 6139.00    0.94103   0.96195    0.004
 6140.00    0.97022   0.96096    0.004
 6141.00    1.00186   0.95940    0.004
 6142.00    0.94875   0.95835    0.004
 6143.00    0.87815   0.95663    0.004
 6144.00    0.86536   0.95473    0.004
 6145.00    0.86197   0.95360    0.004
 6146.00    0.90148   0.95228    0.004
 6147.00    0.94621   0.95298    0.004
 6148.00    0.95882   0.95410    0.004
 6149.00    0.96874   0.95476    0.004
 6150.00    0.89524   0.95516    0.004
 6151.00    0.81775   0.95553    0.004
 6152.00    0.83012   0.95793    0.004
 6153.00    0.84522   0.96072    0.004
 6154.00    0.94309   0.96237    0.004
 6155.00    1.03438   0.96309    0.004
 6156.00    0.99622   0.96313    0.004
 6157.00    0.95738   0.96344    0.004
 6158.00    0.91071   0.96333    0.004
 6159.00    0.86859   0.96210    0.004
 6160.00    0.86284   0.96069    0.004
 6161.00    0.85434   0.95833    0.004
 6162.00    0.82934   0.95532    0.004
 6163.00    0.80529   0.95110    0.004
 6164.00    0.78578   0.94627    0.004
 6165.00    0.77082   0.94197    0.004
 6166.00    0.77352   0.93715    0.004
 6167.00    0.77746   0.93249    0.004
 6168.00    0.78544   0.92702    0.004
 6169.00    0.79050   0.92184    0.004
 6170.00    0.78758   0.91708    0.004
 6171.00    0.79629   0.91250    0.004
 6172.00    0.83221   0.90964    0.004
 6173.00    0.85774   0.90771    0.004
 6174.00    0.86224   0.90662    0.004
 6175.00    0.85706   0.90521    0.004
 6176.00    0.83483   0.90449    0.004
 6177.00    0.81733   0.90565    0.004
 6178.00    0.80716   0.90736    0.004
 6179.00    0.78049   0.90969    0.004
 6180.00    0.73148   0.91254    0.004
 6181.00    0.72280   0.91553    0.004
 6182.00    0.76223   0.91829    0.004
 6183.00    0.80159   0.92061    0.004
 6184.00    0.84090   0.92319    0.004
 6185.00    0.85280   0.92682    0.004
 6186.00    0.83925   0.92965    0.004
 6187.00    0.81147   0.93142    0.004
 6188.00    0.77205   0.93267    0.004
 6189.00    0.79307   0.93347    0.004
 6190.00    0.85759   0.93431    0.004
 6191.00    0.94849   0.93447    0.004
 6192.00    1.05604   0.93427    0.004
 6193.00    1.26981   0.93281    0.004
 6194.00    1.54224   0.93130    0.004
 6195.00    2.12237   0.92999    0.004
 6196.00    2.85024   0.92852   -2.000
 6197.00    3.21408   0.92733   -2.000
 6198.00    3.42702   0.92537   -2.000
 6199.00    2.92947   0.92443   -2.000
 6200.00    2.18009   0.92345   -2.000
 6201.00    1.23351   0.92276   -2.000
 6202.00    0.22790   0.92344   -2.000
 6203.00   -0.03373   0.92379   -2.000
 6204.00   -0.11057   0.92474   -2.000
 6205.00    0.08559   0.92543   -2.000
 6206.00    0.33671   0.92631   -2.000
 6207.00    0.48198   0.92835   -2.000
 6208.00    0.61055   0.92974    0.004
 6209.00    0.65131   0.93093    0.004
 6210.00    0.68178   0.93213    0.004
 6211.00    0.71182   0.93310    0.004
 6212.00    0.74182   0.93385    0.004
 6213.00    0.83247   0.93386    0.004
 6214.00    0.92579   0.93366    0.004
 6215.00    0.98720   0.93302    0.004
 6216.00    1.04735   0.93214    0.004
 6217.00    1.06402   0.93034    0.004
 6218.00    1.07796   0.92804    0.004
 6219.00    1.04178   0.92603    0.004
 6220.00    1.00728   0.92317    0.004
 6221.00    0.99140   0.92037    0.004
 6222.00    0.97898   0.91719    0.004
 6223.00    0.99337   0.91407    0.004
 6224.00    1.00887   0.91206    0.004
 6225.00    1.03090   0.90969    0.004
 6226.00    1.05308   0.90752    0.004
 6227.00    1.07590   0.90561    0.004
 6228.00    1.07801   0.90369    0.004
 6229.00    1.00160   0.90300    0.004
 6230.00    0.90867   0.90250    0.004
 6231.00    0.76342   0.90181    0.004
 6232.00    0.65806   0.90108    0.004
 6233.00    0.65977   0.89992    0.004
 6234.00    0.67404   0.89956    0.004
 6235.00    0.71727   0.89943    0.004
 6236.00    0.74693   0.89931    0.004
 6237.00    0.74955   0.89867    0.004
 6238.00    0.74529   0.89783    0.004
 6239.00    0.72909   0.89744    0.004
 6240.00    0.71442   0.89705    0.004
 6241.00    0.70208   0.89753    0.004
 6242.00    0.73716   0.89708    0.004
 6243.00    0.83554   0.89695    0.004
 6244.00    0.92516   0.89677    0.004
 6245.00    1.00449   0.89593    0.004
 6246.00    1.04363   0.89638    0.004
 6247.00    1.04112   0.89561    0.004
 6248.00    1.03016   0.89524    0.004
 6249.00    1.01148   0.89466    0.004
 6250.00    0.95574   0.89334    0.004
 6251.00    0.87013   0.89316    0.004
 6252.00    0.80275   0.89207    0.004
 6253.00    0.74832   0.89120    0.004
 6254.00    0.74389   0.89029    0.004
 6255.00    0.77060   0.88908    0.004
 6256.00    0.84005   0.88844    0.004
 6257.00    0.93274   0.88759    0.004
 6258.00    1.11309   0.88637    0.004
 6259.00    1.33486   0.88506    0.004
 6260.00    1.39772   0.88373    0.005
 6261.00    1.39581   0.88264    0.005
 6262.00    1.20876   0.88224    0.005
 6263.00    0.95728   0.88137    0.005
 6264.00    0.69686   0.88098    0.005
 6265.00    0.43381   0.88078    0.005
 6266.00    0.47462   0.88087    0.005
 6267.00    0.58923   0.88212    0.004
 6268.00    0.64784   0.88330    0.004
 6269.00    0.69547   0.88551    0.004
 6270.00    0.76213   0.88764    0.004
 6271.00    0.83171   0.88958    0.004
 6272.00    0.81679   0.89210    0.004
 6273.00    0.79235   0.89457    0.004
 6274.00    0.78526   0.89762    0.004
 6275.00    0.77948   0.90022    0.004
 6276.00    0.83119   0.90214    0.004
 6277.00    0.88521   0.90394    0.004
 6278.00    0.83676   0.90558    0.004
 6279.00    0.78801   0.90727    0.004
 6280.00    0.75709   0.90873    0.000
 6281.00    0.73070   0.90955    0.000
 6282.00    0.78126   0.90992    0.000
 6283.00    0.83392   0.91036    0.000
 6284.00    0.90868   0.91077    0.000
 6285.00    0.97251   0.91134    0.000
 6286.00    0.95471   0.91169    0.000
 6287.00    0.92783   0.91132    0.000
 6288.00    0.84933   0.91158    0.000
 6289.00    0.77348   0.91194    0.000
 6290.00    0.70961   0.91258    0.000
 6291.00    0.66683   0.91362    0.000
 6292.00    0.70229   0.91359    0.000
 6293.00    0.73355   0.91421    0.000
 6294.00    0.75178   0.91488    0.000
 6295.00    0.77709   0.91545    0.000
 6296.00    0.82109   0.91666    0.000
 6297.00    0.84342   0.91649    0.000
 6298.00    0.81668   0.91614    0.000
 6299.00    0.78221   0.91574    0.000
 6300.00    0.73260   0.91502    0.000
 6301.00    0.69335   0.91497    0.000
 6302.00    0.67183   0.91386    0.000
 6303.00    0.67982   0.91202    0.000
 6304.00    0.73198   0.91049    0.000
 6305.00    0.77244   0.90918    0.000
 6306.00    0.79746   0.90871    0.000
 6307.00    0.80775   0.90785    0.000
 6308.00    0.80094   0.90649    0.000
 6309.00    0.80648   0.90588    0.000
 6310.00    0.82464   0.90594    0.000
 6311.00    0.82870   0.90658    0.000
 6312.00    0.82005   0.90698    0.000
 6313.00    0.77725   0.90715    0.000
 6314.00    0.70732   0.90783    0.000
 6315.00    0.63029   0.90879    0.000
 6316.00    0.54829   0.90958    0.000
 6317.00    0.52810   0.90979    0.000
 6318.00    0.54579   0.91000    0.000
 6319.00    0.58226   0.91007    0.000
 6320.00    0.62879   0.90993    0.000
 6321.00    0.64983   0.90971    0.004
 6322.00    0.65901   0.90886    0.004
 6323.00    0.64615   0.90870    0.004
 6324.00    0.62446   0.90821    0.004
 6325.00    0.58171   0.90755    0.004
 6326.00    0.53176   0.90781    0.004
 6327.00    0.55225   0.90772    0.004
 6328.00    0.59299   0.90864    0.004
 6329.00    0.72636   0.90924    0.004
 6330.00    0.88172   0.90987    0.004
 6331.00    0.91623   0.91160    0.004
 6332.00    0.92762   0.91257    0.004
 6333.00    0.84803   0.91429    0.004
 6334.00    0.75495   0.91538    0.004
 6335.00    0.75511   0.91652    0.004
 6336.00    0.76538   0.91801    0.004
 6337.00    0.78015   0.91790    0.004
 6338.00    0.79525   0.91843    0.004
 6339.00    0.80895   0.91856    0.004
 6340.00    0.82260   0.91862    0.004
 6341.00    0.89339   0.91850    0.004
 6342.00    0.96079   0.91700    0.004
 6343.00    0.90126   0.91613    0.004
 6344.00    0.84079   0.91573    0.004
 6345.00    0.76517   0.91529    0.004
 6346.00    0.69669   0.91434    0.004
 6347.00    0.69996   0.91345    0.004
 6348.00    0.70680   0.91289    0.004
 6349.00    0.73946   0.91291    0.004
 6350.00    0.77044   0.91309    0.004
 6351.00    0.79211   0.91236    0.004
 6352.00    0.80599   0.91265    0.004
 6353.00    0.78549   0.91299    0.004
 6354.00    0.76770   0.91313    0.004
 6355.00    0.75978   0.91336    0.004
 6356.00    0.74892   0.91260    0.004
 6357.00    0.72914   0.91247    0.004
 6358.00    0.72537   0.91247    0.004
 6359.00    0.76305   0.91171    0.004
 6360.00    0.80330   0.91052    0.004
 6361.00    0.84929   0.90873    0.004
 6362.00    0.87735   0.90709    0.004
 6363.00    0.87080   0.90583    0.004
 6364.00    0.86683   0.90408    0.004
 6365.00    0.86718   0.90170    0.004
 6366.00    0.85570   0.89952    0.004
 6367.00    0.82676   0.89804    0.004
 6368.00    0.77915   0.89703    0.004
 6369.00    0.70733   0.89621    0.004
 6370.00    0.63065   0.89547    0.004
 6371.00    0.54842   0.89527    0.004
 6372.00    0.50452   0.89619    0.004
 6373.00    0.49926   0.89735    0.004
 6374.00    0.53185   0.89889    0.004
 6375.00    0.59809   0.90097    0.004
 6376.00    0.64664   0.90295    0.004
 6377.00    0.68132   0.90532    0.004
 6378.00    0.71347   0.90765    0.004
 6379.00    0.74389   0.91010    0.004
 6380.00    0.79035   0.91255    0.004
 6381.00    0.84650   0.91419    0.004
 6382.00    0.81305   0.91555    0.004
 6383.00    0.73238   0.91677    0.004
 6384.00    0.66620   0.91815    0.004
 6385.00    0.60664   0.91886    0.004
 6386.00    0.58598   0.91878    0.004
 6387.00    0.58063   0.91870    0.004
 6388.00    0.61301   0.91857    0.004
 6389.00    0.65804   0.91885    0.004
 6390.00    0.73331   0.91829    0.004
 6391.00    0.81710   0.91724    0.004
 6392.00    0.84197   0.91668    0.004
 6393.00    0.85318   0.91625    0.004
 6394.00    0.81255   0.91600    0.004
 6395.00    0.76228   0.91476    0.004
 6396.00    0.76121   0.91341    0.004
 6397.00    0.76721   0.91272    0.004
 6398.00    0.72151   0.91234    0.004
 6399.00    0.67042   0.91172    0.004
 6400.00    0.60268   0.91001    0.004
 6401.00    0.53383   0.90858    0.004
 6402.00    0.54202   0.90796    0.004
 6403.00    0.55272   0.90816    0.004
 6404.00    0.54781   0.90800    0.004
 6405.00    0.54396   0.90698    0.004
 6406.00    0.57314   0.90623    0.004
 6407.00    0.60451   0.90575    0.004
 6408.00    0.66870   0.90705    0.004
 6409.00    0.72641   0.90797    0.004
 6410.00    0.72150   0.90772    0.004
 6411.00    0.71468   0.90809    0.004
 6412.00    0.69445   0.90787    0.004
 6413.00    0.67224   0.90883    0.004
 6414.00    0.63939   0.90978    0.004
 6415.00    0.60796   0.90940    0.004
 6416.00    0.58273   0.91002    0.004
 6417.00    0.56264   0.91002    0.004
 6418.00    0.56083   0.90945    0.004
 6419.00    0.55857   0.90952    0.004
 6420.00    0.55499   0.90936    0.004
 6421.00    0.56874   0.90954    0.004
 6422.00    0.62659   0.90936    0.004
 6423.00    0.67448   0.90832    0.004
 6424.00    0.70057   0.90830    0.004
 6425.00    0.70257   0.90897    0.004
 6426.00    0.65879   0.90908    0.004
 6427.00    0.59005   0.90865    0.004
 6428.00    0.47988   0.90820    0.004
 6429.00    0.40698   0.90899    0.004
 6430.00    0.38827   0.91034    0.004
 6431.00    0.42603   0.91065    0.004
 6432.00    0.53600   0.91010    0.004
 6433.00    0.60453   0.90999    0.004
 6434.00    0.62635   0.91127    0.004
 6435.00    0.64177   0.91234    0.004
 6436.00    0.65081   0.91236    0.004
 6437.00    0.69254   0.91164    0.004
 6438.00    0.76292   0.91128    0.004
 6439.00    0.79675   0.91239    0.004
 6440.00    0.80236   0.91254    0.004
 6441.00    0.78328   0.91190    0.004
 6442.00    0.74742   0.91188    0.004
 6443.00    0.70962   0.91190    0.004
 6444.00    0.67067   0.91288    0.004
 6445.00    0.64686   0.91295    0.004
 6446.00    0.63092   0.91210    0.004
 6447.00    0.63430   0.91307    0.004
 6448.00    0.64636   0.91404    0.004
 6449.00    0.65410   0.91452    0.004
 6450.00    0.66017   0.91483    0.004
 6451.00    0.65725   0.91355    0.004
 6452.00    0.65137   0.91352    0.004
 6453.00    0.65414   0.91451    0.004
 6454.00    0.65930   0.91390    0.004
 6455.00    0.67066   0.91350    0.004
 6456.00    0.68342   0.91169    0.004
 6457.00    0.63583   0.90976    0.004
 6458.00    0.57729   0.91010    0.004
 6459.00    0.58328   0.90929    0.004
 6460.00    0.59824   0.90854    0.004
 6461.00    0.61117   0.90758    0.004
 6462.00    0.62390   0.90599    0.004
 6463.00    0.63098   0.90641    0.004
 6464.00    0.63771   0.90607    0.004
 6465.00    0.68074   0.90584    0.004
 6466.00    0.72480   0.90641    0.004
 6467.00    0.76147   0.90611    0.004
 6468.00    0.79705   0.90653    0.004
 6469.00    0.80218   0.90613    0.004
 6470.00    0.80249   0.90614    0.004
 6471.00    0.73459   0.90723    0.004
 6472.00    0.67371   0.90724    0.004
 6473.00    0.67788   0.90727    0.004
 6474.00    0.68822   0.90703    0.004
 6475.00    0.74026   0.90728    0.004
 6476.00    0.78413   0.90795    0.004
 6477.00    0.78513   0.90769    0.004
 6478.00    0.77168   0.90727    0.004
 6479.00    0.69719   0.90720    0.004
 6480.00    0.62900   0.90734    0.004
 6481.00    0.58280   0.90695    0.004
 6482.00    0.54553   0.90612    0.004
 6483.00    0.53446   0.90514    0.004
 6484.00    0.56640   0.90433    0.004
 6485.00    0.70593   0.90370    0.004
 6486.00    0.82359   0.90260    0.004
 6487.00    0.89412   0.90132    0.004
 6488.00    0.92943   0.89973    0.004
 6489.00    0.89882   0.89811    0.004
 6490.00    0.87987   0.89668    0.004
 6491.00    0.87995   0.89490    0.004
 6492.00    0.85477   0.89293    0.004
 6493.00    0.79338   0.89045    0.004
 6494.00    0.73510   0.88797    0.004
 6495.00    0.68071   0.88541    0.004
 6496.00    0.64750   0.88175    0.004
 6497.00    0.63781   0.87835    0.004
 6498.00    0.65672   0.87474    0.004
 6499.00    0.70366   0.87119    0.004
 6500.00    0.72103   0.86790    0.004
 6501.00    0.71285   0.86310    0.004
 6502.00    0.70067   0.85996    0.004
 6503.00    0.68547   0.85764    0.004
 6504.00    0.72195   0.85522    0.004
 6505.00    0.79301   0.85446    0.004
 6506.00    0.82329   0.85289    0.004
 6507.00    0.82968   0.85346    0.004
 6508.00    0.82368   0.85557    0.004
 6509.00    0.81134   0.85684    0.004
 6510.00    0.82144   0.85985    0.004
 6511.00    0.84146   0.86264    0.004
 6512.00    0.86912   0.86617    0.004
 6513.00    0.89970   0.87041    0.004
 6514.00    0.90123   0.87324    0.004
 6515.00    0.89339   0.87649    0.004
 6516.00    0.82137   0.87947    0.004
 6517.00    0.73202   0.88197    0.004
 6518.00    0.68042   0.88418    0.004
 6519.00    0.63717   0.88547    0.004
 6520.00    0.67726   0.88643    0.004
 6521.00    0.73205   0.88719    0.004
 6522.00    0.72087   0.88774    0.004
 6523.00    0.70082   0.88778    0.004
 6524.00    0.69979   0.88772    0.004
 6525.00    0.70059   0.88745    0.004
 6526.00    0.70832   0.88728    0.004
 6527.00    0.71647   0.88761    0.004
 6528.00    0.63960   0.88728    0.000
 6529.00    0.56105   0.88714    0.000
 6530.00    0.54770   0.88734    0.000
 6531.00    0.53830   0.88754    0.000
 6532.00    0.62839   0.88826    0.000
 6533.00    0.71560   0.88824    0.000
 6534.00    0.76408   0.88816    0.000
 6535.00    0.80544   0.88874    0.000
 6536.00    0.78337   0.88914    0.000
 6537.00    0.76095   0.88959    0.000
 6538.00    0.73624   0.88964    0.000
 6539.00    0.70712   0.88949    0.000
 6540.00    0.65554   0.88980    0.000
 6541.00    0.60725   0.89003    0.000
 6542.00    0.57257   0.89000    0.000
 6543.00    0.55119   0.88972    0.000
 6544.00    0.57525   0.88932    0.000
 6545.00    0.61176   0.88900    0.000
 6546.00    0.68411   0.88861    0.000
 6547.00    0.72260   0.88763    0.000
 6548.00    0.67782   0.88604    0.000
 6549.00    0.64025   0.88476    0.000
 6550.00    0.61795   0.88340    0.000
 6551.00    0.60509   0.88149    0.000
 6552.00    0.60963   0.87898    0.000
 6553.00    0.63837   0.87577    0.000
 6554.00    0.70604   0.87318    0.000
 6555.00    0.76663   0.87043    0.000
 6556.00    0.81721   0.86646    0.000
 6557.00    0.86332   0.86237    0.000
 6558.00    0.90388   0.85796    0.000
 6559.00    1.02532   0.85328    0.000
 6560.00    1.23537   0.84826    0.000
 6561.00    1.36511   0.84216    0.000
 6562.00    1.41726   0.83621    0.000
 6563.00    1.31764   0.83024    0.000
 6564.00    1.08874   0.82204    0.000
 6565.00    0.90412   0.81409    0.000
 6566.00    0.75273   0.80817    0.000
 6567.00    0.72543   0.80183    0.000
 6568.00    0.77992   0.79568    0.000
 6569.00    0.77778   0.78887    0.000
 6570.00    0.74296   0.78322    0.000
 6571.00    0.71519   0.78181    0.000
 6572.00    0.69096   0.77975    0.000
 6573.00    0.66506   0.77827    0.000
 6574.00    0.63844   0.78002    0.000
 6575.00    0.65872   0.78261    0.000
 6576.00    0.69651   0.78702    0.000
 6577.00    0.75111   0.79100    0.000
 6578.00    0.81103   0.79525    0.000
 6579.00    0.83471   0.80283    0.000
 6580.00    0.84881   0.81022    0.000
 6581.00    0.86146   0.81636    0.000
 6582.00    0.87380   0.82197    0.000
 6583.00    0.94459   0.82737    0.000
 6584.00    1.02541   0.83353    0.000
 6585.00    1.02349   0.83911    0.000
 6586.00    1.01082   0.84377    0.000
 6587.00    0.95806   0.84779    0.000
 6588.00    0.90165   0.85095    0.000
 6589.00    0.82368   0.85423    0.000
 6590.00    0.74453   0.85693    0.000
 6591.00    0.66100   0.85899    0.000
 6592.00    0.57768   0.86115    0.000
 6593.00    0.52370   0.86233    0.000
 6594.00    0.47257   0.86308    0.000
 6595.00    0.48685   0.86340    0.000
 6596.00    0.50873   0.86330    0.000
 6597.00    0.62706   0.86401    0.000
 6598.00    0.74026   0.86398    0.000
 6599.00    0.80940   0.86329    0.000
 6600.00    0.86224   0.86259    0.000
 6601.00    0.81129   0.86203    0.000
 6602.00    0.75916   0.86225    0.000
 6603.00    0.70113   0.86174    0.000
 6604.00    0.66102   0.86151    0.000
 6605.00    0.69326   0.86199    0.000
 6606.00    0.71938   0.86207    0.000
 6607.00    0.72499   0.86250    0.000
 6608.00    0.72407   0.86232    0.000
 6609.00    0.70473   0.86276    0.004
 6610.00    0.70826   0.86415    0.004
 6611.00    0.76709   0.86434    0.004
 6612.00    0.80698   0.86476    0.004
 6613.00    0.80732   0.86519    0.004
 6614.00    0.78682   0.86528    0.004
 6615.00    0.72849   0.86590    0.004
 6616.00    0.69721   0.86613    0.004
 6617.00    0.70881   0.86670    0.004
 6618.00    0.70893   0.86726    0.004
 6619.00    0.69306   0.86718    0.004
 6620.00    0.67803   0.86777    0.004
 6621.00    0.66404   0.86859    0.004
 6622.00    0.64542   0.86943    0.004
 6623.00    0.62181   0.86986    0.004
 6624.00    0.61474   0.86982    0.004
 6625.00    0.62343   0.87068    0.004
 6626.00    0.68005   0.87131    0.004
 6627.00    0.77690   0.87128    0.004
 6628.00    0.82125   0.87119    0.004
 6629.00    0.82679   0.87072    0.004
 6630.00    0.78058   0.87054    0.004
 6631.00    0.70077   0.87000    0.004
 6632.00    0.67875   0.86887    0.004
 6633.00    0.68958   0.86806    0.004
 6634.00    0.72127   0.86692    0.004
 6635.00    0.76327   0.86548    0.004
 6636.00    0.72891   0.86451    0.004
 6637.00    0.66189   0.86337    0.004
 6638.00    0.64913   0.86230    0.004
 6639.00    0.65628   0.86119    0.004
 6640.00    0.67658   0.85985    0.004
 6641.00    0.70096   0.85921    0.004
 6642.00    0.66478   0.85867    0.004
 6643.00    0.61293   0.85804    0.004
 6644.00    0.62971   0.85761    0.004
 6645.00    0.66098   0.85695    0.004
 6646.00    0.71377   0.85690    0.004
 6647.00    0.77014   0.85709    0.004
 6648.00    0.77137   0.85675    0.004
 6649.00    0.76568   0.85661    0.004
 6650.00    0.75354   0.85636    0.004
 6651.00    0.74083   0.85674    0.004
 6652.00    0.70820   0.85729    0.004
 6653.00    0.67454   0.85650    0.004
 6654.00    0.66913   0.85628    0.004
 6655.00    0.66372   0.85667    0.004
 6656.00    0.62391   0.85674    0.004
 6657.00    0.58353   0.85683    0.004
 6658.00    0.53132   0.85608    0.004
 6659.00    0.48859   0.85577    0.004
 6660.00    0.56016   0.85614    0.004
 6661.00    0.63106   0.85554    0.004
 6662.00    0.69639   0.85486    0.004
 6663.00    0.75160   0.85443    0.004
 6664.00    0.74429   0.85381    0.004
 6665.00    0.73192   0.85303    0.004
 6666.00    0.69492   0.85208    0.004
 6667.00    0.67467   0.85125    0.004
 6668.00    0.72049   0.85046    0.004
 6669.00    0.76484   0.84963    0.004
 6670.00    0.80434   0.84855    0.004
 6671.00    0.82847   0.84792    0.004
 6672.00    0.80990   0.84759    0.004
 6673.00    0.80214   0.84656    0.004
 6674.00    0.82003   0.84619    0.004
 6675.00    0.82191   0.84621    0.004
 6676.00    0.79090   0.84599    0.004
 6677.00    0.74864   0.84603    0.004
 6678.00    0.68630   0.84571    0.004
 6679.00    0.65147   0.84548    0.004
 6680.00    0.65959   0.84547    0.004
 6681.00    0.63493   0.84550    0.004
 6682.00    0.56529   0.84520    0.004
 6683.00    0.53023   0.84467    0.004
 6684.00    0.53695   0.84435    0.004
 6685.00    0.54130   0.84385    0.004
 6686.00    0.54315   0.84378    0.004
 6687.00    0.53258   0.84313    0.004
 6688.00    0.51034   0.84193    0.004
 6689.00    0.52684   0.84234    0.004
 6690.00    0.57541   0.84259    0.004
 6691.00    0.65151   0.84229    0.004
 6692.00    0.74769   0.84233    0.004
 6693.00    0.79089   0.84209    0.004
 6694.00    0.80019   0.84274    0.004
 6695.00    0.79568   0.84320    0.004
 6696.00    0.78345   0.84298    0.000
 6697.00    0.71083   0.84333    0.000
 6698.00    0.60881   0.84332    0.000
 6699.00    0.57895   0.84346    0.000
 6700.00    0.57946   0.84350    0.000
 6701.00    0.64349   0.84300    0.000
 6702.00    0.73039   0.84295    0.000
 6703.00    0.72841   0.84267    0.000
 6704.00    0.69936   0.84227    0.000
 6705.00    0.69134   0.84194    0.000
 6706.00    0.68865   0.84107    0.000
 6707.00    0.70495   0.84079    0.000
 6708.00    0.72515   0.84066    0.000
 6709.00    0.81736   0.84001    0.000
 6710.00    0.92122   0.83976    0.000
 6711.00    0.94158   0.83936    0.000
 6712.00    0.95185   0.83868    0.000
 6713.00    0.93667   0.83825    0.000
 6714.00    0.91939   0.83749    0.000
 6715.00    0.87253   0.83668    0.000
 6716.00    0.82426   0.83625    0.000
 6717.00    0.77014   0.83521    0.000
 6718.00    0.71698   0.83401    0.000
 6719.00    0.72257   0.83295    0.000
 6720.00    0.72745   0.83128    0.000
 6721.00    0.71880   0.83028    0.000
 6722.00    0.71532   0.82923    0.000
 6723.00    0.77113   0.82744    0.000
 6724.00    0.81801   0.82641    0.000
 6725.00    0.79366   0.82545    0.000
 6726.00    0.76751   0.82458    0.000
 6727.00    0.73046   0.82362    0.000
 6728.00    0.70767   0.82266    0.000
 6729.00    0.75246   0.82322    0.000
 6730.00    0.78262   0.82359    0.000
 6731.00    0.75623   0.82321    0.000
 6732.00    0.74046   0.82358    0.000
 6733.00    0.75886   0.82426    0.000
 6734.00    0.74266   0.82519    0.000
 6735.00    0.63213   0.82573    0.000
 6736.00    0.56255   0.82580    0.000
 6737.00    0.58869   0.82682    0.000
 6738.00    0.63058   0.82775    0.000
 6739.00    0.70430   0.82785    0.000
 6740.00    0.76151   0.82801    0.000
 6741.00    0.78972   0.82819    0.000
 6742.00    0.78339   0.82827    0.000
 6743.00    0.72393   0.82811    0.000
 6744.00    0.66669   0.82753    0.000
 6745.00    0.61245   0.82697    0.000
 6746.00    0.60388   0.82679    0.000
 6747.00    0.64968   0.82610    0.000
 6748.00    0.70281   0.82504    0.000
 6749.00    0.76366   0.82421    0.000
 6750.00    0.79569   0.82351    0.000
 6751.00    0.80103   0.82293    0.000
 6752.00    0.82526   0.82190    0.000
 6753.00    0.86489   0.82095    0.005
 6754.00    0.81725   0.82064    0.005
 6755.00    0.70691   0.82009    0.005
 6756.00    0.61085   0.81969    0.005
 6757.00    0.52378   0.81932    0.005
 6758.00    0.45756   0.81920    0.005
 6759.00    0.40283   0.81955    0.005
 6760.00    0.46072   0.81937    0.005
 6761.00    0.57258   0.81992    0.005
 6762.00    0.66994   0.82081    0.005
 6763.00    0.76131   0.82103    0.005
 6764.00    0.82712   0.82199    0.005
 6765.00    0.88389   0.82292    0.005
 6766.00    0.96106   0.82357    0.005
 6767.00    1.04430   0.82450    0.005
 6768.00    0.95699   0.82504    0.005
 6769.00    0.82743   0.82553    0.005
 6770.00    0.68146   0.82621    0.005
 6771.00    0.53220   0.82651    0.005
 6772.00    0.59514   0.82637    0.005
 6773.00    0.69143   0.82650    0.005
 6774.00    0.75179   0.82667    0.005
 6775.00    0.80796   0.82645    0.005
 6776.00    0.80372   0.82638    0.005
 6777.00    0.79471   0.82600    0.004
 6778.00    0.74061   0.82584    0.005
 6779.00    0.68455   0.82631    0.005
 6780.00    0.72763   0.82608    0.005
 6781.00    0.76933   0.82594    0.005
 6782.00    0.69797   0.82637    0.005
 6783.00    0.62681   0.82652    0.005
 6784.00    0.55909   0.82666    0.005
 6785.00    0.49914   0.82655    0.005
 6786.00    0.52435   0.82641    0.005
 6787.00    0.54195   0.82647    0.005
 6788.00    0.50100   0.82602    0.005
 6789.00    0.47508   0.82550    0.005
 6790.00    0.53669   0.82499    0.005
 6791.00    0.59008   0.82426    0.005
 6792.00    0.60548   0.82345    0.005
 6793.00    0.62453   0.82253    0.005
 6794.00    0.65741   0.82167    0.005
 6795.00    0.70121   0.82083    0.005
 6796.00    0.77945   0.82008    0.005
 6797.00    0.84624   0.81952    0.005
 6798.00    0.88236   0.81904    0.005
 6799.00    0.90353   0.81874    0.005
 6800.00    0.89038   0.81827    0.005
 6801.00    0.87408   0.81812    0.005
 6802.00    0.85153   0.81835    0.005
 6803.00    0.80879   0.81807    0.005
 6804.00    0.73105   0.81824    0.005
 6805.00    0.69989   0.81867    0.005
 6806.00    0.73938   0.81854    0.005
 6807.00    0.76653   0.81908    0.005
 6808.00    0.77722   0.81921    0.005
 6809.00    0.76134   0.81905    0.005
 6810.00    0.71428   0.81978    0.005
 6811.00    0.71450   0.81964    0.005
 6812.00    0.76363   0.81952    0.005
 6813.00    0.82967   0.81998    0.005
 6814.00    0.91113   0.81953    0.005
 6815.00    0.89231   0.81972    0.005
 6816.00    0.79278   0.81978    0.005
 6817.00    0.77727   0.81901    0.005
 6818.00    0.82125   0.81949    0.005
 6819.00    0.82537   0.81945    0.005
 6820.00    0.80475   0.81876    0.005
 6821.00    0.76501   0.81915    0.005
 6822.00    0.71489   0.81899    0.005
 6823.00    0.77877   0.81892    0.005
 6824.00    0.89640   0.81920    0.005
 6825.00    0.88316   0.81882    0.005
 6826.00    0.81671   0.81920    0.005
 6827.00    0.67714   0.81960    0.005
 6828.00    0.51219   0.81946    0.005
 6829.00    0.58720   0.81972    0.005
 6830.00    0.73243   0.81979    0.005
 6831.00    0.85303   0.81996    0.005
 6832.00    0.96766   0.82023    0.005
 6833.00    0.87196   0.82008    0.005
 6834.00    0.73510   0.82007    0.005
 6835.00    0.66397   0.82010    0.005
 6836.00    0.60286   0.82013    0.005
 6837.00    0.70733   0.81986    0.005
 6838.00    0.83039   0.81921    0.005
 6839.00    0.76048   0.81906    0.005
 6840.00    0.67615   0.81872    0.005
 6841.00    0.75487   0.81799    0.005
 6842.00    0.84007   0.81738    0.005
 6843.00    0.77242   0.81650    0.005
 6844.00    0.70731   0.81589    0.005
 6845.00    0.78496   0.81517    0.005
 6846.00    0.85285   0.81392    0.005
 6847.00    0.75583   0.81329    0.005
 6848.00    0.66805   0.81254    0.005
 6849.00    0.67689   0.81154    0.005
 6850.00    0.68274   0.81114    0.005
 6851.00    0.66640   0.81029    0.005
 6852.00    0.65084   0.80969    0.005
 6853.00    0.63975   0.80965    0.005
 6854.00    0.64734   0.80908    0.005
 6855.00    0.73921   0.80906    0.005
 6856.00    0.84278   0.80895    0.005
 6857.00    0.98964   0.80845    0.005
 6858.00    1.07104   0.80880    0.005
 6859.00    0.94969   0.80844    0.005
 6860.00    0.80673   0.80772    0.005
 6861.00    0.60696   0.80787    0.005
 6862.00    0.48535   0.80737    0.005
 6863.00    0.54036   0.80676    0.005
 6864.00    0.59026   0.80648    0.005
 6865.00    0.63014   0.80568    0.005
 6866.00    0.63487   0.80544    0.005
 6867.00    0.57961   0.80510    0.005
 6868.00    0.52987   0.80416    0.005
 6869.00    0.48839   0.80421    0.005
 6870.00    0.57621   0.80408    0.005
 6871.00    0.83391   0.80345    0.005
 6872.00    0.95202   0.80366    0.005
 6873.00    0.90860   0.80356    0.005
 6874.00    0.82270   0.80337    0.005
 6875.00    0.69347   0.80367    0.005
 6876.00    0.64589   0.80364    0.005
 6877.00    0.67182   0.80385    0.005
 6878.00    0.67997   0.80406    0.005
 6879.00    0.67402   0.80408    0.005
 6880.00    0.69338   0.80456    0.005
 6881.00    0.73041   0.80461    0.005
 6882.00    0.68027   0.80472    0.005
 6883.00    0.57679   0.80549    0.005
 6884.00    0.59215   0.80568    0.005
 6885.00    0.67102   0.80577    0.005
 6886.00    0.71706   0.80637    0.005
 6887.00    0.74788   0.80677    0.005
 6888.00    0.81592   0.80706    0.005
 6889.00    0.89884   0.80742    0.005
 6890.00    0.92202   0.80805    0.005
 6891.00    0.92485   0.80862    0.005
 6892.00    0.89249   0.80882    0.005
 6893.00    0.85004   0.80949    0.005
 6894.00    0.87202   0.81009    0.005
 6895.00    0.90925   0.81043    0.005
 6896.00    0.88132   0.81109    0.005
 6897.00    0.84096   0.81170    0.005
 6898.00    0.91316   0.81247    0.005
 6899.00    1.00199   0.81299    0.005
 6900.00    0.81548   0.81327    0.005
 6901.00    0.59926   0.81421    0.005
 6902.00    0.57638   0.81454    0.005
 6903.00    0.56718   0.81461    0.005
 6904.00    0.62266   0.81542    0.005
 6905.00    0.68048   0.81553    0.005
 6906.00    0.68772   0.81561    0.005
 6907.00    0.69369   0.81604    0.005
 6908.00    0.66161   0.81608    0.005
 6909.00    0.63100   0.81642    0.005
 6910.00    0.62348   0.81637    0.005
 6911.00    0.61602   0.81643    0.005
 6912.00    0.60906   0.81703    0.005
 6913.00    0.60725   0.81658    0.005
 6914.00    0.64249   0.81656    0.005
 6915.00    0.67936   0.81692    0.005
 6916.00    0.72517   0.81637    0.005
 6917.00    0.75899   0.81648    0.005
 6918.00    0.74000   0.81607    0.005
 6919.00    0.70804   0.81523    0.005
 6920.00    0.62912   0.81556    0.005
 6921.00    0.58983   0.81474    0.005
 6922.00    0.67102   0.81389    0.005
 6923.00    0.71116   0.81396    0.005
 6924.00    0.64517   0.81285    0.005
 6925.00    0.61472   0.81253    0.005
 6926.00    0.66327   0.81227    0.005
 6927.00    0.72616   0.81097    0.005
 6928.00    0.81667   0.81117    0.005
 6929.00    0.79302   0.81096    0.005
 6930.00    0.57750   0.81005    0.005
 6931.00    0.45679   0.81033    0.005
 6932.00    0.47571   0.81010    0.005
 6933.00    0.52104   0.80987    0.005
 6934.00    0.60056   0.80998    0.005
 6935.00    0.66676   0.80965    0.005
 6936.00    0.71775   0.80982    0.005
 6937.00    0.67839   0.80979    0.005
 6938.00    0.54813   0.80940    0.005
 6939.00    0.55205   0.80971    0.005
 6940.00    0.67504   0.80998    0.005
 6941.00    0.66849   0.80996    0.005
 6942.00    0.56064   0.81017    0.005
 6943.00    0.61910   0.81008    0.005
 6944.00    0.79193   0.81016    0.005
 6945.00    0.80331   0.81042    0.005
 6946.00    0.71738   0.80999    0.005
 6947.00    0.68740   0.80989    0.005
 6948.00    0.68687   0.81029    0.005
 6949.00    0.67231   0.80998    0.005
 6950.00    0.65135   0.80952    0.005
 6951.00    0.70144   0.80960    0.005
 6952.00    0.77943   0.80950    0.005
 6953.00    0.66382   0.80911    0.005
 6954.00    0.48345   0.80906    0.005
 6955.00    0.61017   0.80879    0.005
 6956.00    0.82314   0.80852    0.005
 6957.00    0.81988   0.80859    0.005
 6958.00    0.76659   0.80816    0.005
 6959.00    0.67517   0.80824    0.005
 6960.00    0.57669   0.80881    0.005
 6961.00    0.53221   0.80867    0.005
 6962.00    0.49546   0.80894    0.005
 6963.00    0.53835   0.80960    0.005
 6964.00    0.58948   0.80958    0.005
 6965.00    0.62768   0.81005    0.005
 6966.00    0.66502   0.81089    0.005
 6967.00    0.66477   0.81107    0.005
 6968.00    0.66327   0.81162    0.005
 6969.00    0.48320   0.81247    0.005
 6970.00    0.31072   0.81277    0.005
 6971.00    0.37063   0.81321    0.005
 6972.00    0.42703   0.81364    0.005
 6973.00    0.43131   0.81376    0.005
 6974.00    0.43304   0.81402    0.005
 6975.00    0.41026   0.81396    0.005
 6976.00    0.40669   0.81357    0.005
 6977.00    0.53679   0.81336    0.005
 6978.00    0.65272   0.81286    0.005
 6979.00    0.69256   0.81209    0.005
 6980.00    0.69033   0.81115    0.005
 6981.00    0.50688   0.81020    0.005
 6982.00    0.40409   0.80949    0.005
 6983.00    0.58766   0.80820    0.005
 6984.00    0.70265   0.80689    0.005
 6985.00    0.61313   0.80649    0.005
 6986.00    0.54434   0.80582    0.005
 6987.00    0.52825   0.80504    0.005
 6988.00    0.59393   0.80472    0.005
 6989.00    0.83837   0.80449    0.005
 6990.00    0.91224   0.80478    0.005
 6991.00    0.66254   0.80478    0.005
 6992.00    0.44936   0.80485    0.005
 6993.00    0.29665   0.80608    0.005
 6994.00    0.22805   0.80669    0.005
 6995.00    0.28154   0.80695    0.005
 6996.00    0.34331   0.80813    0.005
 6997.00    0.41566   0.80893    0.005
 6998.00    0.53387   0.80927    0.005
 6999.00    0.70369   0.80977    0.005
 7000.00    0.78764   0.81009    0.005
 7001.00    0.78641   0.81022    0.005
 7002.00    0.70358   0.81013    0.005
 7003.00    0.54934   0.81001    0.005
 7004.00    0.41428   0.80982    0.005
 7005.00    0.29400   0.80931    0.005
 7006.00    0.28447   0.80884    0.005
 7007.00    0.34999   0.80840    0.005
 7008.00    0.36796   0.80779    0.005
 7009.00    0.35771   0.80706    0.005
 7010.00    0.38603   0.80635    0.005
 7011.00    0.43435   0.80580    0.005
 7012.00    0.43498   0.80518    0.005
 7013.00    0.41421   0.80438    0.005
 7014.00    0.49822   0.80398    0.005
 7015.00    0.62268   0.80361    0.005
 7016.00    0.61582   0.80287    0.005
 7017.00    0.56585   0.80241    0.005
 7018.00    0.49989   0.80198    0.005
 7019.00    0.42953   0.80166    0.005
 7020.00    0.55599   0.80143    0.005
 7021.00    0.72694   0.80047    0.005
 7022.00    0.68619   0.80028    0.005
 7023.00    0.60718   0.80066    0.005
 7024.00    0.44499   0.79993    0.005
 7025.00    0.27127   0.79982    0.005
 7026.00    0.45146   0.80004    0.005
 7027.00    0.66679   0.79977    0.005
 7028.00    0.42217   0.80002    0.005
 7029.00    0.14874   0.79981    0.005
 7030.00    0.25063   0.80004    0.005
 7031.00    0.36317   0.80113    0.005
 7032.00    0.47620   0.80092    0.006
 7033.00    0.58329   0.80121    0.006
 7034.00    0.52739   0.80250    0.006
 7035.00    0.48268   0.80290    0.005
 7036.00    0.59520   0.80344    0.006
 7037.00    0.68113   0.80407    0.006
 7038.00    0.52191   0.80476    0.006
 7039.00    0.37838   0.80565    0.005
 7040.00    0.34061   0.80583    0.005
 7041.00    0.33017   0.80678    0.005
 7042.00    0.46261   0.80815    0.005
 7043.00    0.60931   0.80822    0.005
 7044.00    0.81601   0.80912    0.005
 7045.00    0.93104   0.81063    0.006
 7046.00    0.72723   0.81119    0.005
 7047.00    0.54033   0.81227    0.005
 7048.00    0.40292   0.81338    0.006
 7049.00    0.33580   0.81411    0.006
 7050.00    0.44411   0.81524   -2.000
 7051.00    0.46384   0.81577   -2.000
 7052.00    0.29302   0.81644   -2.000
 7053.00    0.24332   0.81756   -2.000
 7054.00    0.41980   0.81706   -2.000
 7055.00    0.57517   0.81665   -2.000
 7056.00    0.69612   0.81714   -2.000
 7057.00    0.72730   0.81595   -2.000
 7058.00    0.63008   0.81440   -2.000
 7059.00    0.67042   0.81334   -2.000
 7060.00    0.88384   0.81116   -2.000
 7061.00    0.96892   0.80887   -2.000
 7062.00    0.91167   0.80667   -2.000
 7063.00    0.86903   0.80411   -2.000
 7064.00    0.84066   0.80168   -2.000
 7065.00    0.79105   0.79864   -2.000
 7066.00    0.72312   0.79597   -2.000
 7067.00    0.64665   0.79394   -2.000
 7068.00    0.56368   0.79106   -2.000
 7069.00    0.55194   0.78899   -2.000
 7070.00    0.58778   0.78736   -2.000
 7071.00    0.68135   0.78523   -2.000
 7072.00    0.80869   0.78424   -2.000
 7073.00    0.87961   0.78305   -2.000
 7074.00    0.92177   0.78196   -2.000
 7075.00    0.93557   0.78197   -2.000
 7076.00    0.93685   0.78120   -2.000
 7077.00    0.78073   0.78095   -2.000
 7078.00    0.56492   0.78155   -2.000
 7079.00    0.49275   0.78123   -2.000
 7080.00    0.46684   0.78159   -2.000
 7081.00    0.41475   0.78208   -2.000
 7082.00    0.35560   0.78183   -2.000
 7083.00    0.37900   0.78227   -2.000
 7084.00    0.42063   0.78214   -2.000
 7085.00    0.68950   0.78159   -2.000
 7086.00    0.99831   0.78147   -2.000
 7087.00    0.78346   0.78057   -2.000
 7088.00    0.49846   0.77939   -2.000
 7089.00    0.54200   0.77781   -2.000
 7090.00    0.61675   0.77581   -2.000
 7091.00    0.36587   0.77425   -2.000
 7092.00    0.09587   0.77161   -2.000
 7093.00    0.32540   0.76884   -2.000
 7094.00    0.56595   0.76680   -2.000
 7095.00    0.63095   0.76361   -2.000
 7096.00    0.69324   0.76096   -2.000
 7097.00    0.68839   0.75890   -2.000
 7098.00    0.68098   0.75595   -2.000
 7099.00    0.63940   0.75412   -2.000
 7100.00    0.61626   0.75223   -2.000
 7101.00    0.75661   0.75025   -2.000
 7102.00    0.85260   0.74958   -2.000
 7103.00    0.65884   0.74839   -2.000
 7104.00    0.49467   0.74786   -2.000
 7105.00    0.48123   0.74797   -2.000
 7106.00    0.48168   0.74765   -2.000
 7107.00    0.53933   0.74810   -2.000
 7108.00    0.57112   0.74858   -2.000
 7109.00    0.51473   0.74900   -2.000
 7110.00    0.52925   0.75010   -2.000
 7111.00    0.74751   0.75066   -2.000
 7112.00    0.84260   0.75136   -2.000
 7113.00    0.63544   0.75233   -2.000
 7114.00    0.48767   0.75288   -2.000
 7115.00    0.46559   0.75377   -2.000
 7116.00    0.44517   0.75421   -2.000
 7117.00    0.42781   0.75456   -2.000
 7118.00    0.48132   0.75548   -2.000
 7119.00    0.64872   0.75570   -2.000
 7120.00    0.86706   0.75583   -2.000
 7121.00    1.15720   0.75647   -2.000
 7122.00    1.33395   0.75660   -2.000
 7123.00    1.37007   0.75660   -2.000
 7124.00   -0.06688   0.75674   -2.000
 7125.00   -3.11436   0.75679   -2.000
 7126.00   -3.11283   0.75674   -2.000
 7127.00   -0.17097   0.75608   -2.000
 7128.00    1.08727   0.75580   -2.000
 7129.00    0.91379   0.75583   -2.000
 7130.00    0.92957   0.75465   -2.000
 7131.00    1.08708   0.75374   -2.000
 7132.00    1.00046   0.75324   -2.000
 7133.00    0.75323   0.75202   -2.000
 7134.00    0.79159   0.75113   -2.000
 7135.00    0.99447   0.74989   -2.000
 7136.00    1.00598   0.74859   -2.000
 7137.00    0.92147   0.74817   -2.000
 7138.00    0.63959   0.74685   -2.000
 7139.00    0.27201   0.74603   -2.000
 7140.00    0.18366   0.74610   -2.000
 7141.00    0.19932   0.74500   -2.000
 7142.00    0.31537   0.74494   -2.000
 7143.00    0.46312   0.74546   -2.000
 7144.00    0.28293   0.74483   -2.000
 7145.00    0.01625   0.74537   -2.000
 7146.00    0.08014   0.74613   -2.000
 7147.00    0.21528   0.74599   -2.000
 7148.00    0.36786   0.74705   -2.000
 7149.00    0.52341   0.74776   -2.000
 7150.00    0.42895   0.74765   -2.000
 7151.00    0.30212   0.74900   -2.000
 7152.00    0.30540   0.74973   -2.000
 7153.00    0.32050   0.74947   -2.000
 7154.00    0.36559   0.75082   -2.000
 7155.00    0.41232   0.75169   -2.000
 7156.00    0.78010   0.75163   -2.000
 7157.00    1.15384   0.75291   -2.000
 7158.00    1.45676   0.75385   -2.000
 7159.00    1.70420   0.75418   -2.000
 7160.00    0.69259   0.75529   -2.000
 7161.00   -0.19018   0.75612   -2.000
 7162.00    0.54965   0.75679   -2.000
 7163.00    1.17012   0.75764   -2.000
 7164.00    0.77237   0.75808   -2.000
 7165.00    0.53460   0.75823   -2.000
 7166.00    1.31072   0.75868   -2.000
 7167.00    1.84211   0.75888   -2.000
 7168.00    1.15844   0.75784   -2.000
 7169.00    0.57061   0.75767   -2.000
 7170.00    0.36858   0.75730   -2.000
 7171.00    0.22744   0.75560   -2.000
 7172.00    0.28973   0.75517   -2.000
 7173.00    0.34070   0.75427   -2.000
 7174.00    0.35974   0.75239   -2.000
 7175.00    0.31399   0.75185   -2.000
 7176.00    0.11193   0.75075   -2.000
 7177.00    0.04841   0.74941   -2.000
 7178.00    0.27332   0.74902   -2.000
 7179.00    0.41649   0.74787   -2.000
 7180.00    0.41164   0.74719   -2.000
 7181.00    0.40473   0.74685   -2.000
 7182.00    0.39459   0.74591   -2.000
 7183.00    0.47334   0.74569   -2.000
 7184.00    0.67558   0.74505   -2.000
 7185.00    0.77626   0.74435   -2.000
 7186.00    0.75275   0.74405   -2.000
 7187.00    0.81188   0.74319   -2.000
 7188.00    0.96009   0.74279   -2.000
 7189.00    0.72308   0.74207   -2.000
 7190.00    0.11980   0.74109   -2.000
 7191.00   -0.06279   0.74085   -2.000
 7192.00    0.10733   0.73967   -2.000
 7193.00    0.37666   0.73877   -2.000
 7194.00    0.71922   0.73865   -2.000
 7195.00    0.80559   0.73739   -2.000
 7196.00    0.72586   0.73700   -2.000
 7197.00    0.79189   0.73697   -2.000
 7198.00    0.94059   0.73586   -2.000
 7199.00    0.54491   0.73588   -2.000
 7200.00   -0.11964   0.73605   -2.000
 7201.00   -0.36636   0.73532   -2.000
 7202.00   -0.43466   0.73549   -2.000
 7203.00    0.28352   0.73574   -2.000
 7204.00    1.28946   0.73540   -2.000
 7205.00    2.07116   0.73571   -2.000
 7206.00    2.78339   0.73582   -2.000
 7207.00    2.51927   0.73552   -2.000
 7208.00    2.00315   0.73588   -2.000
 7209.00    1.29341   0.73585   -2.000
 7210.00    0.54294   0.73562   -2.000
 7211.00    0.43260   0.73590   -2.000
 7212.00    0.42857   0.73547   -2.000
 7213.00    0.32971   0.73548   -2.000
 7214.00    0.21900   0.73585   -2.000
 7215.00    0.13156   0.73523   -2.000
 7216.00    0.04613   0.73561   -2.000
 7217.00    0.47449   0.73613   -2.000
 7218.00    0.92895   0.73576   -2.000
