###################################################################
## OUTPUT of StarlightChains_v04.for    [Cid@UFSC - 01/Apr/2007] ##
###################################################################

## Some input info
KUG0210-078._51_37.txt                   [arq_obs]
Base.CB07.vall.4m                        [arq_base]
Masks.EmLines.NEW.gm                     [arq_masks]
StCv04.C11.config                        [arq_config]
   66                                    [N_base]
    0                                    [N_YAV_components = # of components with extra extinction!]
    0                                    [i_FitPowerLaw (1/0 = Yes/No)]
-9.99                                    [alpha_PowerLaw]
CCM                                      [red_law_option]
 1.458241                                [q_norm = A(l_norm)/A(V)]

## (Re)Sampling Parameters
 3741.00                                 [l_ini (A)]
 7218.00                                 [l_fin (A)]
    1.00                                 [dl    (A)]     (OBS: dl_cushion =    50.00 A)

## Normalization info
 4020.00                                 [l_norm (A) - for base]
 4010.00                                 [llow_norm (A) - window for f_obs]
 4060.00                                 [lupp_norm (A) - window for f_obs]
2.662609E-18                             [fobs_norm (in input units)]

## S/N
 3691.00                                 [llow_SN (A) - window for S/N]
 7268.00                                 [lupp_SN (A) - window for S/N]
   3.008                                 [S/N in S/N window]
   1.552                                 [S/N in norm. window]
   0.005                                 [S/N_err in S/N window]
   0.003                                 [S/N_err in norm. window]
  1.0000                                 [fscale_chi2]

## etc...
    -2007970                             [idum_orig]
  2295                                   [NOl_eff]
  2246                                   [Nl_eff]
    49    NSIGMA                         [Ntot_cliped & clip_method]
  5188050                                [Nglobal_steps]
   7                                     [N_chains]
   7                                     [NEX0s_base = N_base in EX0s-fits]
 0   0   1       49   2.0   8.138E+02    [Clip-Bug, RC-Crash & Burn-In warning-flags, n_censored_weights, wei_nsig_threshold & wei_limit]
    47     46.986     46.467      0.519  [idt_all, wdt_TotTime, wdt_UsrTime & wdt_SysTime (sec)]

## Synthesis Results - Best model ##

 2.23567E-04                             [chi2/Nl_eff]
    37.52351                             [adev (%)]

   130.00000                             [sum-of-x (%)]
 5.20714E-16                             [Flux_tot (units of input spectrum!)]
 4.75972E-14                             [Mini_tot (???)]
 4.75972E-14                             [Mcor_tot (???)]

 223.95                                  [v0_min  (km/s)]
   0.00                                  [vd_min  (km/s)]
 3.7328                                  [AV_min  (mag)]
 0.0000                                  [YAV_min (mag)]

# j     x_j(%)      Mini_j(%)     Mcor_j(%)     age_j(yr)     Z_j      (L/M)_j    YAV?  Mstars   component_j        a/Fe...       SSP_chi2r SSP_adev(%)   SSP_AV   SSP_x(%)
  1    130.0000     1.0000E+02    1.0000E+02    1.000000E+06  0.00400  1.094E-02    0   1.0000   age020_m42            0.0000     9.2021E-06    43.1930   2.2195   249.9043
  2      0.0000     0.0000E+00    0.0000E+00    3.160000E+06  0.00400  4.007E-02    0   0.9999   age045_m42            0.0000     8.9017E-06    42.5854   1.6224   253.5929
  3      0.0000     0.0000E+00    0.0000E+00    5.010000E+06  0.00400  2.539E-02    0   0.9488   age055_m42            0.0000     9.0214E-06    42.9283   1.8914   252.7201
  4      0.0000     0.0000E+00    0.0000E+00    6.610000E+06  0.00400  2.620E-02    0   0.9220   age061_m42            0.0000     8.9365E-06    42.6397   1.5625   253.0506
  5      0.0000     0.0000E+00    0.0000E+00    1.000000E+07  0.00400  1.322E-02    0   0.8862   age070_m42            0.0000     8.9494E-06    43.2940   1.3570   252.4784
  6      0.0000     0.0000E+00    0.0000E+00    1.445000E+07  0.00400  7.883E-03    0   0.8571   age078_m42            0.0000     9.0338E-06    43.4510   1.6283   251.4816
  7      0.0000     0.0000E+00    0.0000E+00    2.512000E+07  0.00400  5.251E-03    0   0.8174   age090_m42            0.0000     8.9501E-06    43.5324   1.2483   252.3403
  8      0.0000     0.0000E+00    0.0000E+00    4.000000E+07  0.00400  3.649E-03    0   0.7851   age104_m42            0.0000     8.8906E-06    43.2693   1.0400   252.1570
  9      0.0000     0.0000E+00    0.0000E+00    5.500000E+07  0.00400  3.098E-03    0   0.7629   age110_m42            0.0000     8.8643E-06    42.8002   1.1811   252.4175
 10      0.0000     0.0000E+00    0.0000E+00    1.015200E+08  0.00400  2.228E-03    0   0.7207   age116_m42            0.0000     8.8717E-06    42.5124   1.1935   253.1483
 11      0.0000     0.0000E+00    0.0000E+00    2.861200E+08  0.00400  1.093E-03    0   0.6648   age125_m42            0.0000     8.8172E-06    42.7632   0.6896   253.9783
 12      0.0000     0.0000E+00    0.0000E+00    5.088000E+08  0.00400  6.597E-04    0   0.6365   age130_m42            0.0000     8.7672E-06    42.1805   0.6743   256.2102
 13      0.0000     0.0000E+00    0.0000E+00    1.434000E+09  0.00400  2.132E-04    0   0.5798   age139_m42            0.0000     8.5976E-06    41.1637  -0.2629   257.2324
 14      0.0000     0.0000E+00    0.0000E+00    4.250000E+09  0.00400  5.895E-05    0   0.5377   age158_m42            0.0000     8.7435E-06    40.6633  -0.8216   257.5998
 15      0.0000     0.0000E+00    0.0000E+00    7.500000E+09  0.00400  3.510E-05    0   0.5212   age171_m42            0.0000     8.8067E-06    40.6968  -1.0000   257.2955
 16      0.0000     0.0000E+00    0.0000E+00    1.300000E+10  0.00400  2.005E-05    0   0.5034   age193_m42            0.0000     8.9079E-06    42.7321  -1.0000   254.0768
 17      0.0000     0.0000E+00    0.0000E+00    1.800000E+10  0.00400  1.525E-05    0   0.4967   age213_m42            0.0000     8.9668E-06    43.6988  -1.0000   254.0671
 18      0.0000     0.0000E+00    0.0000E+00    1.000000E+06  0.00800  1.238E-02    0   1.0000   age020_m52            0.0000     9.1877E-06    43.1491   2.2203   250.0343
 19      0.0000     0.0000E+00    0.0000E+00    3.160000E+06  0.00800  3.074E-02    0   0.9966   age045_m52            0.0000     9.1499E-06    43.0646   2.1537   251.2907
 20      0.0000     0.0000E+00    0.0000E+00    5.010000E+06  0.00800  2.668E-02    0   0.9443   age055_m52            0.0000     9.0759E-06    42.9432   1.9623   251.8313
 21      0.0000     0.0000E+00    0.0000E+00    6.610000E+06  0.00800  2.136E-02    0   0.9177   age061_m52            0.0000     8.7802E-06    42.6450   0.8765   253.3799
 22      0.0000     0.0000E+00    0.0000E+00    1.000000E+07  0.00800  1.215E-02    0   0.8827   age070_m52            0.0000     8.9914E-06    43.6316   1.5306   252.8248
 23      0.0000     0.0000E+00    0.0000E+00    1.445000E+07  0.00800  8.717E-03    0   0.8552   age078_m52            0.0000     8.9781E-06    43.3079   1.6147   252.8680
 24      0.0000     0.0000E+00    0.0000E+00    2.512000E+07  0.00800  5.592E-03    0   0.8162   age090_m52            0.0000     8.9248E-06    43.5299   1.3251   253.7997
 25      0.0000     0.0000E+00    0.0000E+00    4.000000E+07  0.00800  3.896E-03    0   0.7841   age104_m52            0.0000     8.9085E-06    43.4019   1.2419   254.7702
 26      0.0000     0.0000E+00    0.0000E+00    1.015200E+08  0.00800  2.148E-03    0   0.7226   age116_m52            0.0000     8.9266E-06    42.9515   1.1639   255.2454
 27      0.0000     0.0000E+00    0.0000E+00    2.861200E+08  0.00800  9.925E-04    0   0.6683   age125_m52            0.0000     8.8070E-06    42.0703   0.7613   256.0836
 28      0.0000     0.0000E+00    0.0000E+00    9.047900E+08  0.00800  3.141E-04    0   0.6138   age135_m52            0.0000     8.7463E-06    41.2130  -0.0220   263.5296
 29      0.0000     0.0000E+00    0.0000E+00    1.434000E+09  0.00800  1.719E-04    0   0.5853   age139_m52            0.0000     8.7434E-06    41.0923  -0.6412   262.0009
 30      0.0000     0.0000E+00    0.0000E+00    2.500000E+09  0.00800  7.872E-05    0   0.5600   age150_m52            0.0000     8.7662E-06    40.3007  -0.9706   259.8654
 31      0.0000     0.0000E+00    0.0000E+00    4.250000E+09  0.00800  4.336E-05    0   0.5426   age158_m52            0.0000     8.7683E-06    40.3192  -0.9995   259.2678
 32      0.0000     0.0000E+00    0.0000E+00    6.250000E+09  0.00800  3.159E-05    0   0.5319   age166_m52            0.0000     8.9617E-06    42.8143  -1.0000   257.8946
 33      0.0000     0.0000E+00    0.0000E+00    1.300000E+10  0.00800  1.361E-05    0   0.5073   age193_m52            0.0000     1.1097E-05    59.8422  -1.0000   252.1392
 34      0.0000     0.0000E+00    0.0000E+00    1.800000E+10  0.00800  9.886E-06    0   0.4990   age213_m52            0.0000     1.2189E-05    65.0515  -1.0000   250.6141
 35      0.0000     0.0000E+00    0.0000E+00    1.000000E+06  0.02000  1.544E-02    0   1.0000   age020_m62            0.0000     9.1701E-06    43.0902   2.2181   250.4096
 36      0.0000     0.0000E+00    0.0000E+00    3.160000E+06  0.02000  3.762E-02    0   0.9858   age045_m62            0.0000     9.1102E-06    42.8768   2.1692   251.3916
 37      0.0000     0.0000E+00    0.0000E+00    5.010000E+06  0.02000  3.296E-02    0   0.9342   age055_m62            0.0000     8.9807E-06    42.5372   1.8736   253.2117
 38      0.0000     0.0000E+00    0.0000E+00    8.710000E+06  0.02000  1.154E-02    0   0.8861   age067_m62            0.0000     9.1337E-06    45.7212   1.0894   252.3033
 39      0.0000     0.0000E+00    0.0000E+00    1.445000E+07  0.02000  7.663E-03    0   0.8472   age078_m62            0.0000     8.9422E-06    44.2525   1.2319   253.7163
 40      0.0000     0.0000E+00    0.0000E+00    2.512000E+07  0.02000  4.532E-03    0   0.8099   age090_m62            0.0000     8.9996E-06    44.6001   1.2328   252.5089
 41      0.0000     0.0000E+00    0.0000E+00    5.500000E+07  0.02000  2.733E-03    0   0.7595   age110_m62            0.0000     8.8965E-06    43.3326   1.2209   253.4951
 42      0.0000     0.0000E+00    0.0000E+00    1.609000E+08  0.02000  1.369E-03    0   0.6985   age120_m62            0.0000     8.8849E-06    42.5344   1.0953   255.6884
 43      0.0000     0.0000E+00    0.0000E+00    2.861200E+08  0.02000  9.013E-04    0   0.6714   age125_m62            0.0000     8.8577E-06    41.9440   0.8870   258.0968
 44      0.0000     0.0000E+00    0.0000E+00    5.088000E+08  0.02000  5.028E-04    0   0.6449   age130_m62            0.0000     8.7952E-06    41.2037   0.5154   262.9056
 45      0.0000     0.0000E+00    0.0000E+00    9.047900E+08  0.02000  2.428E-04    0   0.6179   age135_m62            0.0000     8.7224E-06    40.8599  -0.1229   265.5253
 46      0.0000     0.0000E+00    0.0000E+00    1.434000E+09  0.02000  1.263E-04    0   0.5908   age139_m62            0.0000     8.7488E-06    40.5158  -0.6073   265.2485
 47      0.0000     0.0000E+00    0.0000E+00    2.500000E+09  0.02000  5.985E-05    0   0.5673   age150_m62            0.0000     8.7451E-06    39.6950  -0.9818   261.2839
 48      0.0000     0.0000E+00    0.0000E+00    4.250000E+09  0.02000  3.271E-05    0   0.5468   age158_m62            0.0000     9.2948E-06    44.8134  -1.0000   259.5925
 49      0.0000     0.0000E+00    0.0000E+00    1.000000E+10  0.02000  1.360E-05    0   0.5167   age181_m62            0.0000     1.1220E-05    58.0487  -1.0000   255.6448
 50      0.0000     0.0000E+00    0.0000E+00    1.800000E+10  0.02000  7.124E-06    0   0.5013   age213_m62            0.0000     1.3336E-05    68.0587  -1.0000   251.8514
 51      0.0000     0.0000E+00    0.0000E+00    1.000000E+06  0.05000  2.592E-02    0   0.9998   age020_m72            0.0000     9.1989E-06    43.1945   2.2048   251.1088
 52      0.0000     0.0000E+00    0.0000E+00    3.160000E+06  0.05000  4.845E-02    0   0.9577   age045_m72            0.0000     9.0636E-06    42.7879   2.0769   252.0948
 53      0.0000     0.0000E+00    0.0000E+00    5.010000E+06  0.05000  3.072E-02    0   0.9147   age055_m72            0.0000     8.9986E-06    43.9174   1.7170   252.7299
 54      0.0000     0.0000E+00    0.0000E+00    6.610000E+06  0.05000  1.455E-02    0   0.8877   age061_m72            0.0000     9.4205E-06    47.8349   1.1501   252.0211
 55      0.0000     0.0000E+00    0.0000E+00    1.000000E+07  0.05000  9.074E-03    0   0.8524   age070_m72            0.0000     9.0571E-06    44.4838   1.8892   252.1188
 56      0.0000     0.0000E+00    0.0000E+00    2.512000E+07  0.05000  4.250E-03    0   0.7902   age090_m72            0.0000     9.0486E-06    44.3705   1.6379   252.5468
 57      0.0000     0.0000E+00    0.0000E+00    4.000000E+07  0.05000  3.087E-03    0   0.7618   age104_m72            0.0000     9.0646E-06    44.5639   1.4479   253.4001
 58      0.0000     0.0000E+00    0.0000E+00    1.015200E+08  0.05000  1.700E-03    0   0.7096   age116_m72            0.0000     8.9921E-06    43.2271   1.2241   256.3446
 59      0.0000     0.0000E+00    0.0000E+00    2.861200E+08  0.05000  7.384E-04    0   0.6633   age125_m72            0.0000     8.8694E-06    41.6946   0.7340   262.9205
 60      0.0000     0.0000E+00    0.0000E+00    5.088000E+08  0.05000  3.819E-04    0   0.6372   age130_m72            0.0000     8.7607E-06    40.9226   0.2156   268.5109
 61      0.0000     0.0000E+00    0.0000E+00    9.047900E+08  0.05000  1.676E-04    0   0.6110   age135_m72            0.0000     8.6868E-06    39.9114  -0.5348   267.5559
 62      0.0000     0.0000E+00    0.0000E+00    1.434000E+09  0.05000  8.837E-05    0   0.5874   age139_m72            0.0000     8.7194E-06    39.4787  -0.9837   264.7529
 63      0.0000     0.0000E+00    0.0000E+00    2.500000E+09  0.05000  4.233E-05    0   0.5598   age150_m72            0.0000     9.2302E-06    43.8639  -1.0000   259.5832
 64      0.0000     0.0000E+00    0.0000E+00    6.250000E+09  0.05000  1.435E-05    0   0.5249   age166_m72            0.0000     1.2087E-05    62.9219  -1.0000   254.4379
 65      0.0000     0.0000E+00    0.0000E+00    1.300000E+10  0.05000  6.513E-06    0   0.5036   age193_m72            0.0000     1.5364E-05    75.8605  -1.0000   252.0032
 66      0.0000     0.0000E+00    0.0000E+00    1.800000E+10  0.05000  4.527E-06    0   0.4945   age213_m72            0.0000     1.8346E-05    85.3709  -1.0000   250.5779


## Synthesis Results - Average & Chains ##

# j      x_j: min, <> & last-chain-values for 1 ...  7 chains
  1    130.0000     65.0780     61.8848     67.0185     63.0063     63.3141     64.2100     62.2535     66.5144
  2      0.0000      0.0443      0.0000      0.0190      0.0419      0.0850      0.0000      0.2367      0.0379
  3      0.0000      0.0640      0.0156      0.0034      0.4062      0.0000      0.1273      0.2878      0.0301
  4      0.0000      0.0610      0.0573      0.0071      0.0000      0.0245      0.0000      0.0000      0.0000
  5      0.0000      0.0780      0.0638      0.0107      0.1650      0.0000      0.0000      0.7057      0.0725
  6      0.0000      0.0716      0.0687      0.0244      0.1827      0.2752      0.0000      0.3429      0.0836
  7      0.0000      0.0748      0.2432      0.0172      0.1117      0.2402      0.2422      0.2035      0.0092
  8      0.0000      0.0738      0.4473      0.0006      0.1317      0.0000      0.0000      0.1429      0.0013
  9      0.0000      0.0655      0.3087      0.0304      0.0000      0.3171      0.1112      0.3326      0.0208
 10      0.0000      0.0658      0.4002      0.0000      0.2554      0.0000      0.1683      0.1063      0.0000
 11      0.0000      0.0807      0.1168      0.0256      0.3927      0.1166      0.0997      0.0000      0.0537
 12      0.0000      0.0580      0.5129      0.0000      0.0330      0.0000      0.2422      0.0006      0.0000
 13      0.0000      0.0673      0.2035      0.0088      0.1114      0.1053      0.0128      0.0000      0.0000
 14      0.0000      0.0775      0.1712      0.0473      0.0701      0.0000      0.0000      0.5334      0.0084
 15      0.0000      0.0726      0.1870      0.0000      0.0000      0.2769      0.5772      0.0000      0.0000
 16      0.0000      0.0645      0.1612      0.0164      0.0000      0.1867      0.1252      0.1813      0.0291
 17      0.0000     60.4513     57.8203     62.2601     58.3580     58.6329     59.1629     56.8292     61.7553
 18      0.0000      0.0777      0.0464      0.0244      0.0202      0.1068      0.0787      0.0197      0.1274
 19      0.0000      0.0929      0.0306      0.0464      0.3476      0.0567      0.0000      0.0198      0.0188
 20      0.0000      0.0831      0.2372      0.0000      0.2557      0.6278      0.0945      0.2557      0.0000
 21      0.0000      0.0678      0.2459      0.0000      0.5812      0.0083      0.0000      0.0236      0.0531
 22      0.0000      0.0760      0.2463      0.0009      0.1598      0.4111      0.2151      0.2917      0.0670
 23      0.0000      0.0833      0.0954      0.0143      0.0000      0.2510      0.3287      0.1188      0.0962
 24      0.0000      0.0847      0.0000      0.0147      0.0000      0.3368      0.3746      0.0000      0.0525
 25      0.0000      0.0585      0.0182      0.0000      0.0000      0.2066      0.0291      0.0366      0.0538
 26      0.0000      0.0722      0.1242      0.0066      0.0000      0.3344      0.0112      0.0738      0.0095
 27      0.0000      0.0905      0.4387      0.0022      0.3519      0.0249      0.0000      0.2968      0.0146
 28      0.0000      0.0535      0.2390      0.0000      0.0000      0.0000      0.0062      0.2628      0.0290
 29      0.0000      0.0685      0.2770      0.0005      0.0637      0.3380      0.0557      0.0000      0.0816
 30      0.0000      0.0822      0.0000      0.0050      0.5537      0.1870      0.1564      0.0000      0.0227
 31      0.0000      0.0806      0.1653      0.0000      0.4781      0.0000      0.0000      0.2721      0.0000
 32      0.0000      0.0824      0.7485      0.0074      0.0542      0.1395      0.0000      0.0000      0.0235
 33      0.0000      0.0602      0.0000      0.0070      0.1326      0.0000      0.0229      0.1062      0.0000
 34      0.0000      0.0670      0.0000      0.0000      0.1801      0.0000      0.1077      0.2193      0.0000
 35      0.0000      0.0688      0.0434      0.0260      0.5685      0.2324      0.1836      0.3062      0.0008
 36      0.0000      0.0762      0.0642      0.0185      0.3290      0.0000      0.1080      0.2409      0.0395
 37      0.0000      0.0888      0.1264      0.0125      0.1071      0.0000      0.2526      0.0000      0.0091
 38      0.0000      0.0760      0.4822      0.0330      0.2595      0.0000      0.0813      0.0918      0.0705
 39      0.0000      0.0612      0.4440      0.0000      0.2951      0.0000      0.0098      0.2564      0.0422
 40      0.0000      0.0692      0.0000      0.0000      0.1714      0.1721      0.2981      0.0245      0.0241
 41      0.0000      0.0548      0.1170      0.0062      0.0000      0.1644      0.0532      0.1942      0.0038
 42      0.0000      0.0644      0.0000      0.0259      0.1385      0.0976      0.2639      0.0000      0.0000
 43      0.0000      0.0641      0.2300      0.0144      0.1298      0.0177      0.0127      0.0000      0.0571
 44      0.0000      0.0636      0.0302      0.0047      0.0000      0.1285      0.1895      0.0000      0.0006
 45      0.0000      0.0554      0.0000      0.0018      0.0000      0.1213      0.1953      0.0000      0.0290
 46      0.0000      0.0901      0.2330      0.0042      0.1120      0.3974      0.4592      0.1729      0.0119
 47      0.0000      0.0594      0.0466      0.0163      0.0000      0.2229      0.0000      0.0052      0.0000
 48      0.0000      0.0636      0.2295      0.0369      0.2166      0.0000      0.0000      0.0000      0.0000
 49      0.0000      0.0719      0.2110      0.0101      0.0000      0.0320      0.1985      0.1883      0.0134
 50      0.0000      0.0641      0.0916      0.0000      0.0000      0.0507      0.0000      0.0851      0.0677
 51      0.0000      0.0546      0.0000      0.0428      0.0195      0.0375      0.1354      0.0894      0.0078
 52      0.0000      0.0766      0.3432      0.0002      0.1443      0.5298      0.0000      0.0569      0.0000
 53      0.0000      0.0753      0.0000      0.0047      0.3385      0.0505      0.0000      0.0999      0.0283
 54      0.0000      0.0450      0.1197      0.0178      0.1659      0.0000      0.0000      0.1795      0.0545
 55      0.0000      0.0527      0.8157      0.0064      0.0235      0.0412      0.0776      0.0000      0.0000
 56      0.0000      0.0496      0.0000      0.0000      0.0000      0.0286      0.0702      0.5247      0.0056
 57      0.0000      0.0721      0.1507      0.0054      0.0583      0.0000      0.1139      0.1837      0.0433
 58      0.0000      0.0897      0.3141      0.0200      0.1816      0.0245      0.0245      0.7791      0.0347
 59      0.0000      0.0635      0.1009      0.0322      0.0034      0.0386      0.0473      0.0102      0.0215
 60      0.0000      0.0722      0.0000      0.0147      0.0635      0.1645      0.2157      0.9329      0.0067
 61      0.0000      0.0663      0.1399      0.0000      0.0000      0.2515      0.0469      0.6564      0.1023
 62      0.0000      0.0580      0.0564      0.0000      0.0000      0.2065      0.0474      0.1600      0.0042
 63      0.0000      0.0745      0.0351      0.0179      0.0000      0.2410      0.1441      0.2287      0.0118
 64      0.0000      0.0517      0.0000      0.0000      0.0000      0.0000      0.0000      0.1728      0.0145
 65      0.0000      0.0670      0.0000      0.0056      0.0603      0.0246      0.0000      0.0000      0.0130
 66      0.0000      0.0799      0.0000      0.0000      0.1322      0.1206      0.2076      0.2070      0.0161

# j      m_j: min, <> & last-chain-values for 1 ...  7 chains
  1  1.0000E+02  2.9521E-01  2.9202E-01  3.0070E-01  2.9428E-01  2.9524E-01  2.9510E-01  2.9375E-01  2.9970E-01
  2  0.0000E+00  5.4876E-05  0.0000E+00  2.3248E-05  5.3432E-05  1.0816E-04  0.0000E+00  3.0497E-04  4.6664E-05
  3  0.0000E+00  1.1875E-04  3.0051E-05  6.2381E-06  7.7570E-04  0.0000E+00  2.3913E-04  5.5510E-04  5.5497E-05
  4  0.0000E+00  1.0660E-04  1.0405E-04  1.2317E-05  0.0000E+00  4.3985E-05  0.0000E+00  0.0000E+00  0.0000E+00
  5  0.0000E+00  2.5950E-04  2.2068E-04  3.5250E-05  5.6531E-04  0.0000E+00  0.0000E+00  2.4421E-03  2.3971E-04
  6  0.0000E+00  3.8611E-04  3.8567E-04  1.3005E-04  1.0153E-03  1.5265E-03  0.0000E+00  1.9248E-03  4.4822E-04
  7  0.0000E+00  5.7769E-04  1.9544E-03  1.3135E-04  8.8873E-04  1.9076E-03  1.8959E-03  1.6353E-03  7.0805E-05
  8  0.0000E+00  7.8848E-04  4.9681E-03  6.2711E-06  1.4479E-03  0.0000E+00  0.0000E+00  1.5870E-03  1.3495E-05
  9  0.0000E+00  8.0059E-04  3.9239E-03  3.6778E-04  0.0000E+00  3.9837E-03  1.3773E-03  4.2281E-03  2.5210E-04
 10  0.0000E+00  1.0560E-03  6.6830E-03  0.0000E+00  4.2208E-03  0.0000E+00  2.7364E-03  1.7751E-03  0.0000E+00
 11  0.0000E+00  2.4351E-03  3.6679E-03  7.6563E-04  1.2206E-02  3.6187E-03  3.0501E-03  0.0000E+00  1.6094E-03
 12  0.0000E+00  2.7767E-03  2.5547E-02  0.0000E+00  1.6286E-03  0.0000E+00  1.1749E-02  2.9319E-05  0.0000E+00
 13  0.0000E+00  9.0883E-03  2.8565E-02  1.1715E-03  1.5485E-02  1.4610E-02  1.7484E-03  0.0000E+00  0.0000E+00
 14  0.0000E+00  3.5070E-02  8.0623E-02  2.1196E-02  3.2650E-02  0.0000E+00  0.0000E+00  2.5116E-01  3.7629E-03
 15  0.0000E+00  5.3504E-02  1.4332E-01  0.0000E+00  0.0000E+00  2.0979E-01  4.3091E-01  0.0000E+00  0.0000E+00
 16  0.0000E+00  8.0360E-02  2.0900E-01  2.0212E-02  0.0000E+00  2.3913E-01  1.5809E-01  2.3504E-01  3.5973E-02
 17  0.0000E+00  9.7712E+01  9.7220E+01  9.9538E+01  9.7123E+01  9.7423E+01  9.6884E+01  9.5550E+01  9.9149E+01
 18  0.0000E+00  3.1144E-04  1.9363E-04  9.6589E-05  8.3562E-05  4.3992E-04  3.1982E-04  8.2296E-05  5.0738E-04
 19  0.0000E+00  1.4953E-04  5.1154E-05  7.3901E-05  5.7576E-04  9.3820E-05  0.0000E+00  3.3091E-05  3.0029E-05
 20  0.0000E+00  1.4601E-04  4.3343E-04  0.0000E+00  4.6237E-04  1.1336E-03  1.6811E-04  4.6725E-04  0.0000E+00
 21  0.0000E+00  1.4454E-04  5.4548E-04  0.0000E+00  1.2760E-03  1.8172E-05  0.0000E+00  5.2370E-05  1.1248E-04
 22  0.0000E+00  2.7407E-04  9.2376E-04  3.1686E-06  5.9320E-04  1.5237E-03  7.8586E-04  1.0941E-03  2.3996E-04
 23  0.0000E+00  4.0571E-04  4.8320E-04  6.8861E-05  0.0000E+00  1.2563E-03  1.6212E-03  6.0141E-04  4.6547E-04
 24  0.0000E+00  6.1340E-04  0.0000E+00  1.0506E-04  0.0000E+00  2.5080E-03  2.7494E-03  0.0000E+00  3.7774E-04
 25  0.0000E+00  5.8458E-04  1.8884E-04  0.0000E+00  0.0000E+00  2.1211E-03  2.9476E-04  3.8057E-04  5.3350E-04
 26  0.0000E+00  1.2048E-03  2.1566E-03  1.0870E-04  0.0000E+00  5.7384E-03  1.8904E-04  1.2812E-03  1.5728E-04
 27  0.0000E+00  3.0230E-03  1.5250E-02  7.2024E-05  1.2108E-02  8.5655E-04  0.0000E+00  1.0315E-02  4.8372E-04
 28  0.0000E+00  5.1843E-03  2.4110E-02  0.0000E+00  0.0000E+00  0.0000E+00  6.0978E-04  2.6511E-02  2.7902E-03
 29  0.0000E+00  1.1581E-02  4.8683E-02  8.1190E-05  1.1087E-02  5.8715E-02  9.5430E-03  0.0000E+00  1.3699E-02
 30  0.0000E+00  2.9030E-02  0.0000E+00  1.7446E-03  2.0127E-01  6.7858E-02  5.5942E-02  0.0000E+00  7.9675E-03
 31  0.0000E+00  5.0026E-02  1.0677E-01  0.0000E+00  3.0568E-01  0.0000E+00  0.0000E+00  1.7578E-01  0.0000E+00
 32  0.0000E+00  6.8854E-02  6.5059E-01  6.1196E-03  4.6629E-02  1.1986E-01  0.0000E+00  0.0000E+00  1.9540E-02
 33  0.0000E+00  1.1135E-01  0.0000E+00  1.2717E-02  2.5250E-01  0.0000E+00  4.2830E-02  2.0433E-01  0.0000E+00
 34  0.0000E+00  1.6780E-01  0.0000E+00  0.0000E+00  4.6443E-01  0.0000E+00  2.7325E-01  5.7149E-01  0.0000E+00
 35  0.0000E+00  2.2103E-04  1.4519E-04  8.2810E-05  1.8813E-03  7.6796E-04  5.9781E-04  1.0237E-03  2.6928E-06
 36  0.0000E+00  9.9067E-05  8.6901E-05  2.3791E-05  4.4052E-04  0.0000E+00  1.4229E-04  3.2584E-04  5.1007E-05
 37  0.0000E+00  1.2484E-04  1.8490E-04  1.7429E-05  1.5507E-04  0.0000E+00  3.5999E-04  0.0000E+00  1.2683E-05
 38  0.0000E+00  2.8943E-04  1.9114E-03  1.2432E-04  1.0180E-03  0.0000E+00  3.1390E-04  3.6379E-04  2.6684E-04
 39  0.0000E+00  3.3581E-04  2.5343E-03  0.0000E+00  1.6671E-03  0.0000E+00  5.4730E-05  1.4633E-03  2.2985E-04
 40  0.0000E+00  6.1382E-04  0.0000E+00  0.0000E+00  1.5649E-03  1.5690E-03  2.6787E-03  2.2587E-04  2.1243E-04
 41  0.0000E+00  7.5590E-04  1.6789E-03  8.5105E-05  0.0000E+00  2.3311E-03  7.4383E-04  2.7866E-03  5.2101E-05
 42  0.0000E+00  1.6308E-03  0.0000E+00  6.4978E-04  3.6104E-03  2.5411E-03  6.7687E-03  0.0000E+00  0.0000E+00
 43  0.0000E+00  2.3711E-03  8.8449E-03  5.2602E-04  4.9423E-03  6.7239E-04  4.7507E-04  0.0000E+00  2.0958E-03
 44  0.0000E+00  4.0511E-03  2.0019E-03  2.9428E-04  0.0000E+00  8.4053E-03  1.2220E-02  0.0000E+00  3.6068E-05
 45  0.0000E+00  7.0024E-03  0.0000E+00  2.2292E-04  0.0000E+00  1.5746E-02  2.4992E-02  0.0000E+00  3.6405E-03
 46  0.0000E+00  2.0927E-02  5.6276E-02  9.5975E-04  2.6781E-02  9.4843E-02  1.0799E-01  4.1743E-02  2.7500E-03
 47  0.0000E+00  2.7936E-02  2.2803E-02  7.5859E-03  0.0000E+00  1.0778E-01  0.0000E+00  2.5305E-03  0.0000E+00
 48  0.0000E+00  5.2728E-02  1.9802E-01  3.0290E-02  1.8506E-01  0.0000E+00  0.0000E+00  0.0000E+00  0.0000E+00
 49  0.0000E+00  1.3559E-01  4.1390E-01  1.8800E-02  0.0000E+00  6.2109E-02  3.7916E-01  3.6928E-01  2.5025E-02
 50  0.0000E+00  2.2387E-01  3.3264E-01  0.0000E+00  0.0000E+00  1.8187E-01  0.0000E+00  3.0924E-01  2.3486E-01
 51  0.0000E+00  1.0449E-04  0.0000E+00  8.0977E-05  3.8386E-05  7.3799E-05  2.6265E-04  1.7804E-04  1.4781E-05
 52  0.0000E+00  7.5118E-05  3.5024E-04  2.2429E-07  1.4572E-04  5.3423E-04  0.0000E+00  5.8094E-05  0.0000E+00
 53  0.0000E+00  1.1134E-04  0.0000E+00  6.8510E-06  5.1502E-04  7.6766E-05  0.0000E+00  1.5349E-04  4.1604E-05
 54  0.0000E+00  1.3614E-04  3.7685E-04  5.3254E-05  5.1718E-04  0.0000E+00  0.0000E+00  5.6524E-04  1.6378E-04
 55  0.0000E+00  2.4557E-04  3.9557E-03  2.9530E-05  1.1256E-04  1.9754E-04  3.6633E-04  0.0000E+00  0.0000E+00
 56  0.0000E+00  4.5739E-04  0.0000E+00  0.0000E+00  0.0000E+00  2.7122E-04  6.5578E-04  5.0357E-03  5.1466E-05
 57  0.0000E+00  8.8248E-04  1.9193E-03  6.5404E-05  7.3512E-04  0.0000E+00  1.4129E-03  2.3396E-03  5.2680E-04
 58  0.0000E+00  1.8583E-03  6.7692E-03  4.0961E-04  3.8722E-03  5.2237E-04  5.1416E-04  1.6789E-02  7.1332E-04
 59  0.0000E+00  2.8295E-03  4.6803E-03  1.4187E-03  1.5441E-04  1.7682E-03  2.1359E-03  4.7177E-04  9.5106E-04
 60  0.0000E+00  5.9776E-03  0.0000E+00  1.2050E-03  5.4179E-03  1.3999E-02  1.8093E-02  8.0351E-02  5.5007E-04
 61  0.0000E+00  1.2000E-02  2.6336E-02  0.0000E+00  0.0000E+00  4.6773E-02  8.5963E-03  1.2353E-01  1.8381E-02
 62  0.0000E+00  1.9134E-02  1.9348E-02  0.0000E+00  0.0000E+00  7.0024E-02  1.5837E-02  5.4885E-02  1.3691E-03
 63  0.0000E+00  4.8880E-02  2.3975E-02  1.1609E-02  0.0000E+00  1.6261E-01  9.5787E-02  1.5612E-01  7.6701E-03
 64  0.0000E+00  9.3777E-02  0.0000E+00  0.0000E+00  0.0000E+00  0.0000E+00  0.0000E+00  3.2637E-01  2.6077E-02
 65  0.0000E+00  2.5692E-01  0.0000E+00  2.1312E-02  2.3821E-01  9.6975E-02  0.0000E+00  0.0000E+00  4.9708E-02
 66  0.0000E+00  4.3294E-01  0.0000E+00  0.0000E+00  7.3811E-01  6.7215E-01  1.1403E+00  1.1671E+00  8.6792E-02

# AV, chi2 & Mass for <> & i_chain = 1 ...  7 solutions
AV       3.7328      3.0348      2.9212      2.8113      2.9008      2.9244      2.9078      2.8827      2.8820
chi2 2.2357E-04  2.6032E-04  2.5350E-04  2.4905E-04  2.5217E-04  2.5370E-04  2.5316E-04  2.5139E-04  2.5207E-04
Mass 4.7597E-14  3.1607E-12  2.6084E-12  2.3670E-12  2.5640E-12  2.6510E-12  2.6306E-12  2.4771E-12  2.5915E-12
 223.95                                  [v0_min (km/s) before EX0s...]
   0.00                                  [vd_min (km/s) before EX0s...]


## Synthetic spectrum (Best Model) ##l_obs f_obs f_syn wei
 3478    [Nl_obs]
 3741.00    1.85464   1.13871    0.000
 3742.00    2.22504   1.15649    0.000
 3743.00    2.60384   1.16795    0.000
 3744.00    1.57633   1.17362    0.000
 3745.00   -0.27056   1.17529    0.000
 3746.00   -0.09912   1.17168    0.000
 3747.00    1.09725   1.16314   -1.000
 3748.00    1.57944   1.14859   -1.000
 3749.00    1.74758   1.12926   -1.000
 3750.00    1.73341   1.10423   -1.000
 3751.00    1.65040   1.07312   -1.000
 3752.00    2.32147   1.04159   -1.000
 3753.00    3.23420   1.02939   -1.000
 3754.00    2.68716   1.04616   -1.000
 3755.00    1.74893   1.07897   -1.000
 3756.00    1.82442   1.10893   -1.000
 3757.00    2.12241   1.12955   -1.000
 3758.00    1.83044   1.14797   -1.000
 3759.00    1.43550   1.16553   -1.000
 3760.00   -2.06397   1.17870    0.000
 3761.00   -5.97584   1.18677    0.000
 3762.00   -3.11002   1.18592    0.000
 3763.00    0.39273   1.18701   -1.000
 3764.00    0.52358   1.19580   -1.000
 3765.00    0.45991   1.20007   -1.000
 3766.00   -0.15917   1.19337    0.000
 3767.00   -0.80640   1.18053    0.000
 3768.00   -3.26819   1.16284    0.000
 3769.00   -5.69757   1.13922    0.000
 3770.00   -7.33970   1.10762    0.000
 3771.00   -8.95948   1.06624    0.000
 3772.00  -10.28622   1.02028    0.000
 3773.00  -10.87337   0.98741    0.000
 3774.00   -4.96775   0.98981    0.000
 3775.00    0.71121   1.02646   -1.000
 3776.00    4.92051   1.07208   -1.000
 3777.00    7.85712   1.11185   -1.000
 3778.00    4.35229   1.14436   -1.000
 3779.00    1.39068   1.17005   -1.000
 3780.00    0.65255   1.18819   -1.000
 3781.00   -0.33401   1.20244    0.000
 3782.00   -2.16322   1.21270    0.000
 3783.00   -3.17473   1.22153    0.000
 3784.00   -1.84758   1.22695    0.000
 3785.00   -1.64645   1.23049    0.000
 3786.00   -4.19652   1.23216    0.000
 3787.00   -6.55397   1.23195    0.000
 3788.00   -8.50545   1.23050    0.000
 3789.00   -8.02364   1.23029    0.000
 3790.00   -3.08475   1.22787    0.000
 3791.00   -0.64465   1.22198    0.000
 3792.00   -2.20450   1.21371    0.000
 3793.00   -3.06491   1.20053    0.000
 3794.00   -2.94286   1.18243    0.000
 3795.00   -2.44189   1.16273    0.000
 3796.00   -1.47258   1.13744    0.000
 3797.00   -0.82310   1.10231    0.000
 3798.00   -0.52208   1.05551    0.000
 3799.00   -2.80964   0.99825    0.000
 3800.00   -7.58480   0.94637    0.000
 3801.00  -10.00075   0.93322    0.000
 3802.00  -10.41754   0.97133    0.000
 3803.00   -9.25006   1.03069    0.000
 3804.00   -6.90038   1.08398    0.000
 3805.00   -5.82033   1.12475    0.000
 3806.00   -5.57260   1.15680    0.000
 3807.00   -2.74958   1.17963    0.000
 3808.00    1.55124   1.19558    0.009
 3809.00    1.26948   1.20898    0.009
 3810.00   -1.30272   1.22144    0.000
 3811.00   -2.62369   1.23220    0.000
 3812.00   -3.40357   1.23796    0.000
 3813.00   -3.32049   1.24276    0.000
 3814.00   -2.91738   1.24646    0.000
 3815.00   -2.92424   1.24824    0.000
 3816.00   -3.05997   1.24852    0.000
 3817.00   -3.04040   1.24934    0.000
 3818.00   -2.98009   1.24822    0.000
 3819.00   -1.80088   1.24443    0.000
 3820.00   -0.38193   1.23170    0.000
 3821.00   -2.07178   1.19843    0.000
 3822.00   -4.28923   1.15744    0.000
 3823.00   -4.47171   1.15601    0.000
 3824.00   -4.39305   1.19612    0.000
 3825.00   -2.36563   1.22792    0.000
 3826.00   -0.16329   1.23807    0.000
 3827.00   -0.90147   1.23737    0.000
 3828.00   -1.79769   1.23149    0.000
 3829.00   -3.20438   1.22422    0.000
 3830.00   -4.58838   1.21301    0.000
 3831.00   -3.19512   1.19759    0.000
 3832.00   -1.89301   1.17641    0.000
 3833.00   -2.61590   1.14986    0.000
 3834.00   -3.17724   1.11488    0.000
 3835.00   -1.72975   1.06737    0.000
 3836.00   -0.32630   1.00378    0.000
 3837.00    0.70498   0.93283    0.009
 3838.00    1.18311   0.88663    0.009
 3839.00   -1.81873   0.90364    0.000
 3840.00   -4.14140   0.97012    0.000
 3841.00   -3.11295   1.04073    0.000
 3842.00   -2.14816   1.09529    0.000
 3843.00   -1.43819   1.13647    0.000
 3844.00   -0.81926   1.16736    0.000
 3845.00   -0.50300   1.19148    0.000
 3846.00   -0.82298   1.20995    0.000
 3847.00   -2.92955   1.22446    0.000
 3848.00   -3.76751   1.23516    0.000
 3849.00   -1.55842   1.24327    0.000
 3850.00   -0.80733   1.25102    0.000
 3851.00   -3.08001   1.25604    0.000
 3852.00   -3.59944   1.26019    0.000
 3853.00   -0.95658   1.26411    0.000
 3854.00    1.34856   1.26628    0.000
 3855.00    3.12113   1.26833    0.000
 3856.00    2.96257   1.26950    0.000
 3857.00    0.13062   1.27019    0.000
 3858.00   -0.94118   1.26735    0.000
 3859.00    0.13172   1.26475    0.000
 3860.00    0.25484   1.26427    0.000
 3861.00   -0.64227   1.26645    0.000
 3862.00   -2.20427   1.26864    0.000
 3863.00   -4.39623   1.27084    0.000
 3864.00   -3.85302   1.27292    0.000
 3865.00   -1.02485   1.27411    0.000
 3866.00    0.87367   1.27530    0.000
 3867.00    2.08841   1.27627    0.000
 3868.00    1.24054   1.27475    0.000
 3869.00   -0.93964   1.26681    0.000
 3870.00   -1.56751   1.25253    0.000
 3871.00   -1.31811   1.25415    0.000
 3872.00   -1.15190   1.26632    0.000
 3873.00   -1.02660   1.26698    0.000
 3874.00   -0.25086   1.25536    0.000
 3875.00    0.80147   1.24901    0.000
 3876.00    1.46754   1.25621    0.000
 3877.00    1.99292   1.26176    0.000
 3878.00    1.41633   1.26037    0.000
 3879.00    0.50002   1.25450    0.000
 3880.00    2.57096   1.24933    0.000
 3881.00    5.40876   1.24220    0.008
 3882.00    4.59173   1.23403    0.008
 3883.00    3.01058   1.22440    0.008
 3884.00   -0.23689   1.20981    0.000
 3885.00   -3.75914   1.19180    0.000
 3886.00   -2.40609   1.16768    0.000
 3887.00   -0.44927   1.13774    0.000
 3888.00    1.64846   1.09598    0.008
 3889.00    3.75824   1.03839    0.008
 3890.00    1.85062   0.96350    0.008
 3891.00   -0.25722   0.88126    0.000
 3892.00    1.74323   0.84433    0.008
 3893.00    3.74201   0.88901    0.008
 3894.00    1.28740   0.97424    0.008
 3895.00   -1.02358   1.04950    0.000
 3896.00   -0.39651   1.10439    0.000
 3897.00    0.18082   1.14517    0.007
 3898.00    0.16989   1.17579    0.007
 3899.00    0.03232   1.19831    0.007
 3900.00   -1.13698   1.21497    0.000
 3901.00   -2.23414   1.22930    0.000
 3902.00   -2.89067   1.23888    0.000
 3903.00   -3.19146   1.24829    0.000
 3904.00   -1.78030   1.25571    0.000
 3905.00   -0.61720   1.26201    0.000
 3906.00   -0.42552   1.26641    0.000
 3907.00   -0.46865   1.27071    0.000
 3908.00   -1.27708   1.27398    0.000
 3909.00   -1.59887   1.27629    0.000
 3910.00   -0.57870   1.27860    0.000
 3911.00    0.46110   1.28091    0.007
 3912.00    1.54725   1.28306    0.007
 3913.00    2.12063   1.28326    0.007
 3914.00    1.64751   1.28347    0.007
 3915.00    1.32911   1.28376    0.007
 3916.00    1.28552   1.28503    0.008
 3917.00    0.66527   1.28622    0.008
 3918.00   -0.85098   1.28643    0.000
 3919.00   -1.68442   1.28648    0.000
 3920.00   -1.58619   1.28448    0.000
 3921.00   -1.17772   1.28125    0.000
 3922.00   -0.39660   1.27505    0.000
 3923.00    0.39910   1.26883    0.008
 3924.00    1.21024   1.26260    0.008
 3925.00    0.08873   1.25629    0.008
 3926.00   -2.83821   1.24933    0.000
 3927.00   -2.55034   1.24743    0.000
 3928.00    0.38518   1.24624    0.008
 3929.00    0.66217   1.24183    0.008
 3930.00   -0.98807   1.24938    0.000
 3931.00   -0.49783   1.26955    0.000
 3932.00    1.35463   1.28221    0.008
 3933.00    2.91457   1.28754    0.008
 3934.00    4.31173   1.28870    0.007
 3935.00    3.49237   1.28770    0.007
 3936.00    1.60004   1.28473    0.007
 3937.00   -0.11434   1.28297    0.000
 3938.00   -1.75432   1.28440    0.000
 3939.00   -2.53480   1.28787    0.000
 3940.00   -3.00783   1.29129    0.000
 3941.00   -2.26542   1.29363    0.000
 3942.00   -1.15563   1.29488    0.000
 3943.00   -0.11250   1.29510    0.000
 3944.00    0.91388   1.29533    0.007
 3945.00    0.88365   1.29549    0.007
 3946.00    0.63795   1.29457    0.007
 3947.00    1.32948   1.29266    0.007
 3948.00    2.17108   1.29190    0.007
 3949.00    1.11352   1.29311    0.007
 3950.00   -0.17079   1.29218    0.000
 3951.00    0.58339   1.29026    0.007
 3952.00    1.50357   1.28938    0.007
 3953.00    0.18323   1.28849    0.007
 3954.00   -1.24007   1.28750    0.000
 3955.00   -1.20832   1.28446    0.000
 3956.00   -1.14368   1.28236    0.000
 3957.00   -0.32894   1.27820    0.000
 3958.00    0.46142   1.27514    0.007
 3959.00    0.79007   1.27298    0.007
 3960.00    1.06108   1.26768    0.000
 3961.00    0.68243   1.26324    0.000
 3962.00    0.21589   1.25449    0.000
 3963.00   -0.94152   1.24442    0.000
 3964.00   -1.78519   1.22898    0.000
 3965.00   -0.76720   1.21334    0.000
 3966.00    0.11306   1.19279    0.000
 3967.00    0.34665   1.15820    0.000
 3968.00    0.75645   1.12266    0.000
 3969.00    1.84157   1.09152    0.000
 3970.00    2.01282   1.04102    0.000
 3971.00   -0.73692   0.96301    0.000
 3972.00   -2.57000   0.87271    0.000
 3973.00   -1.92048   0.82567    0.000
 3974.00   -1.66268   0.86951    0.000
 3975.00   -2.31447   0.96384    0.000
 3976.00   -1.64503   1.04739    0.000
 3977.00    1.67818   1.10744    0.000
 3978.00    3.47654   1.15133    0.000
 3979.00    2.60770   1.18289    0.000
 3980.00    1.57087   1.20666    0.000
 3981.00    0.27688   1.22485    0.007
 3982.00   -0.69271   1.23972    0.000
 3983.00   -1.22602   1.25228    0.000
 3984.00   -0.92122   1.26040    0.000
 3985.00    0.37608   1.26741    0.007
 3986.00    0.50856   1.27329    0.007
 3987.00   -0.57527   1.27809    0.000
 3988.00   -0.95250   1.28397    0.000
 3989.00   -0.67892   1.28760    0.000
 3990.00    0.90144   1.29011    0.006
 3991.00    3.54278   1.29263    0.006
 3992.00    3.73514   1.29516    0.006
 3993.00    2.17778   1.29766    0.006
 3994.00    1.36600   1.29905    0.006
 3995.00    1.02170   1.30044    0.006
 3996.00    1.20380   1.30181    0.006
 3997.00    1.67437   1.30204    0.006
 3998.00    1.82395   1.30230    0.006
 3999.00    1.82064   1.30370    0.007
 4000.00    1.95311   1.30508    0.007
 4001.00    2.14140   1.30532    0.006
 4002.00    1.14136   1.30558    0.006
 4003.00   -0.27604   1.30695    0.000
 4004.00    0.58468   1.30605    0.006
 4005.00    2.12039   1.30627    0.006
 4006.00    0.82940   1.30420    0.011
 4007.00   -1.15597   1.30443    0.000
 4008.00   -0.76963   1.30349    0.000
 4009.00    0.08825   1.30137   -1.000
 4010.00   -0.79898   1.29572    0.000
 4011.00   -1.95737   1.28542    0.000
 4012.00   -0.66406   1.27748    0.000
 4013.00    0.91117   1.28125   -1.000
 4014.00    1.49701   1.29205   -1.000
 4015.00    2.00635   1.30167   -1.000
 4016.00    1.14716   1.30544   -1.000
 4017.00    0.23033   1.30804   -1.000
 4018.00    1.40317   1.30828   -1.000
 4019.00    2.54312   1.30853    0.559
 4020.00    1.40689   1.30759    0.012
 4021.00    0.27437   1.30665    0.006
 4022.00   -0.79261   1.30333    0.000
 4023.00   -1.65716   1.30001    0.000
 4024.00   -0.34353   1.29312    0.000
 4025.00    0.90358   1.27910    0.006
 4026.00    1.64569   1.25434    0.006
 4027.00    2.05994   1.21053    0.006
 4028.00    0.58305   1.14441    0.006
 4029.00   -0.39907   1.10211    0.000
 4030.00    0.88630   1.13966    0.006
 4031.00    1.82838   1.21487    0.006
 4032.00    1.48272   1.26442    0.006
 4033.00    1.50492   1.28769    0.006
 4034.00    2.68033   1.29885    0.006
 4035.00    3.45073   1.30635    0.006
 4036.00    3.14366   1.31025    0.006
 4037.00    2.60809   1.31530    0.006
 4038.00    1.55075   1.31680    0.006
 4039.00    0.88666   1.31945    0.006
 4040.00    1.00000   1.32093    0.006
 4041.00    0.68828   1.32121    0.006
 4042.00   -0.35571   1.32266    0.000
 4043.00   -0.56082   1.32293    0.000
 4044.00    0.49955   1.32319    0.006
 4045.00    1.68064   1.32345    0.006
 4046.00    3.02177   1.32370    0.006
 4047.00    3.07945   1.32516    0.006
 4048.00    1.63870   1.32425    0.006
 4049.00    0.99592   1.32448    0.006
 4050.00    1.17470   1.32593    0.006
 4051.00    0.74703   1.32622    0.006
 4052.00   -0.23135   1.32647    0.000
 4053.00   -0.41941   1.32793    0.000
 4054.00    0.02507   1.32822    0.006
 4055.00    0.33536   1.32848    0.006
 4056.00    0.55115   1.32874    0.006
 4057.00    1.11880   1.32780    0.006
 4058.00    1.90379   1.32803    0.006
 4059.00    2.24365   1.32948    0.006
 4060.00    2.34331   1.33338    0.006
 4061.00    1.94638   1.33496    0.006
 4062.00    1.31671   1.33166    0.006
 4063.00    2.16088   1.32820    0.006
 4064.00    3.60051   1.32834    0.006
 4065.00    3.96046   1.32739    0.006
 4066.00    3.94814   1.32881    0.006
 4067.00    2.71682   1.32911    0.006
 4068.00    1.13152   1.32936    0.006
 4069.00    0.88663   1.32962    0.006
 4070.00    0.96369   1.32627    0.006
 4071.00    1.43492   1.31915    0.006
 4072.00    1.98254   1.31186    0.006
 4073.00    2.19964   1.30939    0.006
 4074.00    2.36693   1.31435    0.006
 4075.00    1.83011   1.31962    0.006
 4076.00    1.21540   1.32369    0.006
 4077.00    2.14579   1.32652    0.006
 4078.00    3.18933   1.32084    0.006
 4079.00    2.59918   1.31718    0.006
 4080.00    1.94648   1.32087    0.006
 4081.00    2.66083   1.32492    0.006
 4082.00    3.34934   1.32534    0.006
 4083.00    2.77787   1.32559    0.006
 4084.00    2.24577   1.32463    0.006
 4085.00    2.36251   1.32239    0.006
 4086.00    2.38715   1.32129    0.006
 4087.00    1.46403   1.31662    0.006
 4088.00    0.78642   1.31418    0.006
 4089.00    1.91053   1.31185    0.006
 4090.00    3.08767   1.30709    0.006
 4091.00    4.56232   1.29612    0.006
 4092.00    5.48774   1.28600    0.000
 4093.00    3.95538   1.28539    0.000
 4094.00    2.69042   1.28448    0.000
 4095.00    2.40751   1.27562    0.000
 4096.00    2.31273   1.26273    0.000
 4097.00    2.79655   1.24718    0.000
 4098.00    2.90751   1.22706    0.000
 4099.00    2.04397   1.19955    0.000
 4100.00    1.37055   1.16266    0.000
 4101.00    1.12411   1.11391    0.000
 4102.00    0.98015   1.04810    0.000
 4103.00    1.03562   0.95892    0.000
 4104.00    1.78093   0.86600    0.000
 4105.00    3.69677   0.83842    0.000
 4106.00    4.00035   0.90723    0.000
 4107.00    1.90732   1.01068    0.000
 4108.00    0.92799   1.09369    0.000
 4109.00    1.40387   1.15189    0.000
 4110.00    1.36102   1.19347    0.000
 4111.00    0.72109   1.22394    0.000
 4112.00    0.80029   1.24688    0.000
 4113.00    1.60945   1.26449    0.006
 4114.00    2.14291   1.27833    0.006
 4115.00    2.42953   1.28999    0.006
 4116.00    2.18566   1.29956    0.008
 4117.00    1.52326   1.30668    0.029
 4118.00    1.52636   1.30910   -1.000
 4119.00    1.99130   1.31055   -1.000
 4120.00    2.52320   1.31710   -1.000
 4121.00    3.09585   1.32335   -1.000
 4122.00    3.71168   1.31949   -1.000
 4123.00    4.35045   1.30301   -1.000
 4124.00    4.42643   1.29642   -1.000
 4125.00    4.24291   1.31531   -1.000
 4126.00    3.88521   1.33574   -1.000
 4127.00    3.45836   1.34128   -1.000
 4128.00    3.46944   1.34430    0.015
 4129.00    3.62874   1.34477    0.006
 4130.00    3.57386   1.34501    0.006
 4131.00    3.45804   1.34525    0.006
 4132.00    3.41465   1.34673    0.006
 4133.00    3.38828   1.34709    0.006
 4134.00    2.31108   1.34684    0.006
 4135.00    1.03553   1.34851    0.005
 4136.00    1.31340   1.35100    0.005
 4137.00    1.81811   1.35305    0.005
 4138.00    1.34809   1.35444    0.005
 4139.00    0.77449   1.35528    0.005
 4140.00    0.94908   1.35545    0.005
 4141.00    1.17543   1.35544    0.005
 4142.00    1.98896   1.35505    0.005
 4143.00    2.82274   1.35325    0.005
 4144.00    2.54277   1.34810    0.005
 4145.00    2.26975   1.33208    0.005
 4146.00    2.29897   1.30405    0.005
 4147.00    2.33553   1.29239    0.005
 4148.00    2.48543   1.31414    0.005
 4149.00    2.57720   1.34068    0.005
 4150.00    2.09597   1.35364    0.005
 4151.00    1.59656   1.35883    0.005
 4152.00    0.96811   1.36111    0.005
 4153.00    0.40170   1.36253    0.005
 4154.00    0.17404   1.36375    0.005
 4155.00    0.34162   1.36410    0.005
 4156.00    2.23689   1.36372    0.005
 4157.00    3.95701   1.36477    0.005
 4158.00    5.04718   1.36673    0.005
 4159.00    5.63977   1.36779    0.005
 4160.00    4.73084   1.36848    0.005
 4161.00    3.95610   1.36952    0.005
 4162.00    3.52600   1.37048    0.005
 4163.00    3.10983   1.37093    0.005
 4164.00    2.72444   1.37132    0.005
 4165.00    2.24034   1.37121    0.005
 4166.00    1.56716   1.37141    0.005
 4167.00    1.44406   1.37228    0.005
 4168.00    2.24030   1.37323    0.005
 4169.00    3.35545   1.37355    0.005
 4170.00    4.93774   1.37243    0.005
 4171.00    5.01330   1.36750    0.005
 4172.00    3.14821   1.36397    0.005
 4173.00    2.30158   1.36755    0.005
 4174.00    2.61067   1.37315    0.005
 4175.00    1.97160   1.37516    0.005
 4176.00    0.38355   1.37580    0.005
 4177.00   -0.02840   1.37670    0.000
 4178.00    0.59780   1.37740    0.005
 4179.00    1.40933   1.37782    0.005
 4180.00    2.36499   1.37833    0.005
 4181.00    3.00702   1.37886    0.005
 4182.00    3.43455   1.37938    0.005
 4183.00    3.18290   1.38003    0.005
 4184.00    2.52412   1.38070    0.005
 4185.00    1.97621   1.38100    0.005
 4186.00    1.48629   1.38136    0.005
 4187.00    1.23229   1.38137    0.005
 4188.00    1.08530   1.38069    0.005
 4189.00    1.88508   1.38030    0.005
 4190.00    3.05429   1.38071    0.005
 4191.00    3.46168   1.38123    0.005
 4192.00    3.61604   1.38025    0.005
 4193.00    3.43314   1.37928    0.005
 4194.00    3.15624   1.37986    0.005
 4195.00    3.59809   1.38017    0.005
 4196.00    4.20485   1.37863    0.005
 4197.00    3.70303   1.37556    0.005
 4198.00    2.99749   1.37014    0.005
 4199.00    2.81507   1.36047    0.005
 4200.00    2.70661   1.34373    0.005
 4201.00    2.79879   1.31673    0.005
 4202.00    2.91143   1.28404    0.005
 4203.00    3.05030   1.27071    0.005
 4204.00    3.19088   1.29050    0.005
 4205.00    3.14146   1.32372    0.005
 4206.00    3.08551   1.34954    0.005
 4207.00    2.58525   1.36564    0.005
 4208.00    2.09873   1.37586    0.005
 4209.00    2.01614   1.38220    0.005
 4210.00    1.97292   1.38637    0.005
 4211.00    2.50302   1.38928    0.005
 4212.00    2.96234   1.39125    0.005
 4213.00    2.75231   1.39272    0.005
 4214.00    2.50805   1.39312    0.005
 4215.00    2.02853   1.39245    0.005
 4216.00    1.63091   1.39341    0.005
 4217.00    1.66858   1.39594    0.005
 4218.00    1.70733   1.39743    0.005
 4219.00    1.75073   1.39806    0.005
 4220.00    1.80230   1.39896    0.005
 4221.00    1.88261   1.39968    0.005
 4222.00    1.97817   1.40061    0.005
 4223.00    2.11889   1.40145    0.005
 4224.00    1.95085   1.40176    0.005
 4225.00    1.00361   1.40198    0.005
 4226.00    0.46678   1.40246    0.005
 4227.00    0.82175   1.40298    0.005
 4228.00    0.93536   1.40337    0.005
 4229.00    0.59378   1.40348    0.005
 4230.00    0.71215   1.40368    0.005
 4231.00    1.58776   1.40453    0.005
 4232.00    2.03374   1.40576    0.005
 4233.00    1.85952   1.40665    0.005
 4234.00    1.59898   1.40722    0.005
 4235.00    1.22884   1.40723    0.005
 4236.00    1.22407   1.40714    0.005
 4237.00    1.62809   1.40768    0.005
 4238.00    1.72529   1.40861    0.005
 4239.00    1.51973   1.40907    0.005
 4240.00    1.62272   1.40943    0.005
 4241.00    1.99423   1.41018    0.005
 4242.00    2.02024   1.41113    0.005
 4243.00    1.78137   1.41172    0.005
 4244.00    2.18668   1.41173    0.005
 4245.00    3.02612   1.41201    0.005
 4246.00    2.73145   1.41301    0.005
 4247.00    1.76719   1.41389    0.005
 4248.00    1.39645   1.41432    0.005
 4249.00    1.33129   1.41443    0.005
 4250.00    0.74904   1.41486    0.005
 4251.00   -0.06393   1.41563    0.000
 4252.00    0.18820   1.41658    0.005
 4253.00    0.84872   1.41717    0.005
 4254.00    1.56974   1.41769    0.005
 4255.00    2.31049   1.41755    0.005
 4256.00    2.70709   1.41638    0.005
 4257.00    3.00975   1.41656    0.005
 4258.00    3.13694   1.41861    0.005
 4259.00    3.22480   1.42022    0.005
 4260.00    3.96720   1.42090    0.005
 4261.00    4.82665   1.42141    0.005
 4262.00    3.99962   1.42179    0.005
 4263.00    2.94183   1.42214    0.005
 4264.00    1.81716   1.42275    0.005
 4265.00    0.68596   1.42341    0.005
 4266.00    0.78827   1.42421    0.005
 4267.00    0.96602   1.42477    0.005
 4268.00    1.32267   1.42425    0.005
 4269.00    1.67927   1.41883    0.005
 4270.00    1.08193   1.41232    0.005
 4271.00    0.53078   1.41499    0.005
 4272.00    1.20042   1.42289    0.005
 4273.00    1.85412   1.42700    0.005
 4274.00    2.28883   1.42785    0.005
 4275.00    2.65339   1.42819    0.005
 4276.00    2.38070   1.42892    0.005
 4277.00    1.99460   1.42910    0.005
 4278.00    0.85310   1.42808    0.005
 4279.00    0.01459   1.42693    0.005
 4280.00    0.74473   1.42763    0.005
 4281.00    1.53296   1.42994    0.005
 4282.00    2.56368   1.43202   -2.000
 4283.00    3.67402   1.43319   -2.000
 4284.00    5.05922   1.43339   -2.000
 4285.00    5.81372   1.43301   -2.000
 4286.00    4.73496   1.43266   -2.000
 4287.00    3.41588   1.43247   -2.000
 4288.00    1.50073   1.43297   -2.000
 4289.00    0.15774   1.43440   -2.000
 4290.00    0.03794   1.43616   -2.000
 4291.00    0.36027   1.43666   -2.000
 4292.00    1.50352   1.43656   -2.000
 4293.00    2.47464   1.43666   -2.000
 4294.00    3.16661   1.43747   -2.000
 4295.00    3.05321   1.43858   -2.000
 4296.00    1.79406   1.43920   -2.000
 4297.00    1.08619   1.43891   -2.000
 4298.00    1.06829   1.43880    0.005
 4299.00    1.22466   1.43970    0.005
 4300.00    1.57328   1.44085    0.005
 4301.00    1.81865   1.44134    0.005
 4302.00    1.96358   1.44140    0.005
 4303.00    2.05049   1.44125    0.005
 4304.00    2.08764   1.44159    0.005
 4305.00    1.97471   1.44142    0.005
 4306.00    1.74837   1.44028    0.005
 4307.00    1.44785   1.43997    0.005
 4308.00    1.09809   1.44126    0.005
 4309.00    1.28799   1.44264    0.005
 4310.00    1.79173   1.44264    0.005
 4311.00    1.96270   1.44227    0.005
 4312.00    1.96501   1.44243    0.005
 4313.00    1.54351   1.44300    0.005
 4314.00    0.93604   1.44337    0.004
 4315.00    1.81028   1.44302    0.004
 4316.00    3.24267   1.44208    0.004
 4317.00    2.64526   1.44155    0.004
 4318.00    1.39889   1.44143    0.004
 4319.00    1.41981   1.44033    0.004
 4320.00    1.77943   1.43866    0.005
 4321.00    1.67459   1.43783    0.005
 4322.00    1.46810   1.43701    0.005
 4323.00    1.85893   1.43609    0.005
 4324.00    2.35367   1.43584    0.005
 4325.00    2.31753   1.43511    0.005
 4326.00    2.21117   1.43340    0.005
 4327.00    1.68868   1.43066    0.005
 4328.00    1.12731   1.42675    0.005
 4329.00    1.83628   1.42256    0.005
 4330.00    2.61791   1.41861    0.000
 4331.00    2.21921   1.41407    0.000
 4332.00    1.79369   1.40761    0.000
 4333.00    1.44191   1.39916    0.000
 4334.00    1.14278   1.38826    0.000
 4335.00    2.10765   1.37422    0.000
 4336.00    2.96347   1.35659    0.000
 4337.00    2.39998   1.33411    0.000
 4338.00    1.90149   1.30399    0.000
 4339.00    1.97089   1.26233    0.000
 4340.00    2.13873   1.20459    0.000
 4341.00    2.94246   1.12714    0.000
 4342.00    3.41899   1.02792    0.000
 4343.00    2.24476   0.93570    0.000
 4344.00    1.47740   0.92006    0.000
 4345.00    2.37077   1.00058    0.000
 4346.00    3.18526   1.11288    0.000
 4347.00    3.73291   1.20218    0.000
 4348.00    4.02183   1.26332    0.000
 4349.00    3.57247   1.30637    0.000
 4350.00    3.29880   1.33781    0.000
 4351.00    3.45343   1.36149    0.005
 4352.00    3.38854   1.37936    0.006
 4353.00    2.86193   1.39341    0.014
 4354.00    2.58789   1.40520   -1.000
 4355.00    2.77559   1.41600   -1.000
 4356.00    3.00393   1.42624   -1.000
 4357.00    3.29716   1.43466   -1.000
 4358.00    3.28537   1.44131   -1.000
 4359.00    2.84593   1.44651   -1.000
 4360.00    2.80138   1.45097   -1.000
 4361.00    3.24404   1.45490   -1.000
 4362.00    3.18298   1.45843   -1.000
 4363.00    2.57408   1.46148   -1.000
 4364.00    2.62484   1.46387    0.018
 4365.00    3.30839   1.46634    0.006
 4366.00    3.15789   1.46905    0.005
 4367.00    2.30188   1.47127    0.005
 4368.00    1.96935   1.47264    0.005
 4369.00    2.02674   1.47312    0.005
 4370.00    2.17045   1.47362    0.005
 4371.00    2.37065   1.47568    0.005
 4372.00    2.49180   1.47827    0.005
 4373.00    2.56767   1.48033    0.005
 4374.00    2.30770   1.48167    0.004
 4375.00    1.88021   1.48268    0.004
 4376.00    2.16179   1.48391    0.004
 4377.00    2.74936   1.48497    0.004
 4378.00    3.30510   1.48581    0.004
 4379.00    3.84908   1.48686    0.005
 4380.00    3.48298   1.48814    0.004
 4381.00    2.83150   1.48894    0.004
 4382.00    2.21468   1.48887    0.004
 4383.00    1.60691   1.48922    0.004
 4384.00    2.09996   1.49035    0.004
 4385.00    2.82815   1.49021    0.004
 4386.00    2.90719   1.48872    0.004
 4387.00    2.87646   1.48665    0.004
 4388.00    2.35643   1.48219    0.004
 4389.00    1.77389   1.46709    0.004
 4390.00    1.39017   1.43312    0.004
 4391.00    1.02419   1.40518    0.004
 4392.00    2.31921   1.41788    0.004
 4393.00    3.70269   1.45515    0.004
 4394.00    3.25650   1.48183    0.004
 4395.00    2.77626   1.49363    0.004
 4396.00    2.44091   1.49836    0.004
 4397.00    2.14760   1.50028    0.004
 4398.00    2.77833   1.50108    0.004
 4399.00    3.33511   1.50206    0.004
 4400.00    2.97824   1.50388    0.004
 4401.00    2.60543   1.50584    0.004
 4402.00    2.09845   1.50694    0.004
 4403.00    1.69177   1.50758    0.004
 4404.00    1.91360   1.50844    0.004
 4405.00    2.17946   1.50940    0.004
 4406.00    2.66186   1.51023    0.004
 4407.00    3.12532   1.51073    0.004
 4408.00    3.51319   1.51126    0.004
 4409.00    3.60415   1.51211    0.004
 4410.00    2.71053   1.51321    0.004
 4411.00    1.96045   1.51423    0.004
 4412.00    1.61251   1.51492    0.004
 4413.00    1.32425   1.51523    0.004
 4414.00    1.17904   1.51530    0.004
 4415.00    1.14699   1.51611    0.004
 4416.00    1.34918   1.51686    0.004
 4417.00    1.61217   1.51514    0.004
 4418.00    1.98464   1.51300    0.004
 4419.00    2.45236   1.51296    0.004
 4420.00    3.07003   1.51466    0.004
 4421.00    3.55704   1.51717    0.004
 4422.00    3.86352   1.51999    0.004
 4423.00    3.99815   1.52179    0.004
 4424.00    3.92379   1.52300    0.004
 4425.00    3.59975   1.52402    0.004
 4426.00    3.00800   1.52470    0.004
 4427.00    2.66190   1.52541    0.004
 4428.00    2.54814   1.52603    0.004
 4429.00    2.38613   1.52660    0.004
 4430.00    2.18388   1.52703    0.004
 4431.00    2.44477   1.52753    0.004
 4432.00    3.04570   1.52837    0.004
 4433.00    3.44014   1.52891    0.004
 4434.00    3.70144   1.52928    0.004
 4435.00    3.87130   1.52978    0.004
 4436.00    3.98958   1.53034    0.004
 4437.00    3.21214   1.53089    0.004
 4438.00    1.99497   1.53077    0.004
 4439.00    1.66808   1.52710    0.004
 4440.00    1.71898   1.51882    0.004
 4441.00    2.12123   1.51586    0.004
 4442.00    2.65119   1.52316    0.004
 4443.00    2.82144   1.52999    0.004
 4444.00    2.88108   1.53131    0.004
 4445.00    2.95209   1.53207    0.004
 4446.00    3.02601   1.53476    0.004
 4447.00    3.49454   1.53714    0.004
 4448.00    4.04530   1.53867    0.004
 4449.00    2.92947   1.53947    0.004
 4450.00    1.53983   1.53988    0.004
 4451.00    1.63886   1.54036    0.004
 4452.00    1.92142   1.54130    0.004
 4453.00    2.02727   1.54231    0.004
 4454.00    2.11809   1.54284    0.004
 4455.00    1.87825   1.54304    0.004
 4456.00    1.62209   1.54358    0.004
 4457.00    1.55322   1.54473    0.004
 4458.00    1.49695   1.54552    0.004
 4459.00    2.04397   1.54619    0.004
 4460.00    2.55282   1.54720    0.004
 4461.00    2.28856   1.54793    0.000
 4462.00    2.07304   1.54832    0.000
 4463.00    2.43036   1.54879    0.000
 4464.00    2.72987   1.54918    0.000
 4465.00    2.56056   1.54896    0.000
 4466.00    2.46080   1.54833    0.000
 4467.00    2.78436   1.54762    0.000
 4468.00    2.95019   1.54665    0.000
 4469.00    2.35932   1.54458    0.000
 4470.00    1.94995   1.53998    0.000
 4471.00    2.24945   1.52972    0.000
 4472.00    2.57244   1.50880    0.000
 4473.00    2.97179   1.46201    0.000
 4474.00    3.16161   1.39233    0.000
 4475.00    2.77490   1.36770    0.000
 4476.00    2.37066   1.42462    0.000
 4477.00    1.92513   1.49680    0.000
 4478.00    1.88808   1.53286    0.000
 4479.00    2.68304   1.54585    0.000
 4480.00    3.33990   1.55198    0.000
 4481.00    3.75192   1.55540    0.000
 4482.00    3.91012   1.55669    0.004
 4483.00    3.67465   1.55297    0.004
 4484.00    3.32465   1.54755    0.004
 4485.00    2.81865   1.54948    0.004
 4486.00    2.72231   1.55831    0.004
 4487.00    3.11720   1.56461    0.004
 4488.00    3.45724   1.56676    0.004
 4489.00    3.73931   1.56761    0.004
 4490.00    3.47911   1.56832    0.004
 4491.00    2.71325   1.56889    0.004
 4492.00    2.51074   1.56938    0.004
 4493.00    2.77138   1.56988    0.004
 4494.00    2.46017   1.57064    0.004
 4495.00    1.73517   1.57155    0.004
 4496.00    1.48794   1.57246    0.004
 4497.00    1.54420   1.57323    0.004
 4498.00    1.60817   1.57393    0.004
 4499.00    1.67642   1.57449    0.004
 4500.00    1.94891   1.57525    0.004
 4501.00    2.32007   1.57615    0.004
 4502.00    2.70646   1.57692    0.004
 4503.00    3.09921   1.57734    0.004
 4504.00    2.95361   1.57761    0.004
 4505.00    2.61589   1.57801    0.004
 4506.00    2.63878   1.57903    0.004
 4507.00    2.77038   1.58035    0.004
 4508.00    2.72041   1.58141    0.004
 4509.00    2.62496   1.58204    0.004
 4510.00    2.42964   1.58265    0.004
 4511.00    2.21402   1.58306    0.004
 4512.00    2.59542   1.58358    0.004
 4513.00    3.07206   1.58440    0.004
 4514.00    2.90830   1.58475    0.004
 4515.00    2.66843   1.58478    0.004
 4516.00    2.41499   1.58535    0.004
 4517.00    2.16044   1.58624    0.004
 4518.00    2.17695   1.58686    0.004
 4519.00    2.20579   1.58773    0.004
 4520.00    2.15025   1.58883    0.004
 4521.00    2.09219   1.58967    0.004
 4522.00    1.95915   1.59034    0.004
 4523.00    1.85680   1.59087    0.004
 4524.00    2.33056   1.59132    0.004
 4525.00    2.71126   1.59150    0.004
 4526.00    2.04952   1.59177    0.004
 4527.00    1.52748   1.59236    0.004
 4528.00    2.09878   1.59315    0.004
 4529.00    2.59327   1.59390    0.004
 4530.00    2.63368   1.59456    0.004
 4531.00    2.63264   1.59439    0.004
 4532.00    2.43753   1.59345    0.004
 4533.00    2.22623   1.59329    0.004
 4534.00    1.95304   1.59413    0.004
 4535.00    1.85668   1.59481    0.004
 4536.00    2.32414   1.59414    0.004
 4537.00    2.69103   1.59265    0.004
 4538.00    2.78613   1.59065    0.004
 4539.00    2.81995   1.58703    0.004
 4540.00    2.71173   1.57993    0.004
 4541.00    2.62402   1.56706    0.004
 4542.00    2.57742   1.54350    0.004
 4543.00    2.29368   1.50081    0.004
 4544.00    1.59592   1.44835    0.004
 4545.00    1.38401   1.42661    0.004
 4546.00    1.91455   1.45778    0.004
 4547.00    2.20961   1.51118    0.004
 4548.00    2.18856   1.55186    0.004
 4549.00    1.96281   1.57532    0.004
 4550.00    1.49508   1.58882    0.000
 4551.00    1.56287   1.59638    0.000
 4552.00    2.18887   1.60048    0.000
 4553.00    2.26675   1.60331    0.000
 4554.00    1.84069   1.60530    0.000
 4555.00    1.77127   1.60437    0.000
 4556.00    1.99090   1.60344    0.000
 4557.00    2.13706   1.60687    0.000
 4558.00    2.23084   1.61182    0.000
 4559.00    1.93364   1.61414    0.000
 4560.00    1.39174   1.61513    0.000
 4561.00    1.27343   1.61620    0.000
 4562.00    1.38680   1.61728    0.000
 4563.00    1.78908   1.61849    0.000
 4564.00    2.32870   1.61952    0.000
 4565.00    2.39898   1.62037    0.000
 4566.00    2.27676   1.62094    0.000
 4567.00    2.18468   1.62132    0.000
 4568.00    2.10316   1.62211    0.000
 4569.00    1.78950   1.62277    0.000
 4570.00    1.40722   1.62138    0.000
 4571.00    1.73467   1.61914    0.000
 4572.00    2.23597   1.61978    0.000
 4573.00    2.10280   1.62319    0.000
 4574.00    1.84388   1.62592    0.000
 4575.00    2.45946   1.62700    0.000
 4576.00    3.21041   1.62774    0.000
 4577.00    2.84971   1.62789    0.000
 4578.00    2.36181   1.62782    0.000
 4579.00    2.61870   1.62904    0.000
 4580.00    2.93279   1.63090    0.000
 4581.00    3.00995   1.63212    0.000
 4582.00    3.07724   1.63295    0.000
 4583.00    2.32208   1.63364    0.000
 4584.00    1.58063   1.63423    0.000
 4585.00    1.73465   1.63468    0.000
 4586.00    1.88255   1.63475    0.000
 4587.00    1.92360   1.63504    0.000
 4588.00    1.99959   1.63616    0.000
 4589.00    2.44928   1.63755    0.000
 4590.00    2.85313   1.63830    0.000
 4591.00    2.91056   1.63864    0.000
 4592.00    2.85704   1.63912    0.000
 4593.00    2.16585   1.63778    0.000
 4594.00    1.70843   1.63542    0.000
 4595.00    2.31915   1.63650    0.000
 4596.00    2.71762   1.64047    0.000
 4597.00    2.32209   1.64324    0.000
 4598.00    2.04995   1.64286    0.000
 4599.00    2.16368   1.64102    0.000
 4600.00    2.39601   1.64136    0.000
 4601.00    2.94318   1.64445    0.000
 4602.00    3.14654   1.64702    0.000
 4603.00    2.56648   1.64786    0.000
 4604.00    2.20926   1.64804    0.000
 4605.00    2.29167   1.64798    0.000
 4606.00    2.34580   1.64754    0.000
 4607.00    2.35128   1.64769    0.000
 4608.00    2.40035   1.64930    0.000
 4609.00    2.51505   1.65128    0.000
 4610.00    2.59370   1.65250    0.000
 4611.00    2.62463   1.65302    0.000
 4612.00    2.42534   1.65332    0.000
 4613.00    1.95773   1.65321    0.000
 4614.00    1.78113   1.65346    0.000
 4615.00    1.90360   1.65506    0.000
 4616.00    2.31769   1.65663    0.000
 4617.00    2.99614   1.65739    0.000
 4618.00    3.11232   1.65806    0.000
 4619.00    2.77929   1.65898    0.000
 4620.00    2.46813   1.65959    0.000
 4621.00    2.17235   1.65906    0.000
 4622.00    2.08898   1.65786    0.000
 4623.00    2.13658   1.65788    0.000
 4624.00    2.37670   1.65971    0.000
 4625.00    2.72052   1.66208    0.000
 4626.00    2.62622   1.66380    0.000
 4627.00    2.32702   1.66493    0.000
 4628.00    1.78147   1.66554    0.000
 4629.00    1.13662   1.66622    0.000
 4630.00    1.56013   1.66696    0.000
 4631.00    2.35114   1.66748    0.000
 4632.00    2.91064   1.66758    0.000
 4633.00    3.40307   1.66707    0.000
 4634.00    3.09780   1.66552    0.000
 4635.00    2.60147   1.66448    0.000
 4636.00    2.51123   1.66665    0.000
 4637.00    2.49941   1.67067    0.000
 4638.00    2.56042   1.67279    0.000
 4639.00    2.63236   1.67330    0.000
 4640.00    2.56513   1.67353    0.000
 4641.00    2.48259   1.67271    0.000
 4642.00    2.38055   1.67226    0.000
 4643.00    2.27710   1.67384    0.000
 4644.00    2.15145   1.67405    0.000
 4645.00    2.02496   1.67212    0.000
 4646.00    1.99152   1.67291    0.000
 4647.00    1.96092   1.67659    0.000
 4648.00    2.01773   1.67862    0.000
 4649.00    2.08754   1.67600    0.000
 4650.00    2.36981   1.67141    0.000
 4651.00    2.63315   1.66903    0.000
 4652.00    2.70269   1.66808    0.000
 4653.00    2.74644   1.66768    0.000
 4654.00    2.60183   1.67031    0.000
 4655.00    2.40385   1.67622    0.000
 4656.00    1.90750   1.68338    0.000
 4657.00    1.56859   1.68931    0.000
 4658.00    1.93220   1.69121    0.000
 4659.00    2.24761   1.68958    0.000
 4660.00    2.38649   1.68802    0.000
 4661.00    2.59888   1.68812    0.000
 4662.00    3.03681   1.68898    0.000
 4663.00    3.27576   1.68928    0.000
 4664.00    2.99581   1.68829    0.000
 4665.00    2.79463   1.68747    0.000
 4666.00    2.77000   1.68848    0.000
 4667.00    2.71516   1.68995    0.000
 4668.00    2.60168   1.69052    0.000
 4669.00    2.44496   1.69124    0.000
 4670.00    2.21503   1.69260    0.000
 4671.00    2.18898   1.69369    0.000
 4672.00    2.46542   1.69439    0.000
 4673.00    2.81199   1.69563    0.000
 4674.00    3.25002   1.69698    0.000
 4675.00    3.21891   1.69727    0.000
 4676.00    2.64879   1.69651    0.000
 4677.00    2.34190   1.69576    0.000
 4678.00    2.30176   1.69553    0.000
 4679.00    2.05469   1.69503    0.000
 4680.00    1.62269   1.69453    0.000
 4681.00    1.77850   1.69495    0.000
 4682.00    2.39725   1.69483    0.000
 4683.00    2.72050   1.69284    0.000
 4684.00    2.83905   1.68819    0.000
 4685.00    2.84174   1.67818    0.000
 4686.00    2.77407   1.65759    0.000
 4687.00    2.74943   1.60471    0.000
 4688.00    2.74760   1.50476    0.000
 4689.00    2.60296   1.42833    0.000
 4690.00    2.39260   1.46451    0.000
 4691.00    2.36630   1.57022    0.000
 4692.00    2.41293   1.64572    0.000
 4693.00    1.90097   1.67689    0.000
 4694.00    1.20039   1.69113    0.000
 4695.00    1.21386   1.69893    0.000
 4696.00    1.42997   1.70417    0.000
 4697.00    1.68284   1.70754    0.000
 4698.00    1.94432   1.70969    0.000
 4699.00    1.91132   1.71129    0.000
 4700.00    1.82292   1.71263    0.000
 4701.00    1.83255   1.71329    0.000
 4702.00    1.85644   1.71354    0.000
 4703.00    2.27111   1.71418    0.000
 4704.00    2.72709   1.71537    0.000
 4705.00    2.33110   1.71644    0.000
 4706.00    1.87660   1.71722    0.000
 4707.00    2.08574   1.71814    0.000
 4708.00    2.31745   1.71880    0.000
 4709.00    2.43625   1.71956    0.000
 4710.00    2.53911   1.72089    0.000
 4711.00    2.12912   1.72195    0.000
 4712.00    1.77341   1.72246    0.000
 4713.00    2.25037   1.72295    0.000
 4714.00    2.70814   1.72107    0.000
 4715.00    2.97759   1.70042    0.000
 4716.00    3.22804   1.66385    0.000
 4717.00    3.34413   1.65458    0.000
 4718.00    3.34551   1.68716    0.000
 4719.00    2.72272   1.71908    0.000
 4720.00    2.16849   1.72775    0.000
 4721.00    1.91302   1.72924    0.000
 4722.00    1.69885   1.73014    0.000
 4723.00    1.63286   1.73090    0.000
 4724.00    1.62334   1.73153    0.000
 4725.00    1.78386   1.73227    0.000
 4726.00    1.90579   1.73304    0.000
 4727.00    1.92887   1.73378    0.000
 4728.00    1.92020   1.73441    0.000
 4729.00    1.84152   1.73488    0.000
 4730.00    1.87348   1.73549    0.000
 4731.00    2.11695   1.73610    0.000
 4732.00    2.30035   1.73670    0.000
 4733.00    2.38352   1.73731    0.000
 4734.00    2.43573   1.73804    0.000
 4735.00    2.44265   1.73879    0.000
 4736.00    2.55511   1.73965    0.000
 4737.00    2.80326   1.74042    0.000
 4738.00    2.78466   1.74099    0.000
 4739.00    2.46387   1.74161    0.000
 4740.00    2.12543   1.74218    0.000
 4741.00    1.76937   1.74292    0.000
 4742.00    1.64994   1.74351    0.000
 4743.00    1.73904   1.74410    0.000
 4744.00    1.76953   1.74481    0.000
 4745.00    1.75452   1.74568    0.000
 4746.00    2.15143   1.74642    0.000
 4747.00    2.82950   1.74699    0.000
 4748.00    2.89300   1.74770    0.000
 4749.00    2.58880   1.74843    0.000
 4750.00    2.73157   1.74901    0.000
 4751.00    3.10765   1.74958    0.000
 4752.00    3.15583   1.75028    0.000
 4753.00    3.05559   1.75100    0.000
 4754.00    2.73815   1.75157    0.000
 4755.00    2.33614   1.75201    0.000
 4756.00    2.56225   1.75254    0.000
 4757.00    2.99651   1.75326    0.000
 4758.00    3.00885   1.75382    0.000
 4759.00    2.90391   1.75450    0.000
 4760.00    2.84384   1.75522    0.000
 4761.00    2.79404   1.75590    0.004
 4762.00    2.56072   1.75674    0.004
 4763.00    2.29379   1.75732    0.004
 4764.00    2.54812   1.75771    0.004
 4765.00    2.87586   1.75825    0.004
 4766.00    2.68914   1.75880    0.004
 4767.00    2.45024   1.75934    0.004
 4768.00    2.05440   1.76013    0.004
 4769.00    1.64841   1.76100    0.004
 4770.00    1.62803   1.76153    0.003
 4771.00    1.62039   1.76207    0.003
 4772.00    2.14679   1.76273    0.004
 4773.00    2.66911   1.76355    0.004
 4774.00    3.07308   1.76425    0.004
 4775.00    3.39890   1.76464    0.004
 4776.00    2.59517   1.76513    0.003
 4777.00    1.86920   1.76595    0.003
 4778.00    1.87486   1.76663    0.003
 4779.00    1.91038   1.76728    0.003
 4780.00    2.15043   1.76796    0.003
 4781.00    2.35055   1.76861    0.003
 4782.00    2.33913   1.76916    0.003
 4783.00    2.28628   1.76963    0.003
 4784.00    2.05698   1.77044    0.003
 4785.00    1.91125   1.77111    0.003
 4786.00    2.05918   1.77174    0.003
 4787.00    2.27438   1.77254    0.003
 4788.00    2.68831   1.77322    0.003
 4789.00    3.05419   1.77359    0.003
 4790.00    3.29908   1.77404    0.003
 4791.00    3.32148   1.77458    0.003
 4792.00    2.86141   1.77503    0.003
 4793.00    2.70455   1.77582    0.003
 4794.00    3.11834   1.77661    0.003
 4795.00    3.27197   1.77727    0.003
 4796.00    2.99811   1.77775    0.003
 4797.00    2.75624   1.77836    0.003
 4798.00    2.56048   1.77901    0.003
 4799.00    2.61650   1.77974    0.004
 4800.00    2.99160   1.78070    0.004
 4801.00    3.02458   1.78148    0.004
 4802.00    2.67546   1.78200    0.004
 4803.00    2.41530   1.78217    0.004
 4804.00    2.24279   1.78259    0.004
 4805.00    2.16171   1.78310    0.004
 4806.00    2.16008   1.78326    0.004
 4807.00    2.38970   1.78354    0.004
 4808.00    2.79629   1.78425    0.003
 4809.00    2.70345   1.78494    0.003
 4810.00    2.27465   1.78534    0.003
 4811.00    2.04600   1.78598    0.003
 4812.00    1.93529   1.78643    0.003
 4813.00    2.08939   1.78687    0.003
 4814.00    2.37957   1.78745    0.003
 4815.00    2.49708   1.78782    0.003
 4816.00    2.53770   1.78764    0.003
 4817.00    2.57868   1.78759    0.003
 4818.00    2.61978   1.78809    0.003
 4819.00    2.84056   1.78889    0.004
 4820.00    3.11975   1.78945    0.004
 4821.00    3.19696   1.78994    0.004
 4822.00    3.21917   1.78955    0.004
 4823.00    2.98154   1.78879    0.003
 4824.00    2.68586   1.78921    0.003
 4825.00    2.73278   1.79044    0.003
 4826.00    2.84076   1.79098    0.003
 4827.00    2.24444   1.79077    0.003
 4828.00    1.55217   1.79080    0.003
 4829.00    1.64852   1.79109    0.003
 4830.00    1.82148   1.79118    0.004
 4831.00    2.01917   1.79065    0.003
 4832.00    2.21835   1.78928    0.003
 4833.00    2.26393   1.78884    0.003
 4834.00    2.30315   1.78980    0.003
 4835.00    1.93102   1.79039    0.003
 4836.00    1.58130   1.78983    0.003
 4837.00    1.81631   1.78939    0.003
 4838.00    1.99876   1.78889    0.003
 4839.00    1.46372   1.78788    0.003
 4840.00    1.00669   1.78691    0.003
 4841.00    1.25482   1.78608    0.003
 4842.00    1.46730   1.78461    0.003
 4843.00    1.44321   1.78286    0.003
 4844.00    1.44269   1.78131    0.003
 4845.00    1.56385   1.77937    0.003
 4846.00    1.75857   1.77672    0.003
 4847.00    2.25952   1.77374    0.003
 4848.00    2.60813   1.77031    0.000
 4849.00    2.43225   1.76623    0.000
 4850.00    2.36129   1.76124    0.000
 4851.00    2.59463   1.75509    0.000
 4852.00    2.78236   1.74782    0.000
 4853.00    2.85723   1.73913    0.000
 4854.00    2.83347   1.72856    0.000
 4855.00    2.59931   1.71571    0.000
 4856.00    2.31161   1.69959    0.000
 4857.00    1.92470   1.67847    0.000
 4858.00    1.85285   1.65103    0.000
 4859.00    2.29104   1.61435    0.000
 4860.00    2.36645   1.56436    0.000
 4861.00    1.92669   1.49435    0.000
 4862.00    1.63960   1.40146    0.000
 4863.00    1.54324   1.29047    0.000
 4864.00    1.55277   1.18259    0.000
 4865.00    1.67888   1.13847    0.000
 4866.00    1.58730   1.20227    0.000
 4867.00    1.28430   1.33459    0.000
 4868.00    1.36284   1.45691    0.000
 4869.00    1.76815   1.54144    0.000
 4870.00    1.93164   1.59865    0.000
 4871.00    1.91272   1.64079    0.000
 4872.00    2.05145   1.67325    0.000
 4873.00    2.29469   1.69833    0.000
 4874.00    2.34727   1.71760    0.000
 4875.00    2.28919   1.73314    0.003
 4876.00    2.47745   1.74638    0.004
 4877.00    2.79031   1.75747    0.004
 4878.00    2.68472   1.76682    0.003
 4879.00    2.39589   1.77475    0.003
 4880.00    2.44820   1.78151    0.003
 4881.00    2.62874   1.78760    0.003
 4882.00    2.40388   1.79284    0.003
 4883.00    2.04972   1.79762    0.004
 4884.00    1.97644   1.80142    0.003
 4885.00    1.97804   1.80502    0.003
 4886.00    2.23357   1.80826    0.003
 4887.00    2.54450   1.81098    0.003
 4888.00    2.69598   1.81368    0.003
 4889.00    2.81982   1.81607    0.004
 4890.00    2.18411   1.81856    0.003
 4891.00    1.44837   1.82072    0.003
 4892.00    1.83951   1.82255    0.003
 4893.00    2.33536   1.82403    0.003
 4894.00    2.50152   1.82530    0.004
 4895.00    2.64899   1.82692    0.004
 4896.00    1.96294   1.82908    0.004
 4897.00    1.26639   1.83079    0.004
 4898.00    1.49994   1.83206    0.003
 4899.00    1.73599   1.83333    0.003
 4900.00    2.03128   1.83471    0.003
 4901.00    2.31005   1.83609    0.003
 4902.00    2.37506   1.83690    0.003
 4903.00    2.39198   1.83748    0.003
 4904.00    1.99063   1.83830    0.003
 4905.00    1.76291   1.83956    0.003
 4906.00    2.65234   1.84059    0.003
 4907.00    3.24199   1.84129    0.003
 4908.00    2.32408   1.84221    0.003
 4909.00    1.66703   1.84301    0.003
 4910.00    2.07176   1.84370    0.003
 4911.00    2.30948   1.84461    0.003
 4912.00    1.98359   1.84552    0.003
 4913.00    1.88807   1.84621    0.003
 4914.00    2.44840   1.84655    0.003
 4915.00    2.58366   1.84688    0.004
 4916.00    1.68485   1.84710    0.003
 4917.00    1.16236   1.84778    0.003
 4918.00    1.42984   1.84799    0.003
 4919.00    1.61931   1.84774    0.003
 4920.00    1.66645   1.84634    0.003
 4921.00    1.69060   1.84379    0.003
 4922.00    1.67809   1.83710    0.003
 4923.00    1.80805   1.82085    0.003
 4924.00    2.13740   1.78729    0.003
 4925.00    2.13472   1.74415    0.003
 4926.00    1.72315   1.73820    0.003
 4927.00    1.56511   1.77795    0.003
 4928.00    1.68231   1.82407    0.003
 4929.00    1.72036   1.84327    0.003
 4930.00    1.68261   1.85097    0.003
 4931.00    1.85303   1.85479    0.003
 4932.00    2.19922   1.85708    0.003
 4933.00    2.23386   1.85844    0.003
 4934.00    2.03686   1.85943    0.003
 4935.00    1.99657   1.86044    0.003
 4936.00    2.05864   1.86097    0.003
 4937.00    1.99078   1.86160    0.003
 4938.00    1.84864   1.86258    0.003
 4939.00    1.81020   1.86359    0.003
 4940.00    1.82338   1.86410    0.000
 4941.00    1.82938   1.86462    0.000
 4942.00    1.83228   1.86513    0.000
 4943.00    2.01679   1.86564    0.000
 4944.00    2.26836   1.86604    0.000
 4945.00    2.17923   1.86619    0.000
 4946.00    1.98353   1.86645    0.000
 4947.00    2.50177   1.86728    0.000
 4948.00    3.20628   1.86885    0.000
 4949.00    2.99753   1.86998    0.000
 4950.00    2.59430   1.87034    0.000
 4951.00    2.22804   1.87097    0.000
 4952.00    1.86801   1.87143    0.000
 4953.00    1.89666   1.87253    0.000
 4954.00    1.97475   1.87316    0.000
 4955.00    2.39364   1.87340    0.000
 4956.00    2.84276   1.87389    0.000
 4957.00    3.02049   1.87437    0.000
 4958.00    3.18390   1.87474    0.000
 4959.00    2.50199   1.87486    0.000
 4960.00    1.81606   1.87487    0.000
 4961.00    2.08178   1.87494    0.000
 4962.00    2.33020   1.87588    0.000
 4963.00    2.20245   1.87696    0.000
 4964.00    2.09091   1.87779    0.000
 4965.00    2.17830   1.87862    0.000
 4966.00    2.30964   1.87934    0.000
 4967.00    2.80910   1.87980    0.000
 4968.00    3.20369   1.88026    0.000
 4969.00    2.94354   1.88062    0.000
 4970.00    2.71504   1.88092    0.000
 4971.00    2.64170   1.88173    0.000
 4972.00    2.50500   1.88234    0.000
 4973.00    2.11604   1.88253    0.000
 4974.00    1.82296   1.88308    0.000
 4975.00    1.84706   1.88379    0.000
 4976.00    1.96670   1.88433    0.000
 4977.00    2.35342   1.88504    0.000
 4978.00    2.56559   1.88547    0.000
 4979.00    2.36032   1.88601    0.000
 4980.00    2.11001   1.88671    0.000
 4981.00    1.76669   1.88704    0.000
 4982.00    1.54061   1.88731    0.000
 4983.00    1.52522   1.88800    0.000
 4984.00    1.45893   1.88843    0.000
 4985.00    1.31265   1.88844    0.000
 4986.00    1.38129   1.88769    0.000
 4987.00    1.74636   1.88794    0.000
 4988.00    1.82933   1.88903    0.000
 4989.00    1.56978   1.89072    0.000
 4990.00    1.48835   1.89188    0.000
 4991.00    1.59756   1.89273    0.000
 4992.00    1.66903   1.89286    0.000
 4993.00    1.70485   1.89317    0.000
 4994.00    1.93261   1.89320    0.000
 4995.00    2.32012   1.89343    0.000
 4996.00    2.31278   1.89410    0.000
 4997.00    2.01608   1.89460    0.000
 4998.00    1.95297   1.89537    0.000
 4999.00    2.04017   1.89613    0.000
 5000.00    2.21831   1.89690    0.000
 5001.00    2.44765   1.89756    0.000
 5002.00    2.50282   1.89795    0.000
 5003.00    2.47267   1.89793    0.000
 5004.00    2.22461   1.89681    0.000
 5005.00    1.88429   1.89607    0.000
 5006.00    1.68902   1.89695    0.000
 5007.00    1.54635   1.89871    0.000
 5008.00    1.73870   1.89899    0.000
 5009.00    2.03382   1.89917    0.000
 5010.00    2.45663   1.89992    0.000
 5011.00    2.91204   1.90056    0.000
 5012.00    2.90162   1.90102    0.000
 5013.00    2.79441   1.90167    0.000
 5014.00    2.29322   1.90202    0.000
 5015.00    1.72753   1.90248    0.000
 5016.00    1.88233   1.90263    0.000
 5017.00    2.12554   1.89600    0.000
 5018.00    1.87677   1.86655    0.000
 5019.00    1.58640   1.82466    0.000
 5020.00    1.62816   1.82854    0.000
 5021.00    1.68615   1.87076    0.000
 5022.00    1.71706   1.89972    0.000
 5023.00    1.74400   1.90389    0.000
 5024.00    1.55477   1.90663    0.000
 5025.00    1.37791   1.90822    0.000
 5026.00    1.44896   1.90874    0.000
 5027.00    1.50158   1.90888    0.000
 5028.00    1.33873   1.90959    0.000
 5029.00    1.21035   1.91021    0.003
 5030.00    1.36020   1.91044    0.003
 5031.00    1.50866   1.91056    0.003
 5032.00    1.64863   1.91126    0.003
 5033.00    1.76417   1.91206    0.003
 5034.00    1.76289   1.91278    0.003
 5035.00    1.82344   1.91241    0.003
 5036.00    2.12480   1.91251    0.003
 5037.00    2.28642   1.91330    0.003
 5038.00    1.99482   1.91429    0.003
 5039.00    1.83914   1.91489    0.003
 5040.00    2.05658   1.91529    0.003
 5041.00    2.23107   1.91588    0.003
 5042.00    2.30456   1.91618    0.003
 5043.00    2.40462   1.91592    0.003
 5044.00    2.55872   1.91404    0.003
 5045.00    2.63718   1.91358    0.003
 5046.00    2.58179   1.91592    0.003
 5047.00    2.43153   1.91802    0.003
 5048.00    2.13441   1.91848    0.003
 5049.00    1.94362   1.91754    0.003
 5050.00    1.89738   1.90694    0.003
 5051.00    1.89125   1.88999    0.003
 5052.00    1.93314   1.89010    0.003
 5053.00    1.97057   1.90641    0.003
 5054.00    2.00329   1.92100    0.003
 5055.00    2.08877   1.92254    0.003
 5056.00    2.22337   1.92431    0.003
 5057.00    2.22404   1.92531    0.003
 5058.00    2.11480   1.92380    0.003
 5059.00    2.01404   1.91951    0.003
 5060.00    1.91941   1.91852    0.003
 5061.00    1.94935   1.92183    0.003
 5062.00    2.05827   1.92536    0.003
 5063.00    2.35802   1.92631    0.003
 5064.00    2.76356   1.92696    0.003
 5065.00    2.69999   1.92760    0.003
 5066.00    2.41026   1.92807    0.003
 5067.00    2.20825   1.92808    0.003
 5068.00    2.04276   1.92855    0.003
 5069.00    1.81063   1.92864    0.003
 5070.00    1.55477   1.92959    0.003
 5071.00    1.74105   1.93014    0.003
 5072.00    2.06032   1.93037    0.003
 5073.00    1.97560   1.93068    0.003
 5074.00    1.78997   1.93130    0.003
 5075.00    1.73124   1.93184    0.003
 5076.00    1.69823   1.93206    0.003
 5077.00    1.53707   1.93228    0.003
 5078.00    1.35555   1.93266    0.003
 5079.00    1.63230   1.93360    0.003
 5080.00    1.96325   1.93413    0.003
 5081.00    1.94537   1.93442    0.003
 5082.00    1.89944   1.93495    0.003
 5083.00    1.88456   1.93515    0.003
 5084.00    1.87107   1.93535    0.003
 5085.00    1.89160   1.93571    0.003
 5086.00    1.91057   1.93656    0.003
 5087.00    1.83099   1.93683    0.003
 5088.00    1.75927   1.93743    0.003
 5089.00    1.83364   1.93795    0.003
 5090.00    1.91647   1.93822    0.003
 5091.00    2.09358   1.93881    0.003
 5092.00    2.20959   1.93932    0.003
 5093.00    1.84961   1.93966    0.003
 5094.00    1.56112   1.94058    0.003
 5095.00    1.69381   1.94109    0.003
 5096.00    1.76158   1.94126    0.003
 5097.00    1.52641   1.94151    0.003
 5098.00    1.41193   1.94201    0.003
 5099.00    1.75743   1.94225    0.003
 5100.00    2.11438   1.94275    0.003
 5101.00    2.50778   1.94291    0.003
 5102.00    2.62932   1.94307    0.003
 5103.00    2.01791   1.94322    0.003
 5104.00    1.62140   1.94345    0.003
 5105.00    1.72179   1.94410    0.003
 5106.00    1.83820   1.94500    0.003
 5107.00    1.98668   1.94548    0.003
 5108.00    1.89495   1.94570    0.003
 5109.00    1.38468   1.94626    0.003
 5110.00    1.34312   1.94682    0.003
 5111.00    2.01649   1.94730    0.003
 5112.00    2.62666   1.94751    0.003
 5113.00    3.15216   1.94798    0.003
 5114.00    3.10065   1.94819    0.003
 5115.00    2.36828   1.94873    0.003
 5116.00    2.06351   1.94920    0.003
 5117.00    2.20365   1.94925    0.003
 5118.00    2.04318   1.94910    0.003
 5119.00    1.60681   1.94971    0.003
 5120.00    1.50031   1.95067    0.003
 5121.00    1.66068   1.95155    0.003
 5122.00    1.95115   1.95201    0.003
 5123.00    2.33423   1.95219    0.003
 5124.00    2.52822   1.95265    0.003
 5125.00    2.60410   1.95275    0.003
 5126.00    2.46132   1.95285    0.003
 5127.00    2.19917   1.95309    0.003
 5128.00    2.22910   1.95397    0.003
 5129.00    2.39761   1.95434    0.003
 5130.00    2.44556   1.95408    0.003
 5131.00    2.44418   1.95424    0.003
 5132.00    2.22007   1.95482    0.003
 5133.00    1.91809   1.95569    0.003
 5134.00    1.75468   1.95619    0.003
 5135.00    1.63213   1.95663    0.003
 5136.00    1.81601   1.95678    0.003
 5137.00    2.07475   1.95728    0.003
 5138.00    2.45653   1.95778    0.003
 5139.00    2.86262   1.95828    0.003
 5140.00    2.54068   1.95871    0.003
 5141.00    2.10648   1.95884    0.003
 5142.00    2.19063   1.95926    0.003
 5143.00    2.33381   1.95932    0.003
 5144.00    2.36962   1.95945    0.003
 5145.00    2.39724   1.95994    0.003
 5146.00    2.33355   1.96035    0.003
 5147.00    2.26611   1.96040    0.003
 5148.00    2.03912   1.96058    0.003
 5149.00    1.81820   1.96136    0.003
 5150.00    1.90804   1.96160    0.003
 5151.00    1.99726   1.96274    0.003
 5152.00    2.07595   1.96278    0.003
 5153.00    2.14955   1.96288    0.003
 5154.00    2.16897   1.96335    0.003
 5155.00    2.16653   1.96382    0.003
 5156.00    1.99952   1.96428    0.003
 5157.00    1.81046   1.96474    0.003
 5158.00    1.49514   1.96507    0.003
 5159.00    1.31517   1.96485    0.003
 5160.00    1.75180   1.96568    0.003
 5161.00    2.09543   1.96626    0.003
 5162.00    2.09205   1.96740    0.003
 5163.00    2.03142   1.96747    0.003
 5164.00    1.79217   1.96786    0.003
 5165.00    1.71390   1.96793    0.003
 5166.00    2.06195   1.96837    0.003
 5167.00    2.28911   1.96869    0.003
 5168.00    2.24136   1.96843    0.003
 5169.00    2.18886   1.96906    0.003
 5170.00    2.12700   1.96811    0.003
 5171.00    2.07082   1.96678    0.003
 5172.00    2.02441   1.96575    0.003
 5173.00    2.04134   1.96674    0.003
 5174.00    2.15347   1.96843    0.003
 5175.00    2.31624   1.96950    0.003
 5176.00    2.54590   1.96915    0.003
 5177.00    2.55568   1.96975    0.003
 5178.00    2.30967   1.97144    0.003
 5179.00    2.13622   1.97257    0.003
 5180.00    2.03721   1.97260    0.003
 5181.00    1.87364   1.97307    0.003
 5182.00    1.65164   1.97387    0.003
 5183.00    1.49422   1.97422    0.003
 5184.00    1.38830   1.97424    0.003
 5185.00    1.59128   1.97453    0.003
 5186.00    2.01097   1.97403    0.003
 5187.00    2.23504   1.97354    0.003
 5188.00    2.33873   1.97321    0.003
 5189.00    2.34217   1.97417    0.003
 5190.00    2.29173   1.97585    0.000
 5191.00    2.33624   1.97703    0.000
 5192.00    2.42506   1.97736    0.000
 5193.00    2.41267   1.97736    0.000
 5194.00    2.35957   1.97769    0.000
 5195.00    2.45994   1.97773    0.000
 5196.00    2.61298   1.97845    0.000
 5197.00    2.53546   1.97844    0.000
 5198.00    2.39131   1.97882    0.000
 5199.00    2.23859   1.97924    0.000
 5200.00    2.08381   1.98002    0.000
 5201.00    2.30186   1.98034    0.000
 5202.00    2.59167   1.98031    0.000
 5203.00    2.24809   1.98052    0.000
 5204.00    1.80981   1.97973    0.000
 5205.00    2.03343   1.98055    0.000
 5206.00    2.32954   1.98126    0.000
 5207.00    2.20338   1.98101    0.000
 5208.00    2.04672   1.97974    0.000
 5209.00    2.19724   1.98025    0.000
 5210.00    2.35922   1.98192    0.000
 5211.00    2.43628   1.98309    0.003
 5212.00    2.51397   1.98343    0.003
 5213.00    2.62958   1.98383    0.003
 5214.00    2.70774   1.98454    0.003
 5215.00    2.17893   1.98432    0.003
 5216.00    1.69324   1.98343    0.003
 5217.00    1.64637   1.98391    0.003
 5218.00    1.64981   1.98548    0.003
 5219.00    2.01933   1.98577    0.003
 5220.00    2.33406   1.98569    0.003
 5221.00    2.34360   1.98607    0.003
 5222.00    2.31694   1.98686    0.003
 5223.00    2.12928   1.98765    0.003
 5224.00    2.01085   1.98839    0.003
 5225.00    2.14535   1.98871    0.003
 5226.00    2.25148   1.98899    0.003
 5227.00    2.27075   1.98893    0.003
 5228.00    2.24781   1.98958    0.003
 5229.00    2.11503   1.98887    0.003
 5230.00    2.03966   1.98750    0.003
 5231.00    2.09266   1.98781    0.003
 5232.00    2.09478   1.98825    0.003
 5233.00    1.99827   1.98991    0.003
 5234.00    2.02580   1.99106    0.003
 5235.00    2.26300   1.99132    0.003
 5236.00    2.35640   1.99115    0.003
 5237.00    2.23681   1.99098    0.003
 5238.00    2.24182   1.99085    0.003
 5239.00    2.40907   1.99118    0.003
 5240.00    2.40558   1.99194    0.003
 5241.00    2.20626   1.99274    0.003
 5242.00    2.25800   1.99385    0.003
 5243.00    2.56366   1.99370    0.003
 5244.00    2.41358   1.99402    0.003
 5245.00    1.85692   1.99470    0.003
 5246.00    1.72306   1.99454    0.003
 5247.00    1.92158   1.99478    0.003
 5248.00    2.06919   1.99474    0.003
 5249.00    2.18159   1.99631    0.003
 5250.00    1.99751   1.99659    0.003
 5251.00    1.63368   1.99682    0.003
 5252.00    1.94542   1.99661    0.003
 5253.00    2.61467   1.99644    0.003
 5254.00    2.65518   1.99670    0.003
 5255.00    2.40697   1.99696    0.003
 5256.00    2.31544   1.99722    0.003
 5257.00    2.28586   1.99744    0.003
 5258.00    2.29179   1.99729    0.003
 5259.00    2.30967   1.99802    0.003
 5260.00    2.35149   1.99867    0.003
 5261.00    2.40007   1.99851    0.003
 5262.00    2.33581   1.99920    0.003
 5263.00    2.24519   1.99941    0.003
 5264.00    1.84906   1.99921    0.003
 5265.00    1.39564   1.99945    0.003
 5266.00    1.75697   1.99965    0.003
 5267.00    2.23633   1.99941    0.003
 5268.00    2.23498   1.99922    0.003
 5269.00    2.18306   1.99990    0.003
 5270.00    2.37272   2.00013    0.003
 5271.00    2.57883   2.00039    0.003
 5272.00    2.49357   2.00103    0.003
 5273.00    2.39854   2.00077    0.003
 5274.00    2.02027   2.00054    0.003
 5275.00    1.65629   2.00081    0.003
 5276.00    1.75988   2.00193    0.003
 5277.00    1.86170   2.00218    0.003
 5278.00    1.93649   2.00281    0.003
 5279.00    1.99827   2.00254    0.003
 5280.00    1.93315   2.00232    0.003
 5281.00    1.86382   2.00307    0.003
 5282.00    1.76488   2.00464    0.003
 5283.00    1.67813   2.00484    0.003
 5284.00    1.65742   2.00504    0.003
 5285.00    1.70888   2.00521    0.003
 5286.00    2.07399   2.00495    0.003
 5287.00    2.37386   2.00514    0.003
 5288.00    2.44034   2.00533    0.003
 5289.00    2.46706   2.00557    0.003
 5290.00    2.37437   2.00671    0.003
 5291.00    2.32393   2.00736    0.003
 5292.00    2.38151   2.00754    0.003
 5293.00    2.41129   2.00772    0.003
 5294.00    2.37989   2.00790    0.003
 5295.00    2.26311   2.00810    0.003
 5296.00    1.98339   2.00872    0.003
 5297.00    1.83263   2.00843    0.003
 5298.00    1.89659   2.00862    0.003
 5299.00    2.09668   2.00923    0.003
 5300.00    2.49544   2.00893    0.003
 5301.00    2.71162   2.00909    0.003
 5302.00    2.69346   2.00926    0.003
 5303.00    2.69159   2.00943    0.003
 5304.00    2.70815   2.01007    0.003
 5305.00    2.59920   2.01022    0.003
 5306.00    2.36509   2.01038    0.003
 5307.00    2.23344   2.01056    0.003
 5308.00    2.19192   2.01169    0.003
 5309.00    2.05651   2.01229    0.003
 5310.00    1.84832   2.01196    0.003
 5311.00    1.91286   2.01208    0.003
 5312.00    2.16321   2.01176    0.003
 5313.00    2.33075   2.01238    0.003
 5314.00    2.44883   2.01250    0.003
 5315.00    2.51335   2.01217    0.003
 5316.00    2.54996   2.01280    0.003
 5317.00    2.71694   2.01340    0.003
 5318.00    2.94281   2.01303    0.003
 5319.00    2.68457   2.01266    0.003
 5320.00    2.23824   2.01228    0.003
 5321.00    2.17897   2.01194    0.003
 5322.00    2.24764   2.01306    0.003
 5323.00    2.23620   2.01411    0.003
 5324.00    2.20254   2.01276    0.003
 5325.00    2.11281   2.01290    0.003
 5326.00    2.01029   2.01401    0.003
 5327.00    1.94708   2.01511    0.003
 5328.00    1.89104   2.01521    0.003
 5329.00    1.97123   2.01531    0.003
 5330.00    2.07051   2.01490    0.003
 5331.00    2.01879   2.01450    0.003
 5332.00    1.95183   2.01412    0.003
 5333.00    2.20115   2.01522    0.003
 5334.00    2.47076   2.01582    0.003
 5335.00    2.40686   2.01641    0.003
 5336.00    2.33319   2.01700    0.003
 5337.00    2.32845   2.01709    0.003
 5338.00    2.31992   2.01719    0.003
 5339.00    2.20297   2.01777    0.003
 5340.00    2.08786   2.01786    0.003
 5341.00    1.99905   2.01843    0.003
 5342.00    1.93903   2.01801    0.003
 5343.00    2.14844   2.01809    0.003
 5344.00    2.38273   2.01866    0.003
 5345.00    2.78672   2.01823    0.003
 5346.00    3.03826   2.01881    0.003
 5347.00    2.48493   2.01939    0.003
 5348.00    2.07623   2.01945    0.003
 5349.00    2.28168   2.01900    0.003
 5350.00    2.47676   2.01906    0.003
 5351.00    2.63554   2.01964    0.003
 5352.00    2.73442   2.02072    0.003
 5353.00    2.65673   2.02077    0.003
 5354.00    2.63346   2.02134    0.003
 5355.00    2.74691   2.02139    0.003
 5356.00    2.60975   2.02144    0.003
 5357.00    1.93024   2.02200    0.003
 5358.00    1.49918   2.02204    0.003
 5359.00    1.53484   2.02312    0.003
 5360.00    1.68539   2.02264    0.003
 5361.00    2.02440   2.02320    0.003
 5362.00    2.14130   2.02323    0.003
 5363.00    1.93876   2.02327    0.003
 5364.00    1.88091   2.02382    0.003
 5365.00    2.00610   2.02385    0.003
 5366.00    2.16662   2.02439    0.003
 5367.00    2.36651   2.02442    0.003
 5368.00    2.50169   2.02393   -2.000
 5369.00    2.57324   2.02394   -2.000
 5370.00    2.64364   2.02396   -2.000
 5371.00    2.71305   2.02398   -2.000
 5372.00    2.96906   2.02451   -2.000
 5373.00    3.36761   2.02453   -2.000
 5374.00    3.28695   2.02454   -2.000
 5375.00    2.88452   2.02403   -2.000
 5376.00    2.73452   2.02455   -2.000
 5377.00    2.73298   2.02507   -2.000
 5378.00    2.57736   2.02560   -2.000
 5379.00    2.34271   2.02561   -2.000
 5380.00    2.09010   2.02612   -2.000
 5381.00    1.82951   2.02612   -2.000
 5382.00    2.04894   2.02663   -2.000
 5383.00    2.45162   2.02664    0.003
 5384.00    2.45651   2.02611    0.003
 5385.00    2.33238   2.02660    0.003
 5386.00    2.41698   2.02660    0.003
 5387.00    2.55825   2.02710    0.003
 5388.00    2.31777   2.02709    0.003
 5389.00    1.99226   2.02707    0.003
 5390.00    2.22591   2.02756    0.003
 5391.00    2.55889   2.02755    0.003
 5392.00    2.45550   2.02752    0.003
 5393.00    2.29292   2.02749    0.003
 5394.00    2.02870   2.02746    0.003
 5395.00    1.75466   2.02794    0.003
 5396.00    1.93483   2.02740    0.003
 5397.00    2.14233   2.02735    0.003
 5398.00    2.29924   2.02730    0.003
 5399.00    2.45354   2.02674    0.003
 5400.00    2.39370   2.02668    0.003
 5401.00    2.32482   2.02612    0.003
 5402.00    2.02311   2.02605    0.003
 5403.00    1.75564   2.02548    0.003
 5404.00    1.95252   2.02489    0.003
 5405.00    2.10955   2.02326    0.003
 5406.00    1.90815   2.02159    0.003
 5407.00    1.77501   2.01991    0.003
 5408.00    2.09303   2.01668    0.003
 5409.00    2.34039   2.01080    0.003
 5410.00    2.22439   2.00222    0.003
 5411.00    2.10412   1.98939    0.003
 5412.00    1.96609   1.96448    0.003
 5413.00    1.85996   1.91788    0.003
 5414.00    1.86337   1.83713    0.003
 5415.00    1.86115   1.76633    0.003
 5416.00    1.84263   1.76874    0.003
 5417.00    1.89338   1.84161    0.003
 5418.00    2.11520   1.92020    0.003
 5419.00    2.32535   1.96646    0.003
 5420.00    2.51068   1.99112    0.003
 5421.00    2.57691   2.00554    0.003
 5422.00    2.42287   2.01436    0.003
 5423.00    2.34839   2.01984    0.003
 5424.00    2.40243   2.02310    0.003
 5425.00    2.31942   2.02574    0.003
 5426.00    2.04215   2.02784    0.003
 5427.00    1.87870   2.02888    0.003
 5428.00    1.85720   2.02986    0.003
 5429.00    1.84711   2.02981    0.003
 5430.00    1.84956   2.03073    0.003
 5431.00    1.84099   2.03171    0.003
 5432.00    1.82174   2.03166    0.003
 5433.00    1.86022   2.03154    0.003
 5434.00    1.94808   2.03246    0.003
 5435.00    1.99721   2.03292    0.003
 5436.00    2.01716   2.03334    0.003
 5437.00    2.14878   2.03325    0.003
 5438.00    2.35427   2.03313    0.003
 5439.00    2.40776   2.03403    0.003
 5440.00    2.37319   2.03449    0.003
 5441.00    2.44767   2.03542    0.003
 5442.00    2.57721   2.03587    0.003
 5443.00    2.53785   2.03629    0.003
 5444.00    2.42468   2.03619    0.003
 5445.00    2.24324   2.03657    0.003
 5446.00    2.03619   2.03698    0.003
 5447.00    1.98132   2.03636    0.003
 5448.00    1.97486   2.03669    0.003
 5449.00    1.89329   2.03658    0.003
 5450.00    1.79175   2.03592    0.003
 5451.00    1.49098   2.03676    0.003
 5452.00    1.14686   2.03720    0.003
 5453.00    1.66804   2.03760    0.003
 5454.00    2.33870   2.03800    0.003
 5455.00    2.10940   2.03788    0.003
 5456.00    1.76208   2.03669    0.003
 5457.00    2.04626   2.03541    0.003
 5458.00    2.38879   2.03516    0.003
 5459.00    2.14004   2.03602    0.003
 5460.00    1.85807   2.03748    0.003
 5461.00    2.37594   2.03847    0.003
 5462.00    2.90549   2.03890    0.003
 5463.00    2.78854   2.03928    0.003
 5464.00    2.66823   2.03915    0.003
 5465.00    2.46891   2.03897    0.003
 5466.00    2.29509   2.03879    0.003
 5467.00    2.44872   2.03912    0.003
 5468.00    2.58420   2.03898    0.003
 5469.00    2.56249   2.03879    0.003
 5470.00    2.52674   2.03860    0.003
 5471.00    2.40097   2.03892    0.003
 5472.00    2.29334   2.03929    0.003
 5473.00    2.27660   2.03965    0.003
 5474.00    2.23841   2.04002    0.003
 5475.00    2.11310   2.03987    0.003
 5476.00    2.06244   2.04018    0.003
 5477.00    2.26308   2.03951    0.003
 5478.00    2.39704   2.03977   -2.000
 5479.00    2.34164   2.04012   -2.000
 5480.00    2.32287   2.03996   -2.000
 5481.00    2.39299   2.04026   -2.000
 5482.00    2.46050   2.04010   -2.000
 5483.00    2.52250   2.04091   -2.000
 5484.00    3.09585   2.04131   -2.000
 5485.00    4.60039   2.04166   -2.000
 5486.00    5.89659   2.04098   -2.000
 5487.00    6.86112   2.04121   -2.000
 5488.00    7.22967   2.04155   -2.000
 5489.00    6.76566   2.04189   -2.000
 5490.00    5.56362   2.04223   -2.000
 5491.00    3.45426   2.04205   -2.000
 5492.00    1.79784   2.04182   -2.000
 5493.00    0.63225   2.04209   -2.000
 5494.00    0.43136   2.04243   -2.000
 5495.00    1.15262   2.04276   -2.000
 5496.00    1.66225   2.04257   -2.000
 5497.00    1.99353   2.04284   -2.000
 5498.00    2.18043   2.04265   -2.000
 5499.00    2.26018   2.04292   -2.000
 5500.00    2.17647   2.04272   -2.000
 5501.00    1.98620   2.04298   -2.000
 5502.00    2.00152   2.04330    0.003
 5503.00    2.13413   2.04362    0.003
 5504.00    2.35446   2.04394    0.003
 5505.00    2.61837   2.04374    0.003
 5506.00    2.64887   2.04347    0.003
 5507.00    2.57908   2.04372    0.003
 5508.00    2.57691   2.04403    0.003
 5509.00    2.59964   2.04382    0.003
 5510.00    2.30433   2.04355    0.003
 5511.00    1.90978   2.04327    0.003
 5512.00    1.94493   2.04454    0.003
 5513.00    2.09190   2.04497    0.003
 5514.00    2.19408   2.04476    0.003
 5515.00    2.28676   2.04447    0.003
 5516.00    2.31050   2.04419    0.003
 5517.00    2.32266   2.04441    0.003
 5518.00    2.32839   2.04419    0.003
 5519.00    2.33330   2.04493    0.003
 5520.00    2.30592   2.04529    0.003
 5521.00    2.27569   2.04558    0.003
 5522.00    2.22854   2.04484    0.003
 5523.00    2.18051   2.04498    0.003
 5524.00    2.15487   2.04526    0.003
 5525.00    2.13014   2.04554    0.003
 5526.00    2.14177   2.04582    0.003
 5527.00    2.15299   2.04559    0.003
 5528.00    2.15541   2.04528    0.003
 5529.00    2.16081   2.04548    0.003
 5530.00    2.20256   2.04524    0.003
 5531.00    2.24547   2.04492    0.003
 5532.00    2.29805   2.04461    0.003
 5533.00    2.32795   2.04480    0.003
 5534.00    2.21665   2.04609    0.003
 5535.00    2.13704   2.04651    0.003
 5536.00    2.21233   2.04626    0.003
 5537.00    2.22880   2.04644    0.003
 5538.00    2.01178   2.04619    0.003
 5539.00    1.91111   2.04637    0.003
 5540.00    2.19434   2.04663    0.003
 5541.00    2.40246   2.04637    0.003
 5542.00    2.40107   2.04654    0.003
 5543.00    2.38029   2.04731    0.003
 5544.00    2.31324   2.04713    0.003
 5545.00    2.33184   2.04678    0.003
 5546.00    2.52701   2.04695    0.003
 5547.00    2.57054   2.04719    0.003
 5548.00    2.34213   2.04744    0.003
 5549.00    2.21052   2.04768    0.003
 5550.00    2.23071   2.04741    0.003
 5551.00    2.30252   2.04756    0.003
 5552.00    2.44539   2.04780    0.003
 5553.00    2.43513   2.04804    0.003
 5554.00    2.23926   2.04776    0.003
 5555.00    2.19522   2.04791    0.003
 5556.00    2.31340   2.04814    0.003
 5557.00    2.22993   2.04837    0.003
 5558.00    1.95640   2.04758    0.003
 5559.00    1.85962   2.04762    0.003
 5560.00    1.90968   2.04836    0.003
 5561.00    2.17986   2.04867    0.003
 5562.00    2.61104   2.04889    0.003
 5563.00    2.54594   2.04860    0.003
 5564.00    2.16207   2.04873    0.003
 5565.00    2.05955   2.04844    0.003
 5566.00    2.11512   2.04856    0.003
 5567.00    2.20982   2.04826    0.003
 5568.00    2.32365   2.04787    0.003
 5569.00    2.23755   2.04799    0.003
 5570.00    2.06698   2.04820    0.003
 5571.00    1.92894   2.04891    0.003
 5572.00    1.80267   2.04921    0.003
 5573.00    2.19236   2.04840    0.003
 5574.00    2.73993   2.04841    0.003
 5575.00    2.79482   2.04861    0.003
 5576.00    2.72427   2.04881    0.003
 5577.00    2.38849   2.04850    0.003
 5578.00    1.99779   2.04910    0.003
 5579.00    1.98794   2.04940    0.003
 5580.00    2.04021   2.04959    0.003
 5581.00    2.13821   2.04927    0.003
 5582.00    2.24178   2.04936    0.003
 5583.00    2.18621   2.04904    0.003
 5584.00    2.11726   2.04963    0.003
 5585.00    2.07013   2.04941    0.003
 5586.00    2.02405   2.04949    0.003
 5587.00    2.24045   2.04967    0.003
 5588.00    2.45336   2.05036    0.003
 5589.00    2.22540   2.05014    0.003
 5590.00    2.00630   2.04970    0.003
 5591.00    1.96305   2.04876    0.003
 5592.00    1.92761   2.04872    0.003
 5593.00    1.98274   2.04939    0.003
 5594.00    2.03618   2.04967    0.003
 5595.00    2.07596   2.04478    0.003
 5596.00    2.14457   2.03931    0.003
 5597.00    2.38734   2.03899    0.003
 5598.00    2.53612   2.04532    0.003
 5599.00    2.23680   2.04984    0.003
 5600.00    2.00262   2.05015    0.003
 5601.00    2.02148   2.05020    0.003
 5602.00    2.03196   2.05036    0.003
 5603.00    2.01535   2.05052    0.003
 5604.00    1.95571   2.05017    0.003
 5605.00    1.77822   2.05021    0.003
 5606.00    1.67344   2.05036    0.003
 5607.00    1.73928   2.05051    0.003
 5608.00    1.83604   2.05065    0.003
 5609.00    1.99553   2.05030    0.003
 5610.00    2.12352   2.04982    0.003
 5611.00    2.19588   2.04985    0.003
 5612.00    2.27169   2.05049    0.003
 5613.00    2.35281   2.05075    0.002
 5614.00    2.34055   2.05089    0.002
 5615.00    2.20157   2.05102    0.003
 5616.00    2.13098   2.05116    0.003
 5617.00    2.14210   2.05079    0.003
 5618.00    2.12754   2.05080    0.003
 5619.00    2.08593   2.05043    0.003
 5620.00    2.14127   2.05044    0.003
 5621.00    2.28670   2.05057    0.003
 5622.00    2.29627   2.05119    0.003
 5623.00    2.19455   2.05144    0.003
 5624.00    2.06873   2.05157    0.003
 5625.00    1.92554   2.05169    0.003
 5626.00    2.10066   2.05131    0.003
 5627.00    2.47721   2.05130    0.003
 5628.00    2.51213   2.05142    0.003
 5629.00    2.35802   2.05153    0.003
 5630.00    2.40715   2.05164    0.003
 5631.00    2.55407   2.05126    0.003
 5632.00    2.64136   2.05124    0.003
 5633.00    2.70389   2.05135    0.003
 5634.00    2.56413   2.05145    0.003
 5635.00    2.35252   2.05156    0.003
 5636.00    2.19148   2.05166    0.003
 5637.00    2.04561   2.05177    0.003
 5638.00    1.96803   2.05187    0.003
 5639.00    1.90748   2.05197    0.003
 5640.00    1.88468   2.05157    0.003
 5641.00    1.86951   2.05153    0.003
 5642.00    1.91785   2.05162    0.003
 5643.00    1.97623   2.05022    0.003
 5644.00    1.97108   2.04940    0.002
 5645.00    1.95845   2.04986    0.002
 5646.00    1.96849   2.05108    0.002
 5647.00    1.98034   2.05194    0.002
 5648.00    2.23525   2.05166    0.002
 5649.00    2.50099   2.05111    0.002
 5650.00    2.43061   2.05055    0.002
 5651.00    2.35323   2.05100    0.002
 5652.00    2.12138   2.05121    0.002
 5653.00    1.90181   2.05129    0.002
 5654.00    1.90857   2.05137    0.002
 5655.00    1.92661   2.05194    0.002
 5656.00    2.06951   2.05215    0.002
 5657.00    2.17795   2.05223    0.002
 5658.00    2.01912   2.05279    0.002
 5659.00    1.89140   2.05251    0.002
 5660.00    1.94632   2.05194    0.002
 5661.00    1.96322   2.05186    0.002
 5662.00    1.80322   2.05142    0.002
 5663.00    1.71647   2.05084    0.002
 5664.00    1.90814   2.05076    0.003
 5665.00    2.03033   2.05131    0.003
 5666.00    1.93203   2.05152    0.003
 5667.00    1.91261   2.05108    0.003
 5668.00    2.10541   2.05098    0.003
 5669.00    2.19343   2.05103    0.003
 5670.00    2.03966   2.05108    0.003
 5671.00    1.89951   2.05064    0.003
 5672.00    1.78656   2.05054    0.003
 5673.00    1.85150   2.05108    0.003
 5674.00    2.22581   2.05177    0.003
 5675.00    2.44926   2.05197    0.003
 5676.00    2.44304   2.05201    0.003
 5677.00    2.35826   2.05205    0.003
 5678.00    2.16839   2.05159    0.003
 5679.00    2.08303   2.05148    0.003
 5680.00    2.12078   2.05102    0.003
 5681.00    2.26236   2.05139    0.003
 5682.00    2.51178   2.05109    0.003
 5683.00    2.47803   2.05047    0.003
 5684.00    2.18485   2.04985    0.002
 5685.00    2.12825   2.05070    0.002
 5686.00    2.26268   2.05203    0.002
 5687.00    2.22577   2.05238    0.002
 5688.00    2.06710   2.05191    0.002
 5689.00    1.99008   2.05128    0.002
 5690.00    1.96397   2.05114    0.002
 5691.00    2.00816   2.05116    0.002
 5692.00    2.09065   2.05167    0.002
 5693.00    2.21423   2.05184    0.002
 5694.00    2.35727   2.05186    0.002
 5695.00    2.34181   2.05187    0.002
 5696.00    2.26163   2.05188    0.002
 5697.00    2.33305   2.05239    0.002
 5698.00    2.45734   2.05207    0.002
 5699.00    2.38397   2.04995    0.002
 5700.00    2.25248   2.04781    0.002
 5701.00    2.20161   2.04780    0.003
 5702.00    2.17037   2.05042    0.003
 5703.00    2.28637   2.05176    0.003
 5704.00    2.43136   2.05144    0.003
 5705.00    2.40455   2.05175    0.003
 5706.00    2.35135   2.05192    0.003
 5707.00    2.31228   2.05143    0.003
 5708.00    2.27481   2.05125    0.003
 5709.00    2.18886   2.05124    0.003
 5710.00    2.09923   2.05172    0.003
 5711.00    2.17556   2.05188    0.003
 5712.00    2.25863   2.05138    0.003
 5713.00    2.23416   2.05119    0.003
 5714.00    2.20118   2.05118    0.003
 5715.00    1.85120   2.05116    0.002
 5716.00    1.52802   2.05066    0.002
 5717.00    1.66501   2.05094    0.002
 5718.00    1.78994   2.05159    0.002
 5719.00    1.78726   2.05175    0.002
 5720.00    1.78997   2.05221    0.002
 5721.00    1.83313   2.05188    0.002
 5722.00    1.88935   2.05167    0.002
 5723.00    2.02010   2.05213    0.002
 5724.00    2.14251   2.05179    0.002
 5725.00    2.22706   2.05158    0.002
 5726.00    2.29299   2.05057    0.002
 5727.00    2.28964   2.05066    0.002
 5728.00    2.26666   2.05080    0.002
 5729.00    2.18256   2.05125    0.002
 5730.00    2.08927   2.05091    0.002
 5731.00    1.97168   2.05117    0.002
 5732.00    1.87435   2.05131    0.002
 5733.00    1.82299   2.05127    0.002
 5734.00    1.82055   2.05171    0.002
 5735.00    1.91423   2.05137    0.002
 5736.00    1.88905   2.05113    0.002
 5737.00    1.66026   2.05108    0.002
 5738.00    1.47994   2.05103    0.002
 5739.00    1.37236   2.05098    0.002
 5740.00    1.42965   2.05141    0.000
 5741.00    1.70431   2.05154    0.000
 5742.00    1.85095   2.05052    0.000
 5743.00    1.84892   2.04863    0.000
 5744.00    1.90171   2.04702    0.000
 5745.00    2.01063   2.04801    0.000
 5746.00    2.14114   2.04998    0.000
 5747.00    2.29116   2.05098    0.000
 5748.00    2.44689   2.05063    0.000
 5749.00    2.60717   2.05085    0.000
 5750.00    2.61414   2.05098    0.000
 5751.00    2.51373   2.05091    0.000
 5752.00    2.59401   2.05036    0.000
 5753.00    2.78526   2.05056    0.000
 5754.00    2.78060   2.05069    0.000
 5755.00    2.67083   2.05109    0.000
 5756.00    2.56319   2.05026    0.000
 5757.00    2.45654   2.04977    0.000
 5758.00    2.40344   2.04969    0.000
 5759.00    2.37183   2.04961    0.000
 5760.00    2.42958   2.05001    0.000
 5761.00    2.51791   2.05013    0.000
 5762.00    2.46785   2.05052    0.000
 5763.00    2.37790   2.05064    0.000
 5764.00    2.10334   2.05102    0.000
 5765.00    1.78480   2.05114    0.000
 5766.00    1.90160   2.05057    0.000
 5767.00    2.10192   2.05027    0.000
 5768.00    2.39437   2.05017    0.000
 5769.00    2.70054   2.05008    0.000
 5770.00    2.61900   2.05046    0.000
 5771.00    2.49520   2.05009    0.000
 5772.00    2.22538   2.05026    0.000
 5773.00    1.94510   2.05037    0.000
 5774.00    1.91076   2.05026    0.000
 5775.00    1.88548   2.04968    0.000
 5776.00    1.88283   2.04936    0.000
 5777.00    1.88371   2.05020    0.000
 5778.00    2.00730   2.05005    0.000
 5779.00    2.12704   2.04925    0.000
 5780.00    2.18499   2.04892    0.000
 5781.00    2.23661   2.04928    0.000
 5782.00    2.22419   2.04938    0.000
 5783.00    2.20345   2.04926    0.000
 5784.00    2.12244   2.04914    0.000
 5785.00    2.05444   2.04902    0.000
 5786.00    2.05870   2.04890    0.000
 5787.00    2.09212   2.04925    0.000
 5788.00    2.25487   2.04888    0.000
 5789.00    2.38840   2.04853    0.000
 5790.00    2.41549   2.04840    0.000
 5791.00    2.46799   2.04874   -2.000
 5792.00    2.59807   2.04884   -2.000
 5793.00    2.75470   2.04918   -2.000
 5794.00    2.98025   2.04927   -2.000
 5795.00    3.07678   2.04866   -2.000
 5796.00    2.88534   2.04877   -2.000
 5797.00    2.61907   2.04886   -2.000
 5798.00    2.20806   2.04872   -2.000
 5799.00    1.95230   2.04858   -2.000
 5800.00    1.95846   2.04891   -2.000
 5801.00    2.02446   2.04900   -2.000
 5802.00    2.17893   2.04839   -2.000
 5803.00    2.24199   2.04801   -2.000
 5804.00    2.18623   2.04739   -2.000
 5805.00    2.11717   2.04701   -2.000
 5806.00    2.03287   2.04686   -2.000
 5807.00    2.04126   2.04764   -2.000
 5808.00    2.14323   2.04843   -2.000
 5809.00    2.22732   2.04851   -2.000
 5810.00    2.29550   2.04835   -2.000
 5811.00    2.43809   2.04820    0.000
 5812.00    2.63909   2.04804    0.000
 5813.00    2.70197   2.04788    0.000
 5814.00    2.66952   2.04772    0.000
 5815.00    2.52583   2.04662    0.000
 5816.00    2.31483   2.04550    0.000
 5817.00    2.27106   2.04603    0.000
 5818.00    2.31560   2.04774    0.000
 5819.00    2.37824   2.04784    0.000
 5820.00    2.44916   2.04789    0.000
 5821.00    2.39648   2.04796    0.000
 5822.00    2.29503   2.04779    0.000
 5823.00    2.29402   2.04761    0.000
 5824.00    2.32676   2.04790    0.000
 5825.00    2.36488   2.04751    0.000
 5826.00    2.40452   2.04755    0.000
 5827.00    2.31245   2.04808    0.000
 5828.00    2.18971   2.04815    0.000
 5829.00    2.06605   2.04982    0.000
 5830.00    1.94222   2.05203    0.000
 5831.00    2.01320   2.05260    0.000
 5832.00    2.11228   2.05056    0.000
 5833.00    2.05134   2.04798    0.000
 5834.00    1.97365   2.04749    0.000
 5835.00    2.10473   2.04755    0.000
 5836.00    2.24993   2.04736    0.000
 5837.00    2.19417   2.04717    0.000
 5838.00    2.13176   2.04697    0.000
 5839.00    2.00316   2.04724    0.000
 5840.00    1.88078   2.04776    0.000
 5841.00    1.95586   2.04782    0.000
 5842.00    2.02419   2.04761    0.000
 5843.00    1.99051   2.04741    0.000
 5844.00    1.95919   2.04767    0.000
 5845.00    1.95072   2.04772    0.000
 5846.00    1.94559   2.04752    0.000
 5847.00    1.96394   2.04685    0.000
 5848.00    1.98553   2.04684    0.000
 5849.00    2.02458   2.04689    0.000
 5850.00    2.10366   2.04668    0.000
 5851.00    2.35613   2.04647    0.000
 5852.00    2.53438   2.04671    0.000
 5853.00    2.44771   2.04676    0.000
 5854.00    2.37356   2.04654    0.000
 5855.00    2.33694   2.04632    0.000
 5856.00    2.27352   2.04565    0.000
 5857.00    2.14172   2.04515    0.000
 5858.00    2.02132   2.04493    0.000
 5859.00    1.92594   2.04516    0.000
 5860.00    1.88284   2.04566    0.000
 5861.00    1.93931   2.04570    0.000
 5862.00    1.93260   2.04548    0.000
 5863.00    1.82088   2.04570    0.000
 5864.00    1.74349   2.04574    0.000
 5865.00    1.71610   2.04505    0.000
 5866.00    1.73602   2.04500    0.000
 5867.00    1.81654   2.04504    0.000
 5868.00    1.87370   2.04480    0.000
 5869.00    1.90447   2.04456    0.000
 5870.00    2.00262   2.04432    0.000
 5871.00    2.16786   2.04363    0.000
 5872.00    2.31771   2.04310    0.000
 5873.00    2.45406   2.04286    0.000
 5874.00    2.50743   2.04216    0.000
 5875.00    2.49661   2.04118    0.000
 5876.00    2.42486   2.03704    0.000
 5877.00    2.31168   2.03136    0.000
 5878.00    2.46692   1.96167    0.000
 5879.00    2.78214   1.82941    0.000
 5880.00    3.06659   1.75760    0.000
 5881.00    3.33506   1.81146    0.000
 5882.00    3.40349   1.94574    0.000
 5883.00    3.38175   2.02271    0.000
 5884.00    3.15440   2.03656    0.000
 5885.00    2.84736   2.03922    0.000
 5886.00    2.44129   2.04043    0.000
 5887.00    2.00256   2.04119    0.000
 5888.00    1.91706   2.04166    0.000
 5889.00    1.92925   2.04214    0.000
 5890.00    1.93604   2.04261    0.000
 5891.00    1.94161   2.04263    0.000
 5892.00    1.94952   2.04191    0.000
 5893.00    1.95786   2.03956    0.000
 5894.00    1.80817   2.03677    0.000
 5895.00    1.63640   2.03649    0.000
 5896.00    1.48661   2.03903    0.000
 5897.00    1.33902   2.04113    0.000
 5898.00    1.53493   2.04189    0.000
 5899.00    1.75270   2.04058    0.000
 5900.00    1.77941   2.03851    0.000
 5901.00    1.80050   2.03850    0.002
 5902.00    1.81549   2.04015    0.002
 5903.00    1.82935   2.04166    0.002
 5904.00    1.81154   2.04198    0.002
 5905.00    1.78585   2.04213    0.002
 5906.00    1.64778   2.04215    0.002
 5907.00    1.51366   2.04230    0.002
 5908.00    1.41627   2.04231    0.002
 5909.00    1.34706   2.04246    0.002
 5910.00    1.46925   2.04247    0.002
 5911.00    1.58641   2.04262    0.002
 5912.00    1.67708   2.04263    0.002
 5913.00    1.76458   2.04233    0.002
 5914.00    1.83871   2.04203    0.002
 5915.00    1.90707   2.04173    0.002
 5916.00    1.95530   2.04186    0.002
 5917.00    1.97339   2.04187    0.002
 5918.00    1.90283   2.04157    0.002
 5919.00    1.84459   2.04170    0.002
 5920.00    1.81721   2.04214    0.002
 5921.00    1.81927   2.04215    0.002
 5922.00    1.88489   2.04140    0.002
 5923.00    1.91338   2.04077    0.002
 5924.00    1.87229   2.04090    0.002
 5925.00    1.86869   2.04090    0.002
 5926.00    1.92646   2.04102    0.002
 5927.00    2.03239   2.04146    0.002
 5928.00    2.20744   2.04146    0.002
 5929.00    2.27739   2.04157    0.002
 5930.00    2.21461   2.04157    0.002
 5931.00    2.16396   2.04125    0.002
 5932.00    2.12680   2.04049    0.002
 5933.00    1.99293   2.04028    0.002
 5934.00    1.76414   2.04027    0.002
 5935.00    1.71702   2.04038    0.002
 5936.00    1.82714   2.04038    0.002
 5937.00    1.96173   2.04048    0.002
 5938.00    2.11496   2.04048    0.002
 5939.00    2.08168   2.04014    0.002
 5940.00    1.92340   2.04024    0.002
 5941.00    1.74255   2.04023    0.002
 5942.00    1.54845   2.04033    0.002
 5943.00    1.48109   2.04032    0.002
 5944.00    1.47858   2.03998    0.002
 5945.00    1.52428   2.03964    0.002
 5946.00    1.59134   2.03972    0.002
 5947.00    1.72409   2.03971    0.002
 5948.00    1.88186   2.03937    0.002
 5949.00    1.93312   2.03945    0.002
 5950.00    1.94991   2.03901    0.002
 5951.00    1.80762   2.03875    0.002
 5952.00    1.62226   2.03917    0.002
 5953.00    1.53196   2.03916    0.002
 5954.00    1.46278   2.03880    0.002
 5955.00    1.47563   2.03845    0.002
 5956.00    1.50299   2.03809    0.002
 5957.00    1.46974   2.03773    0.002
 5958.00    1.42831   2.03780    0.002
 5959.00    1.49483   2.03778    0.002
 5960.00    1.57172   2.03742    0.002
 5961.00    1.61107   2.03706    0.002
 5962.00    1.64818   2.03711    0.002
 5963.00    1.73404   2.03752    0.002
 5964.00    1.82107   2.03835    0.002
 5965.00    1.89811   2.03868    0.002
 5966.00    1.97423   2.03831    0.002
 5967.00    2.02711   2.03836    0.002
 5968.00    2.06421   2.03834    0.002
 5969.00    1.88886   2.03839    0.002
 5970.00    1.72089   2.03837    0.002
 5971.00    1.61910   2.03842    0.002
 5972.00    1.54279   2.03840    0.002
 5973.00    1.63420   2.03802    0.002
 5974.00    1.72839   2.03806    0.002
 5975.00    1.83685   2.03804    0.002
 5976.00    1.94450   2.03765    0.002
 5977.00    2.04883   2.03727    0.002
 5978.00    2.14618   2.03688    0.002
 5979.00    2.21966   2.03650    0.002
 5980.00    2.26726   2.03653    0.002
 5981.00    2.24014   2.03608    0.002
 5982.00    2.14969   2.03491    0.002
 5983.00    1.90316   2.03373    0.002
 5984.00    1.74854   2.03381    0.002
 5985.00    1.78920   2.03539    0.002
 5986.00    1.83595   2.03651    0.002
 5987.00    1.89391   2.03648    0.002
 5988.00    1.93378   2.03650    0.002
 5989.00    1.94447   2.03647    0.002
 5990.00    1.95074   2.03648    0.002
 5991.00    1.95075   2.03687    0.002
 5992.00    1.99889   2.03683    0.002
 5993.00    2.10695   2.03643    0.002
 5994.00    2.17751   2.03602    0.002
 5995.00    2.20692   2.03603    0.002
 5996.00    2.30438   2.03641    0.002
 5997.00    2.46769   2.03637    0.002
 5998.00    2.45875   2.03637    0.002
 5999.00    2.30281   2.03634    0.002
 6000.00    2.10122   2.03593    0.002
 6001.00    1.86532   2.03551    0.002
 6002.00    1.79061   2.03551    0.002
 6003.00    1.82235   2.03547    0.002
 6004.00    1.91177   2.03505    0.002
 6005.00    2.03454   2.03463    0.002
 6006.00    2.11010   2.03421    0.002
 6007.00    2.16187   2.03419    0.002
 6008.00    2.10673   2.03456    0.002
 6009.00    2.00497   2.03452    0.002
 6010.00    1.85512   2.03409    0.002
 6011.00    1.68727   2.03366    0.002
 6012.00    1.54927   2.03364    0.002
 6013.00    1.42075   2.03360    0.002
 6014.00    1.48757   2.03357    0.002
 6015.00    1.60619   2.03394    0.002
 6016.00    1.77365   2.03430    0.002
 6017.00    1.95171   2.03466    0.002
 6018.00    2.05537   2.03461    0.002
 6019.00    2.14622   2.03458    0.002
 6020.00    2.27533   2.03453    0.002
 6021.00    2.40942   2.03450    0.002
 6022.00    2.23650   2.03445    0.002
 6023.00    2.03538   2.03441    0.002
 6024.00    1.86132   2.03436    0.002
 6025.00    1.68878   2.03432    0.002
 6026.00    1.64741   2.03427    0.002
 6027.00    1.61024   2.03423    0.002
 6028.00    1.70490   2.03418    0.002
 6029.00    1.80000   2.03373    0.002
 6030.00    1.90507   2.03368    0.002
 6031.00    2.01021   2.03363    0.002
 6032.00    2.11627   2.03317    0.002
 6033.00    2.21706   2.03271    0.002
 6034.00    2.27249   2.03266    0.002
 6035.00    2.31520   2.03260    0.002
 6036.00    2.27665   2.03175    0.002
 6037.00    2.22675   2.03127    0.002
 6038.00    2.12014   2.03122    0.002
 6039.00    2.03223   2.03076    0.002
 6040.00    2.01998   2.03069    0.002
 6041.00    2.00938   2.03063    0.002
 6042.00    2.00434   2.03016    0.002
 6043.00    1.99594   2.03009    0.002
 6044.00    1.97805   2.03082    0.002
 6045.00    1.93931   2.03157    0.002
 6046.00    1.85006   2.03191    0.002
 6047.00    1.79731   2.03185    0.002
 6048.00    1.82084   2.03138    0.002
 6049.00    1.83995   2.03129    0.002
 6050.00    1.85101   2.03123    0.002
 6051.00    1.90566   2.03115    0.002
 6052.00    2.02958   2.03148    0.002
 6053.00    2.06402   2.03181    0.002
 6054.00    1.97369   2.03175    0.002
 6055.00    1.85948   2.03127    0.002
 6056.00    1.71597   2.03117    0.002
 6057.00    1.67995   2.03150    0.002
 6058.00    1.76020   2.03183    0.002
 6059.00    1.85900   2.03138    0.002
 6060.00    1.97548   2.03085    0.002
 6061.00    1.97894   2.03117    0.002
 6062.00    1.88729   2.03150    0.002
 6063.00    1.84782   2.03144    0.002
 6064.00    1.84700   2.03094    0.002
 6065.00    1.91889   2.03045    0.002
 6066.00    2.03809   2.03033    0.002
 6067.00    2.13786   2.03027    0.002
 6068.00    2.22656   2.02977    0.002
 6069.00    2.20904   2.02965    0.002
 6070.00    2.13886   2.02959    0.002
 6071.00    2.13974   2.02947    0.002
 6072.00    2.17110   2.02901    0.002
 6073.00    2.18727   2.02807    0.002
 6074.00    2.19785   2.02756    0.002
 6075.00    2.11379   2.02705    0.002
 6076.00    2.00027   2.02692    0.002
 6077.00    1.89147   2.02647    0.002
 6078.00    1.78389   2.02589    0.002
 6079.00    1.72618   2.02620    0.002
 6080.00    1.67902   2.02651    0.002
 6081.00    1.71732   2.02682    0.002
 6082.00    1.76993   2.02713    0.002
 6083.00    1.76229   2.02705    0.002
 6084.00    1.74706   2.02691    0.002
 6085.00    1.78686   2.02722    0.002
 6086.00    1.83148   2.02752    0.002
 6087.00    1.75923   2.02745    0.002
 6088.00    1.68093   2.02768    0.002
 6089.00    1.75465   2.02843    0.002
 6090.00    1.83184   2.02836    0.002
 6091.00    1.95996   2.02783    0.002
 6092.00    2.08344   2.02768    0.002
 6093.00    2.10800   2.02798    0.002
 6094.00    2.12695   2.02790    0.002
 6095.00    2.07786   2.02774    0.002
 6096.00    2.02032   2.02766    0.002
 6097.00    1.89262   2.02750    0.002
 6098.00    1.76233   2.02780    0.002
 6099.00    1.61597   2.02772    0.002
 6100.00    1.49740   2.02718    0.002
 6101.00    1.51421   2.02701    0.002
 6102.00    1.54901   2.02731    0.002
 6103.00    1.65507   2.02760    0.002
 6104.00    1.73647   2.02752    0.002
 6105.00    1.73672   2.02697    0.002
 6106.00    1.69482   2.02642    0.002
 6107.00    1.53561   2.02625    0.002
 6108.00    1.43897   2.02616    0.002
 6109.00    1.49133   2.02635    0.002
 6110.00    1.55669   2.02674    0.002
 6111.00    1.64878   2.02619    0.002
 6112.00    1.78390   2.02563    0.002
 6113.00    1.99601   2.02508    0.002
 6114.00    2.12730   2.02452    0.002
 6115.00    2.13205   2.02433    0.002
 6116.00    2.06458   2.02387    0.002
 6117.00    1.89785   2.02320    0.002
 6118.00    1.79192   2.02312    0.002
 6119.00    1.75956   2.02292    0.002
 6120.00    1.84325   2.02246    0.002
 6121.00    2.05071   2.02142    0.002
 6122.00    2.15204   2.02085    0.002
 6123.00    2.15352   2.02100    0.002
 6124.00    2.07701   2.02176    0.002
 6125.00    1.93582   2.02203    0.002
 6126.00    1.89931   2.02158    0.002
 6127.00    1.93923   2.02125    0.002
 6128.00    1.99560   2.02236    0.002
 6129.00    2.06251   2.02276    0.002
 6130.00    2.07305   2.02254    0.002
 6131.00    2.05198   2.02281    0.002
 6132.00    2.10105   2.02308    0.002
 6133.00    2.18434   2.02371    0.002
 6134.00    2.24905   2.02447    0.002
 6135.00    2.30593   2.02438    0.002
 6136.00    2.32412   2.02451    0.002
 6137.00    2.32835   2.02492    0.002
 6138.00    2.20027   2.02433    0.002
 6139.00    2.03180   2.02374    0.002
 6140.00    1.85723   2.02315    0.002
 6141.00    1.68111   2.02256    0.002
 6142.00    1.75165   2.02268    0.002
 6143.00    1.87312   2.02344    0.002
 6144.00    2.00181   2.02370    0.002
 6145.00    2.13168   2.02361    0.002
 6146.00    2.07363   2.02302    0.002
 6147.00    1.99273   2.02277    0.002
 6148.00    1.99013   2.02303    0.002
 6149.00    1.99408   2.02329    0.002
 6150.00    2.09029   2.02354    0.002
 6151.00    2.19092   2.02345    0.002
 6152.00    2.25733   2.02320    0.002
 6153.00    2.32353   2.02275    0.002
 6154.00    2.40616   2.02163    0.002
 6155.00    2.48753   2.02138    0.002
 6156.00    2.54414   2.02163    0.002
 6157.00    2.57076   2.02153    0.002
 6158.00    2.25131   2.02127    0.002
 6159.00    1.95444   2.02117    0.002
 6160.00    1.83825   2.02090    0.002
 6161.00    1.73638   2.02080    0.002
 6162.00    1.72064   2.02053    0.002
 6163.00    1.69106   2.02078    0.002
 6164.00    1.59569   2.02068    0.002
 6165.00    1.53111   2.02006    0.002
 6166.00    1.58580   2.01909    0.002
 6167.00    1.65483   2.01829    0.002
 6168.00    1.77017   2.01819    0.002
 6169.00    1.88450   2.01757    0.002
 6170.00    1.99610   2.01694    0.002
 6171.00    2.06330   2.01597    0.002
 6172.00    2.02658   2.01481    0.002
 6173.00    1.96065   2.01384    0.002
 6174.00    1.83560   2.01267    0.002
 6175.00    1.79124   2.01272    0.002
 6176.00    1.88911   2.01382    0.002
 6177.00    1.98814   2.01459    0.002
 6178.00    2.08896   2.01482    0.002
 6179.00    2.10771   2.01539    0.002
 6180.00    2.01529   2.01616    0.002
 6181.00    1.95446   2.01605    0.002
 6182.00    1.93129   2.01608    0.002
 6183.00    1.95161   2.01719    0.002
 6184.00    2.01766   2.01762    0.002
 6185.00    2.02912   2.01731    0.002
 6186.00    1.98995   2.01754    0.002
 6187.00    1.99574   2.01777    0.002
 6188.00    2.03830   2.01800    0.002
 6189.00    2.00739   2.01822    0.002
 6190.00    1.92360   2.01812    0.002
 6191.00    1.82025   2.01813    0.002
 6192.00    1.70454   2.01824    0.002
 6193.00    1.84773   2.01770    0.002
 6194.00    2.13390   2.01814    0.002
 6195.00    3.01302   2.01782    0.002
 6196.00    4.17688   2.01771   -2.000
 6197.00    5.26795   2.01771   -2.000
 6198.00    6.32886   2.01848   -2.000
 6199.00    6.21355   2.01838   -2.000
 6200.00    5.68134   2.01771   -2.000
 6201.00    4.09390   2.01738   -2.000
 6202.00    2.19067   2.01727   -2.000
 6203.00    1.23070   2.01693   -2.000
 6204.00    0.50503   2.01682   -2.000
 6205.00    0.67932   2.01648   -2.000
 6206.00    1.03481   2.01702   -2.000
 6207.00    1.37792   2.01779   -2.000
 6208.00    1.71908   2.01769    0.002
 6209.00    1.66257   2.01701    0.002
 6210.00    1.55947   2.01666    0.002
 6211.00    1.62500   2.01655    0.002
 6212.00    1.70391   2.01620    0.002
 6213.00    1.77093   2.01609    0.002
 6214.00    1.83742   2.01605    0.002
 6215.00    1.68107   2.01683    0.002
 6216.00    1.52617   2.01672    0.002
 6217.00    1.55590   2.01603    0.002
 6218.00    1.59045   2.01535    0.002
 6219.00    1.71318   2.01498    0.002
 6220.00    1.83077   2.01519    0.002
 6221.00    1.89185   2.01539    0.002
 6222.00    1.94120   2.01528    0.002
 6223.00    1.89995   2.01491    0.002
 6224.00    1.85946   2.01479    0.002
 6225.00    1.82337   2.01442    0.002
 6226.00    1.81907   2.01430    0.002
 6227.00    1.96218   2.01361    0.002
 6228.00    2.08387   2.01291    0.002
 6229.00    2.12435   2.01222    0.002
 6230.00    2.11035   2.01183    0.002
 6231.00    1.92388   2.01171    0.002
 6232.00    1.78183   2.01101    0.002
 6233.00    1.75898   2.01031    0.002
 6234.00    1.73346   2.00929    0.002
 6235.00    1.70179   2.00738    0.002
 6236.00    1.66239   2.00549    0.002
 6237.00    1.60761   2.00509    0.002
 6238.00    1.58144   2.00528    0.002
 6239.00    1.60491   2.00577    0.002
 6240.00    1.64362   2.00655    0.002
 6241.00    1.70546   2.00674    0.002
 6242.00    1.77147   2.00723    0.002
 6243.00    1.84304   2.00801    0.002
 6244.00    1.89969   2.00851    0.002
 6245.00    1.93881   2.00960    0.002
 6246.00    2.01285   2.01038    0.002
 6247.00    2.12309   2.01056    0.002
 6248.00    2.12989   2.01075    0.002
 6249.00    2.04207   2.01093    0.002
 6250.00    1.93234   2.01112    0.002
 6251.00    1.80492   2.01130    0.002
 6252.00    1.78189   2.01178    0.002
 6253.00    1.83288   2.01227    0.002
 6254.00    1.84291   2.01215    0.002
 6255.00    1.82746   2.01263    0.002
 6256.00    1.81653   2.01191    0.002
 6257.00    1.80807   2.01148    0.002
 6258.00    1.98081   2.01166    0.002
 6259.00    2.23918   2.01183    0.002
 6260.00    2.48306   2.01171    0.002
 6261.00    2.72103   2.01128    0.003
 6262.00    2.64796   2.01115    0.003
 6263.00    2.46665   2.01071    0.003
 6264.00    2.12301   2.01089    0.003
 6265.00    1.73177   2.01106    0.003
 6266.00    1.55893   2.01124    0.003
 6267.00    1.43914   2.01111    0.002
 6268.00    1.45028   2.01067    0.002
 6269.00    1.48711   2.01054    0.002
 6270.00    1.61901   2.01009    0.002
 6271.00    1.76546   2.01026    0.002
 6272.00    1.87431   2.01014    0.002
 6273.00    1.97893   2.00968    0.002
 6274.00    1.93142   2.00985    0.002
 6275.00    1.87247   2.01001    0.002
 6276.00    1.86283   2.00989    0.002
 6277.00    1.85517   2.00943    0.002
 6278.00    1.75117   2.00959    0.002
 6279.00    1.64630   2.00947    0.002
 6280.00    1.53460   2.00900    0.000
 6281.00    1.43094   2.00887    0.000
 6282.00    1.46421   2.00840    0.000
 6283.00    1.50721   2.00856    0.000
 6284.00    1.65243   2.00844    0.000
 6285.00    1.78789   2.00796    0.000
 6286.00    1.85048   2.00812    0.000
 6287.00    1.87751   2.00827    0.000
 6288.00    1.70223   2.00815    0.000
 6289.00    1.55674   2.00738    0.000
 6290.00    1.54614   2.00689    0.000
 6291.00    1.58007   2.00705    0.000
 6292.00    1.77928   2.00720    0.000
 6293.00    1.93644   2.00736    0.000
 6294.00    1.96305   2.00751    0.000
 6295.00    1.99483   2.00766    0.000
 6296.00    2.04020   2.00782    0.000
 6297.00    2.09263   2.00769    0.000
 6298.00    2.16102   2.00719    0.000
 6299.00    2.15701   2.00706    0.000
 6300.00    2.01098   2.00628    0.000
 6301.00    1.87931   2.00577    0.000
 6302.00    1.77216   2.00592    0.000
 6303.00    1.70930   2.00579    0.000
 6304.00    1.71274   2.00501    0.000
 6305.00    1.71294   2.00449    0.000
 6306.00    1.70886   2.00437    0.000
 6307.00    1.69885   2.00357    0.000
 6308.00    1.68196   2.00278    0.000
 6309.00    1.63713   2.00199    0.000
 6310.00    1.56374   2.00092    0.000
 6311.00    1.56020   1.99946    0.000
 6312.00    1.61965   1.99839    0.000
 6313.00    1.66535   1.99692    0.000
 6314.00    1.70012   1.99612    0.000
 6315.00    1.74199   1.99532    0.000
 6316.00    1.78880   1.99478    0.000
 6317.00    1.76666   1.99518    0.000
 6318.00    1.70223   1.99625    0.000
 6319.00    1.64126   1.99732    0.000
 6320.00    1.58215   1.99840    0.000
 6321.00    1.60629   1.99973    0.002
 6322.00    1.66914   2.00149    0.002
 6323.00    1.72111   2.00256    0.002
 6324.00    1.76873   2.00285    0.002
 6325.00    1.66123   2.00188    0.002
 6326.00    1.50074   2.00295    0.002
 6327.00    1.42048   2.00351    0.002
 6328.00    1.36329   2.00321    0.002
 6329.00    1.47755   2.00403    0.002
 6330.00    1.63253   2.00416    0.002
 6331.00    1.72174   2.00429    0.002
 6332.00    1.79838   2.00416    0.002
 6333.00    1.86788   2.00360    0.002
 6334.00    1.93632   2.00372    0.002
 6335.00    1.90341   2.00411    0.002
 6336.00    1.85950   2.00467    0.002
 6337.00    1.81547   2.00384    0.002
 6338.00    1.77143   2.00327    0.002
 6339.00    1.86136   2.00314    0.002
 6340.00    1.95617   2.00257    0.002
 6341.00    1.80574   2.00294    0.002
 6342.00    1.65674   2.00376    0.002
 6343.00    1.59078   2.00363    0.002
 6344.00    1.52973   2.00280    0.002
 6345.00    1.54702   2.00222    0.002
 6346.00    1.56640   2.00234    0.002
 6347.00    1.60673   2.00245    0.002
 6348.00    1.64820   2.00232    0.002
 6349.00    1.69785   2.00124    0.002
 6350.00    1.72758   1.99844    0.002
 6351.00    1.64706   1.99356    0.002
 6352.00    1.58212   1.99204    0.002
 6353.00    1.58611   1.99504    0.002
 6354.00    1.62094   2.00017    0.002
 6355.00    1.76785   2.00242    0.002
 6356.00    1.88224   2.00253    0.002
 6357.00    1.89758   2.00240    0.002
 6358.00    1.91792   2.00155    0.002
 6359.00    1.95120   2.00095    0.002
 6360.00    1.96665   2.00106    0.002
 6361.00    1.94238   2.00116    0.002
 6362.00    1.90833   2.00103    0.002
 6363.00    1.85542   2.00042    0.002
 6364.00    1.73506   2.00052    0.002
 6365.00    1.50110   2.00087    0.002
 6366.00    1.34394   2.00146    0.002
 6367.00    1.30012   2.00084    0.002
 6368.00    1.33546   2.00095    0.002
 6369.00    1.47347   2.00081    0.002
 6370.00    1.57330   1.99995    0.002
 6371.00    1.62949   1.99932    0.002
 6372.00    1.69502   1.99942    0.002
 6373.00    1.76996   1.99952    0.002
 6374.00    1.80779   1.99869    0.002
 6375.00    1.81264   1.99514    0.002
 6376.00    1.81027   1.99303    0.002
 6377.00    1.80226   1.99405    0.002
 6378.00    1.74474   1.99757    0.002
 6379.00    1.65311   1.99914    0.002
 6380.00    1.59904   1.99924    0.002
 6381.00    1.56765   1.99934    0.002
 6382.00    1.59324   1.99920    0.002
 6383.00    1.64885   1.99787    0.002
 6384.00    1.58243   1.99504    0.002
 6385.00    1.46020   1.99266    0.002
 6386.00    1.30703   1.99223    0.002
 6387.00    1.14169   1.99397    0.002
 6388.00    1.14181   1.99729    0.002
 6389.00    1.19740   1.99790    0.002
 6390.00    1.31314   1.99724    0.002
 6391.00    1.44581   1.99711    0.002
 6392.00    1.55385   1.99644    0.002
 6393.00    1.65618   1.99653    0.002
 6394.00    1.62166   1.99661    0.002
 6395.00    1.56165   1.99670    0.002
 6396.00    1.47526   1.99679    0.002
 6397.00    1.38508   1.99665    0.002
 6398.00    1.45282   1.99575    0.002
 6399.00    1.53700   1.99508    0.002
 6400.00    1.55392   1.99494    0.002
 6401.00    1.56633   1.99426    0.002
 6402.00    1.55646   1.99412    0.002
 6403.00    1.54587   1.99322    0.002
 6404.00    1.53083   1.99188    0.002
 6405.00    1.51328   1.98943    0.002
 6406.00    1.41789   1.98831    0.002
 6407.00    1.33036   1.98619    0.002
 6408.00    1.36080   1.98374    0.002
 6409.00    1.39678   1.98261    0.002
 6410.00    1.48630   1.98070    0.002
 6411.00    1.56461   1.97943    0.002
 6412.00    1.56469   1.98049    0.002
 6413.00    1.56069   1.98175    0.002
 6414.00    1.53474   1.98380    0.002
 6415.00    1.49342   1.98606    0.002
 6416.00    1.38569   1.98868    0.002
 6417.00    1.31709   1.98974    0.002
 6418.00    1.38776   1.99080    0.002
 6419.00    1.46174   1.99186    0.002
 6420.00    1.54566   1.99271    0.002
 6421.00    1.60889   1.99278    0.002
 6422.00    1.61947   1.99306    0.002
 6423.00    1.66130   1.99391    0.002
 6424.00    1.77163   1.99398    0.002
 6425.00    1.84950   1.99385    0.002
 6426.00    1.86568   1.99312    0.002
 6427.00    1.81619   1.99318    0.002
 6428.00    1.65775   1.99345    0.002
 6429.00    1.58268   1.99431    0.002
 6430.00    1.62882   1.99437    0.002
 6431.00    1.65902   1.99444    0.002
 6432.00    1.66883   1.99450    0.002
 6433.00    1.67664   1.99456    0.002
 6434.00    1.68221   1.99443    0.002
 6435.00    1.71152   1.99368    0.002
 6436.00    1.76443   1.99375    0.002
 6437.00    1.72565   1.99381    0.002
 6438.00    1.60649   1.99386    0.002
 6439.00    1.52858   1.99392    0.002
 6440.00    1.48253   1.99398    0.002
 6441.00    1.47487   1.99384    0.002
 6442.00    1.49328   1.99290    0.002
 6443.00    1.49815   1.99233    0.002
 6444.00    1.49497   1.99301    0.002
 6445.00    1.58027   1.99244    0.002
 6446.00    1.71149   1.99312    0.002
 6447.00    1.74882   1.99235    0.002
 6448.00    1.74391   1.99241    0.002
 6449.00    1.68766   1.99246    0.002
 6450.00    1.61155   1.99251    0.002
 6451.00    1.54035   1.99256    0.002
 6452.00    1.47076   1.99242    0.002
 6453.00    1.46121   1.99165    0.002
 6454.00    1.46821   1.99151    0.002
 6455.00    1.52219   1.99092    0.002
 6456.00    1.58682   1.99179    0.002
 6457.00    1.53404   1.99184    0.002
 6458.00    1.45996   1.99171    0.002
 6459.00    1.45153   1.99074    0.002
 6460.00    1.45222   1.98977    0.002
 6461.00    1.57211   1.98915    0.002
 6462.00    1.70389   1.99003    0.002
 6463.00    1.65260   1.99008    0.002
 6464.00    1.58975   1.99012    0.002
 6465.00    1.55942   1.99016    0.002
 6466.00    1.53015   1.99020    0.002
 6467.00    1.54035   1.99024    0.002
 6468.00    1.55331   1.99028    0.002
 6469.00    1.64324   1.99032    0.002
 6470.00    1.73465   1.99018    0.002
 6471.00    1.84710   1.98937    0.002
 6472.00    1.93520   1.98941    0.002
 6473.00    1.79761   1.98945    0.002
 6474.00    1.67185   1.98948    0.002
 6475.00    1.62618   1.98952    0.002
 6476.00    1.58769   1.98955    0.002
 6477.00    1.58682   1.98959    0.002
 6478.00    1.57699   1.98945    0.002
 6479.00    1.52934   1.98846    0.002
 6480.00    1.48391   1.98763    0.002
 6481.00    1.44619   1.98766    0.002
 6482.00    1.43956   1.98769    0.002
 6483.00    1.52416   1.98772    0.002
 6484.00    1.57962   1.98775    0.002
 6485.00    1.56219   1.98778    0.002
 6486.00    1.52090   1.98781    0.002
 6487.00    1.42823   1.98783    0.002
 6488.00    1.38859   1.98770    0.002
 6489.00    1.44819   1.98686    0.002
 6490.00    1.45834   1.98688    0.002
 6491.00    1.38770   1.98691    0.002
 6492.00    1.32973   1.98693    0.002
 6493.00    1.28991   1.98695    0.002
 6494.00    1.34308   1.98698    0.002
 6495.00    1.51347   1.98700    0.002
 6496.00    1.58986   1.98702    0.002
 6497.00    1.56183   1.98688    0.002
 6498.00    1.56350   1.98587    0.002
 6499.00    1.59427   1.98485    0.002
 6500.00    1.59490   1.98399    0.002
 6501.00    1.56949   1.98400    0.002
 6502.00    1.54492   1.98402    0.002
 6503.00    1.52098   1.98404    0.002
 6504.00    1.49146   1.98405    0.002
 6505.00    1.45821   1.98407    0.002
 6506.00    1.50883   1.98408    0.002
 6507.00    1.60858   1.98395    0.002
 6508.00    1.70830   1.98307    0.002
 6509.00    1.80799   1.98308    0.002
 6510.00    1.87593   1.98294    0.002
 6511.00    1.92983   1.98206    0.002
 6512.00    1.94406   1.98207    0.002
 6513.00    1.94322   1.98208    0.002
 6514.00    1.86517   1.98208    0.002
 6515.00    1.76221   1.98223    0.002
 6516.00    1.62388   1.98300    0.002
 6517.00    1.47599   1.98196    0.002
 6518.00    1.42193   1.98092    0.002
 6519.00    1.38866   1.97988    0.002
 6520.00    1.45576   1.97884    0.002
 6521.00    1.54056   1.97779    0.002
 6522.00    1.62378   1.97675    0.002
 6523.00    1.70678   1.97570    0.002
 6524.00    1.72885   1.97465    0.002
 6525.00    1.74511   1.97346    0.002
 6526.00    1.76486   1.97136    0.002
 6527.00    1.78481   1.96912    0.002
 6528.00    1.81901   1.96569    0.000
 6529.00    1.85288   1.96069    0.000
 6530.00    1.78837   1.95739    0.000
 6531.00    1.71954   1.95355    0.000
 6532.00    1.54217   1.95274    0.000
 6533.00    1.38042   1.95391    0.000
 6534.00    1.42757   1.95625    0.000
 6535.00    1.48784   1.96008    0.000
 6536.00    1.66504   1.96124    0.000
 6537.00    1.82304   1.96308    0.000
 6538.00    1.85511   1.96319    0.000
 6539.00    1.88742   1.96411    0.000
 6540.00    1.92101   1.96397    0.000
 6541.00    1.94142   1.96289    0.000
 6542.00    1.90745   1.96194    0.000
 6543.00    1.86388   1.96168    0.000
 6544.00    1.78750   1.95954    0.000
 6545.00    1.71794   1.95739    0.000
 6546.00    1.66801   1.95525    0.000
 6547.00    1.58532   1.95298    0.000
 6548.00    1.42207   1.94964    0.000
 6549.00    1.29360   1.94536    0.000
 6550.00    1.23886   1.94107    0.000
 6551.00    1.21766   1.93666    0.000
 6552.00    1.25823   1.93130    0.000
 6553.00    1.35222   1.92570    0.000
 6554.00    1.53218   1.91797    0.000
 6555.00    1.68361   1.90832    0.000
 6556.00    1.79473   1.89832    0.000
 6557.00    1.86791   1.88512    0.000
 6558.00    1.89395   1.86845    0.000
 6559.00    2.00859   1.84644    0.000
 6560.00    2.22029   1.81885    0.000
 6561.00    2.28487   1.78320    0.000
 6562.00    2.20731   1.73395    0.000
 6563.00    2.03894   1.66574    0.000
 6564.00    1.79321   1.59088    0.000
 6565.00    1.69471   1.49915    0.000
 6566.00    1.70667   1.40601    0.000
 6567.00    1.74668   1.33124    0.000
 6568.00    1.80518   1.31171    0.000
 6569.00    1.74595   1.37830    0.000
 6570.00    1.61878   1.48969    0.000
 6571.00    1.44245   1.60834    0.000
 6572.00    1.24141   1.69855    0.000
 6573.00    1.14811   1.75702    0.000
 6574.00    1.10171   1.79787    0.000
 6575.00    1.14089   1.82843    0.000
 6576.00    1.21202   1.85274    0.000
 6577.00    1.31636   1.87265    0.000
 6578.00    1.43123   1.88739    0.000
 6579.00    1.58031   1.89909    0.000
 6580.00    1.73844   1.90944    0.000
 6581.00    1.82639   1.91567    0.000
 6582.00    1.89918   1.91993    0.000
 6583.00    1.78643   1.92448    0.000
 6584.00    1.64185   1.93200    0.000
 6585.00    1.61762   1.93925    0.000
 6586.00    1.60904   1.94317    0.000
 6587.00    1.50862   1.94338    0.000
 6588.00    1.39980   1.94658    0.000
 6589.00    1.38248   1.94996    0.000
 6590.00    1.37020   1.95517    0.000
 6591.00    1.47688   1.95829    0.000
 6592.00    1.58552   1.96041    0.000
 6593.00    1.63921   1.96246    0.000
 6594.00    1.69062   1.96350    0.000
 6595.00    1.68987   1.96454    0.000
 6596.00    1.68303   1.96550    0.000
 6597.00    1.59903   1.96553    0.000
 6598.00    1.53262   1.96657    0.000
 6599.00    1.61708   1.96761    0.000
 6600.00    1.70814   1.96865    0.000
 6601.00    1.84114   1.96970    0.000
 6602.00    1.91343   1.97066    0.000
 6603.00    1.68334   1.97061    0.000
 6604.00    1.46273   1.97064    0.000
 6605.00    1.28038   1.97169    0.000
 6606.00    1.10523   1.97258    0.000
 6607.00    0.95418   1.97158    0.000
 6608.00    0.88693   1.97263    0.000
 6609.00    1.05658   1.97360    0.002
 6610.00    1.20634   1.97355    0.002
 6611.00    1.30800   1.97349    0.002
 6612.00    1.37380   1.97351    0.002
 6613.00    1.36477   1.97442    0.002
 6614.00    1.37822   1.97340    0.002
 6615.00    1.43245   1.97438    0.002
 6616.00    1.48224   1.97432    0.002
 6617.00    1.52501   1.97427    0.002
 6618.00    1.51706   1.97428    0.002
 6619.00    1.43850   1.97532    0.002
 6620.00    1.41911   1.97624    0.002
 6621.00    1.47218   1.97521    0.002
 6622.00    1.56321   1.97613    0.002
 6623.00    1.69523   1.97509    0.002
 6624.00    1.70841   1.97601    0.002
 6625.00    1.60839   1.97497    0.002
 6626.00    1.48693   1.97595    0.002
 6627.00    1.34747   1.97589    0.002
 6628.00    1.27912   1.97583    0.002
 6629.00    1.26335   1.97577    0.002
 6630.00    1.27604   1.97571    0.002
 6631.00    1.30719   1.97564    0.002
 6632.00    1.28567   1.97558    0.002
 6633.00    1.23422   1.97546    0.002
 6634.00    1.17911   1.97439    0.002
 6635.00    1.12220   1.97538    0.002
 6636.00    1.18980   1.97531    0.002
 6637.00    1.31068   1.97525    0.002
 6638.00    1.43188   1.97518    0.002
 6639.00    1.55320   1.97516    0.002
 6640.00    1.52508   1.97616    0.002
 6641.00    1.45054   1.97614    0.002
 6642.00    1.39053   1.97709    0.002
 6643.00    1.33428   1.97595    0.002
 6644.00    1.39842   1.97588    0.002
 6645.00    1.48796   1.97581    0.002
 6646.00    1.53268   1.97574    0.002
 6647.00    1.56992   1.97571    0.002
 6648.00    1.43209   1.97671    0.002
 6649.00    1.27229   1.97664    0.002
 6650.00    1.13841   1.97652    0.002
 6651.00    1.00679   1.97537    0.002
 6652.00    0.99075   1.97529    0.002
 6653.00    0.98064   1.97521    0.002
 6654.00    1.13985   1.97514    0.002
 6655.00    1.30029   1.97510    0.002
 6656.00    1.33599   1.97611    0.002
 6657.00    1.37131   1.97603    0.002
 6658.00    1.39852   1.97595    0.002
 6659.00    1.42410   1.97584    0.002
 6660.00    1.42995   1.97466    0.002
 6661.00    1.43272   1.97461    0.002
 6662.00    1.40999   1.97563    0.002
 6663.00    1.39196   1.97554    0.002
 6664.00    1.40289   1.97546    0.002
 6665.00    1.40613   1.97538    0.002
 6666.00    1.37203   1.97527    0.002
 6667.00    1.35749   1.97408    0.002
 6668.00    1.42017   1.97401    0.002
 6669.00    1.47036   1.97501    0.002
 6670.00    1.47954   1.97379    0.002
 6671.00    1.46359   1.97259    0.002
 6672.00    1.37790   1.97250    0.002
 6673.00    1.32950   1.97241    0.002
 6674.00    1.36967   1.97232    0.002
 6675.00    1.40877   1.97221    0.002
 6676.00    1.44568   1.97100    0.002
 6677.00    1.46432   1.97089    0.002
 6678.00    1.45033   1.96963    0.002
 6679.00    1.42345   1.96610    0.002
 6680.00    1.37644   1.96120    0.002
 6681.00    1.37880   1.93805    0.002
 6682.00    1.44890   1.89484    0.002
 6683.00    1.49340   1.87332    0.002
 6684.00    1.50699   1.88029    0.002
 6685.00    1.55814   1.91319    0.002
 6686.00    1.64927   1.93803    0.002
 6687.00    1.70076   1.94018    0.002
 6688.00    1.71501   1.94008    0.002
 6689.00    1.67297   1.94228    0.002
 6690.00    1.58432   1.94789    0.002
 6691.00    1.51042   1.95350    0.002
 6692.00    1.44726   1.95798    0.002
 6693.00    1.47289   1.96245    0.002
 6694.00    1.55533   1.96464    0.002
 6695.00    1.54833   1.96798    0.002
 6696.00    1.49126   1.96902    0.000
 6697.00    1.44960   1.97006    0.000
 6698.00    1.41544   1.97111    0.000
 6699.00    1.40186   1.97100    0.000
 6700.00    1.39693   1.97205    0.000
 6701.00    1.41815   1.97309    0.000
 6702.00    1.44877   1.97299    0.000
 6703.00    1.43531   1.97288    0.000
 6704.00    1.40842   1.97277    0.000
 6705.00    1.43601   1.97152    0.000
 6706.00    1.47739   1.97025    0.000
 6707.00    1.51805   1.97128    0.000
 6708.00    1.55856   1.97233    0.000
 6709.00    1.58957   1.97337    0.000
 6710.00    1.61905   1.97327    0.000
 6711.00    1.52508   1.97316    0.000
 6712.00    1.41618   1.97305    0.000
 6713.00    1.41179   1.97408    0.000
 6714.00    1.41608   1.97283    0.000
 6715.00    1.55960   1.97270    0.000
 6716.00    1.70971   1.97259    0.000
 6717.00    1.74214   1.97247    0.000
 6718.00    1.76999   1.97350    0.000
 6719.00    1.63358   1.97340    0.000
 6720.00    1.50901   1.97328    0.000
 6721.00    1.61490   1.97317    0.000
 6722.00    1.72262   1.97305    0.000
 6723.00    1.85128   1.97178    0.000
 6724.00    1.94617   1.97279    0.000
 6725.00    1.77218   1.97154    0.000
 6726.00    1.62259   1.97254    0.000
 6727.00    1.61927   1.97244    0.000
 6728.00    1.62639   1.97232    0.000
 6729.00    1.68293   1.97220    0.000
 6730.00    1.72191   1.97207    0.000
 6731.00    1.69305   1.97309    0.000
 6732.00    1.64246   1.97185    0.000
 6733.00    1.52188   1.97284    0.000
 6734.00    1.41393   1.97274    0.000
 6735.00    1.34040   1.97262    0.000
 6736.00    1.30442   1.97249    0.000
 6737.00    1.35617   1.97236    0.000
 6738.00    1.44003   1.97223    0.000
 6739.00    1.58879   1.97211    0.000
 6740.00    1.67978   1.97311    0.000
 6741.00    1.66915   1.97188    0.000
 6742.00    1.60795   1.97171    0.000
 6743.00    1.46889   1.97158    0.000
 6744.00    1.33198   1.97259    0.000
 6745.00    1.19797   1.97249    0.000
 6746.00    1.12026   1.97236    0.000
 6747.00    1.10959   1.97223    0.000
 6748.00    1.16087   1.97095    0.000
 6749.00    1.27719   1.97077    0.000
 6750.00    1.34463   1.97177    0.000
 6751.00    1.36681   1.97168    0.000
 6752.00    1.46679   1.97268    0.000
 6753.00    1.63029   1.97259    0.002
 6754.00    1.61294   1.97245    0.002
 6755.00    1.46568   1.97345    0.002
 6756.00    1.15823   1.97336    0.002
 6757.00    0.74978   1.97209    0.002
 6758.00    0.57664   1.97189    0.002
 6759.00    0.53319   1.97289    0.002
 6760.00    0.80463   1.97166    0.002
 6761.00    1.22697   1.97147    0.002
 6762.00    1.55673   1.97132    0.002
 6763.00    1.84820   1.97231    0.002
 6764.00    1.83966   1.97223    0.002
 6765.00    1.72503   1.97208    0.002
 6766.00    1.62944   1.97193    0.002
 6767.00    1.53953   1.97179    0.002
 6768.00    1.49322   1.97277    0.002
 6769.00    1.45772   1.97155    0.002
 6770.00    1.43094   1.97134    0.002
 6771.00    1.40591   1.97119    0.002
 6772.00    1.45269   1.97217    0.002
 6773.00    1.51074   1.97209    0.002
 6774.00    1.50640   1.97081    0.002
 6775.00    1.49478   1.97172    0.002
 6776.00    1.47661   1.97163    0.002
 6777.00    1.45793   1.97035    0.002
 6778.00    1.45287   1.97126    0.002
 6779.00    1.44840   1.97117    0.002
 6780.00    1.46796   1.97102    0.002
 6781.00    1.48343   1.97086    0.002
 6782.00    1.29633   1.97071    0.002
 6783.00    1.11853   1.97168    0.002
 6784.00    1.10919   1.97047    0.002
 6785.00    1.09905   1.97023    0.002
 6786.00    1.08009   1.97008    0.002
 6787.00    1.08208   1.96992    0.002
 6788.00    1.24517   1.96975    0.002
 6789.00    1.40906   1.96959    0.002
 6790.00    1.57760   1.96943    0.002
 6791.00    1.70873   1.97039    0.002
 6792.00    1.66683   1.97032    0.002
 6793.00    1.63507   1.97128    0.002
 6794.00    1.64160   1.97120    0.002
 6795.00    1.62066   1.96991    0.002
 6796.00    1.51295   1.96966    0.002
 6797.00    1.44158   1.96949    0.002
 6798.00    1.46754   1.96932    0.002
 6799.00    1.47865   1.97028    0.002
 6800.00    1.45561   1.97020    0.002
 6801.00    1.40997   1.97004    0.002
 6802.00    1.31942   1.96987    0.002
 6803.00    1.33787   1.97082    0.002
 6804.00    1.54520   1.96962    0.002
 6805.00    1.66446   1.96935    0.002
 6806.00    1.65016   1.97030    0.002
 6807.00    1.62586   1.97023    0.002
 6808.00    1.58826   1.97006    0.002
 6809.00    1.63884   1.97100    0.002
 6810.00    1.79291   1.97093    0.002
 6811.00    1.90096   1.97076    0.002
 6812.00    1.96139   1.97058    0.002
 6813.00    1.88665   1.97152    0.002
 6814.00    1.68852   1.97033    0.002
 6815.00    1.50162   1.97005    0.002
 6816.00    1.32374   1.96987    0.002
 6817.00    1.21614   1.96969    0.002
 6818.00    1.15829   1.96952    0.002
 6819.00    1.28404   1.96933    0.002
 6820.00    1.52383   1.97027    0.002
 6821.00    1.57211   1.96908    0.002
 6822.00    1.51646   1.96991    0.002
 6823.00    1.48449   1.96984    0.002
 6824.00    1.46369   1.96965    0.002
 6825.00    1.43455   1.96947    0.002
 6826.00    1.40202   1.97040    0.002
 6827.00    1.34317   1.97033    0.002
 6828.00    1.27520   1.97015    0.002
 6829.00    1.32256   1.96996    0.002
 6830.00    1.40368   1.96978    0.002
 6831.00    1.46355   1.96959    0.002
 6832.00    1.51828   1.96940    0.002
 6833.00    1.63379   1.96921    0.002
 6834.00    1.76119   1.96902    0.002
 6835.00    1.61576   1.96883    0.002
 6836.00    1.42875   1.96975    0.002
 6837.00    1.39382   1.96969    0.002
 6838.00    1.37596   1.96949    0.002
 6839.00    1.35567   1.96930    0.002
 6840.00    1.33520   1.96911    0.002
 6841.00    1.24067   1.97002    0.002
 6842.00    1.14320   1.96996    0.002
 6843.00    1.04820   1.96977    0.002
 6844.00    0.96265   1.96957    0.002
 6845.00    1.25194   1.96938    0.002
 6846.00    1.51531   1.96918    0.002
 6847.00    1.34089   1.96898    0.002
 6848.00    1.18965   1.96878    0.002
 6849.00    1.28079   1.96969    0.002
 6850.00    1.34989   1.96852    0.002
 6851.00    1.25526   1.96818    0.002
 6852.00    1.17815   1.96798    0.002
 6853.00    1.20031   1.96888    0.002
 6854.00    1.25420   1.96883    0.002
 6855.00    1.45132   1.96973    0.002
 6856.00    1.59254   1.96967    0.002
 6857.00    1.52680   1.96947    0.002
 6858.00    1.46451   1.96816    0.002
 6859.00    1.41292   1.96780    0.002
 6860.00    1.36088   1.96870    0.002
 6861.00    1.30763   1.96864    0.002
 6862.00    1.27121   1.96843    0.002
 6863.00    1.27281   1.96823    0.002
 6864.00    1.31282   1.96802    0.002
 6865.00    1.42805   1.96891    0.002
 6866.00    1.41608   1.96885    0.002
 6867.00    1.18706   1.96974    0.002
 6868.00    1.04452   1.96859    0.002
 6869.00    1.03123   1.96822    0.002
 6870.00    1.09100   1.96801    0.002
 6871.00    1.24675   1.96889    0.002
 6872.00    1.37488   1.96884    0.002
 6873.00    1.47104   1.96753    0.002
 6874.00    1.45681   1.96824    0.002
 6875.00    1.32995   1.96819    0.002
 6876.00    1.29754   1.96907    0.002
 6877.00    1.35014   1.96793    0.002
 6878.00    1.38118   1.96754    0.002
 6879.00    1.39510   1.96732    0.002
 6880.00    1.42584   1.96820    0.002
 6881.00    1.46831   1.96815    0.002
 6882.00    1.60911   1.96683    0.002
 6883.00    1.81008   1.96753    0.002
 6884.00    1.85074   1.96639    0.002
 6885.00    1.80573   1.96490    0.002
 6886.00    1.72910   1.96449    0.002
 6887.00    1.63780   1.96317    0.002
 6888.00    1.58900   1.96167    0.002
 6889.00    1.55720   1.96017    0.002
 6890.00    1.41385   1.95758    0.002
 6891.00    1.23248   1.95370    0.002
 6892.00    1.11859   1.94746    0.002
 6893.00    1.02405   1.94084    0.002
 6894.00    1.20371   1.93203    0.002
 6895.00    1.44830   1.92611    0.002
 6896.00    1.55312   1.92511    0.002
 6897.00    1.63128   1.92921    0.002
 6898.00    1.66613   1.93516    0.002
 6899.00    1.69458   1.94349    0.002
 6900.00    1.73770   1.95004    0.002
 6901.00    1.78240   1.95402    0.002
 6902.00    1.68570   1.95872    0.002
 6903.00    1.57901   1.96035    0.002
 6904.00    1.38052   1.96248    0.002
 6905.00    1.17874   1.96372    0.002
 6906.00    1.22651   1.96477    0.002
 6907.00    1.27649   1.96581    0.002
 6908.00    1.37431   1.96578    0.002
 6909.00    1.46318   1.96662    0.002
 6910.00    1.41021   1.96658    0.002
 6911.00    1.35830   1.96743    0.002
 6912.00    1.31702   1.96631    0.002
 6913.00    1.28311   1.96586    0.002
 6914.00    1.30218   1.96670    0.002
 6915.00    1.28257   1.96667    0.002
 6916.00    1.04970   1.96750    0.002
 6917.00    0.90353   1.96747    0.002
 6918.00    1.13964   1.96722    0.002
 6919.00    1.34060   1.96698    0.002
 6920.00    1.41415   1.96673    0.002
 6921.00    1.43288   1.96757    0.002
 6922.00    1.28499   1.96646    0.002
 6923.00    1.24305   1.96707    0.002
 6924.00    1.47499   1.96704    0.002
 6925.00    1.58036   1.96679    0.002
 6926.00    1.40444   1.96762    0.002
 6927.00    1.25929   1.96759    0.002
 6928.00    1.17344   1.96841    0.002
 6929.00    1.15356   1.96838    0.002
 6930.00    1.24455   1.96706    0.002
 6931.00    1.34130   1.96765    0.002
 6932.00    1.44653   1.96763    0.002
 6933.00    1.62140   1.96630    0.002
 6934.00    1.88642   1.96688    0.002
 6935.00    1.96891   1.96686    0.002
 6936.00    1.84316   1.96768    0.002
 6937.00    1.60185   1.96765    0.002
 6938.00    1.24428   1.96739    0.002
 6939.00    1.11118   1.96821    0.002
 6940.00    1.17726   1.96711    0.002
 6941.00    1.19028   1.96769    0.002
 6942.00    1.16181   1.96766    0.002
 6943.00    1.04737   1.96847    0.002
 6944.00    0.87381   1.96845    0.002
 6945.00    0.93562   1.96819    0.002
 6946.00    1.13930   1.96900    0.002
 6947.00    1.15433   1.96898    0.002
 6948.00    1.07011   1.96764    0.002
 6949.00    1.15393   1.96713    0.002
 6950.00    1.31443   1.96687    0.002
 6951.00    1.27318   1.96767    0.002
 6952.00    1.15268   1.96872    0.002
 6953.00    1.00532   1.96870    0.002
 6954.00    0.84899   1.96843    0.002
 6955.00    0.95727   1.96816    0.002
 6956.00    1.13987   1.96789    0.002
 6957.00    1.05934   1.96762    0.002
 6958.00    0.91793   1.96841    0.002
 6959.00    1.04804   1.96733    0.002
 6960.00    1.22854   1.96787    0.002
 6961.00    1.15707   1.96785    0.002
 6962.00    1.04953   1.96758    0.002
 6963.00    1.26787   1.96837    0.002
 6964.00    1.51997   1.96836    0.002
 6965.00    1.40051   1.96914    0.002
 6966.00    1.25628   1.96807    0.002
 6967.00    1.24207   1.96752    0.002
 6968.00    1.23204   1.96831    0.002
 6969.00    1.22524   1.96830    0.002
 6970.00    1.21657   1.96802    0.002
 6971.00    1.15013   1.96880    0.002
 6972.00    1.09077   1.96879    0.002
 6973.00    1.13684   1.96851    0.002
 6974.00    1.16464   1.96928    0.002
 6975.00    1.01706   1.96822    0.002
 6976.00    0.92966   1.96766    0.002
 6977.00    1.26092   1.96737    0.002
 6978.00    1.51200   1.96814    0.002
 6979.00    1.33261   1.96814    0.002
 6980.00    1.20571   1.96785    0.002
 6981.00    1.30491   1.96757    0.002
 6982.00    1.41444   1.96728    0.002
 6983.00    1.56061   1.96804    0.002
 6984.00    1.60638   1.96699    0.002
 6985.00    1.35279   1.96746    0.002
 6986.00    1.20413   1.96746    0.002
 6987.00    1.32203   1.96822    0.002
 6988.00    1.35794   1.96822    0.002
 6989.00    1.21459   1.96898    0.002
 6990.00    1.11478   1.96898    0.002
 6991.00    1.09755   1.96869    0.002
 6992.00    1.07949   1.96839    0.002
 6993.00    1.06005   1.96705    0.002
 6994.00    1.09410   1.96645    0.002
 6995.00    1.20581   1.96720    0.002
 6996.00    1.20968   1.96721    0.002
 6997.00    1.07590   1.96796    0.002
 6998.00    1.00789   1.96796    0.002
 6999.00    1.01387   1.96871    0.002
 7000.00    1.09885   1.96871    0.002
 7001.00    1.26221   1.96946    0.002
 7002.00    1.38670   1.96842    0.002
 7003.00    1.47719   1.96885    0.002
 7004.00    1.47888   1.96886    0.002
 7005.00    1.41213   1.96855    0.002
 7006.00    1.39458   1.96930    0.002
 7007.00    1.41037   1.96930    0.002
 7008.00    1.36718   1.96900    0.002
 7009.00    1.28899   1.96869    0.002
 7010.00    1.18751   1.96943    0.002
 7011.00    1.07396   1.96840    0.002
 7012.00    1.11397   1.96881    0.002
 7013.00    1.22291   1.96882    0.002
 7014.00    1.23858   1.96851    0.002
 7015.00    1.21826   1.96924    0.002
 7016.00    1.19046   1.96925    0.002
 7017.00    1.16022   1.96894    0.002
 7018.00    1.23672   1.96967    0.002
 7019.00    1.34258   1.96864    0.002
 7020.00    1.19721   1.96904    0.002
 7021.00    0.99503   1.96905    0.002
 7022.00    1.36164   1.96978    0.002
 7023.00    1.83102   1.96979    0.002
 7024.00    1.64050   1.96948    0.002
 7025.00    1.35856   1.97020    0.002
 7026.00    1.18215   1.97021    0.002
 7027.00    1.01622   1.97093    0.002
 7028.00    1.29211   1.97095    0.002
 7029.00    1.59567   1.96960    0.002
 7030.00    1.32203   1.96997    0.002
 7031.00    1.03260   1.96999    0.002
 7032.00    0.89837   1.96967    0.002
 7033.00    0.77950   1.97038    0.002
 7034.00    1.08225   1.97040    0.002
 7035.00    1.35886   1.97110    0.002
 7036.00    1.26855   1.97113    0.002
 7037.00    1.20262   1.97080    0.002
 7038.00    1.36148   1.96945    0.002
 7039.00    1.49341   1.96877    0.002
 7040.00    1.44383   1.96947    0.002
 7041.00    1.40467   1.96949    0.002
 7042.00    1.41996   1.97019    0.002
 7043.00    1.45363   1.97022    0.002
 7044.00    1.56467   1.97092    0.002
 7045.00    1.62567   1.97197    0.002
 7046.00    1.51262   1.97097    0.002
 7047.00    1.39751   1.97130    0.002
 7048.00    1.27640   1.97133    0.002
 7049.00    1.25049   1.97100    0.002
 7050.00    1.46225   1.97169   -2.000
 7051.00    1.53344   1.97172   -2.000
 7052.00    1.30227   1.97241   -2.000
 7053.00    1.18340   1.97244   -2.000
 7054.00    1.27425   1.97211   -2.000
 7055.00    1.39918   1.97279   -2.000
 7056.00    1.57969   1.97180   -2.000
 7057.00    1.57600   1.97211   -2.000
 7058.00    1.30884   1.97214   -2.000
 7059.00    1.19114   1.97180   -2.000
 7060.00    1.26151   1.97146   -2.000
 7061.00    1.23968   1.97214   -2.000
 7062.00    1.11561   1.97218   -2.000
 7063.00    0.93117   1.97285   -2.000
 7064.00    0.68769   1.97187   -2.000
 7065.00    0.76701   1.97216   -2.000
 7066.00    1.12476   1.97118   -2.000
 7067.00    1.26085   1.97147   -2.000
 7068.00    1.22853   1.97151   -2.000
 7069.00    1.18766   1.97218   -2.000
 7070.00    1.14108   1.97120   -2.000
 7071.00    1.03074   1.97148   -2.000
 7072.00    0.88310   1.97253   -2.000
 7073.00    0.78310   1.97156   -2.000
 7074.00    0.70739   1.97183   -2.000
 7075.00    0.95874   1.97187   -2.000
 7076.00    1.35450   1.97253   -2.000
 7077.00    1.24476   1.97257   -2.000
 7078.00    0.94332   1.97323   -2.000
 7079.00    1.11815   1.97328   -2.000
 7080.00    1.44633   1.97292   -2.000
 7081.00    1.71198   1.97357   -2.000
 7082.00    1.96078   1.97362   -2.000
 7083.00    1.63439   1.97226   -2.000
 7084.00    1.18101   1.97149   -2.000
 7085.00    1.12163   1.97214   -2.000
 7086.00    1.13151   1.97219   -2.000
 7087.00    1.20527   1.97183   -2.000
 7088.00    1.28757   1.97147   -2.000
 7089.00    1.25908   1.97211   -2.000
 7090.00    1.22005   1.97116   -2.000
 7091.00    1.16859   1.96937   -2.000
 7092.00    1.11640   1.96859   -2.000
 7093.00    1.21378   1.96923   -2.000
 7094.00    1.31570   1.96928   -2.000
 7095.00    1.53304   1.96891   -2.000
 7096.00    1.73592   1.96854   -2.000
 7097.00    1.57927   1.96917   -2.000
 7098.00    1.43031   1.96923   -2.000
 7099.00    1.38360   1.96886   -2.000
 7100.00    1.34678   1.96749   -2.000
 7101.00    1.39769   1.96768   -2.000
 7102.00    1.42286   1.96774   -2.000
 7103.00    1.27986   1.96836   -2.000
 7104.00    1.16698   1.97140   -2.000
 7105.00    1.20751   1.97333   -2.000
 7106.00    1.23583   1.97438   -2.000
 7107.00    1.21391   1.97444   -2.000
 7108.00    1.23466   1.97407   -2.000
 7109.00    1.40086   1.97469   -2.000
 7110.00    1.57473   1.97376   -2.000
 7111.00    1.77064   1.97393   -2.000
 7112.00    1.82880   1.97400   -2.000
 7113.00    1.54897   1.97362   -2.000
 7114.00    1.38090   1.97423   -2.000
 7115.00    1.44934   1.97429   -2.000
 7116.00    1.44769   1.97391   -2.000
 7117.00    1.31713   1.97452   -2.000
 7118.00    1.35596   1.97360   -2.000
 7119.00    1.66691   1.97375   -2.000
 7120.00    1.87262   1.97382   -2.000
 7121.00    1.92999   1.97442   -2.000
 7122.00    2.10671   1.97449   -2.000
 7123.00    2.43147   1.97509   -2.000
 7124.00    2.30658   1.97516   -2.000
 7125.00    1.69009   1.97478   -2.000
 7126.00    1.41393   1.97537   -2.000
 7127.00    1.46597   1.97446   -2.000
 7128.00    1.54855   1.97459   -2.000
 7129.00    1.65709   1.97467   -2.000
 7130.00    1.73646   1.97427   -2.000
 7131.00    1.79397   1.97486   -2.000
 7132.00    1.55723   1.97494   -2.000
 7133.00    1.12687   1.97553   -2.000
 7134.00    1.13739   1.97560   -2.000
 7135.00    1.40186   1.97521   -2.000
 7136.00    1.29333   1.97579   -2.000
 7137.00    0.99765   1.97587   -2.000
 7138.00    1.12395   1.97547   -2.000
 7139.00    1.43350   1.97605   -2.000
 7140.00    1.41643   1.97613   -2.000
 7141.00    1.27771   1.97574   -2.000
 7142.00    1.10074   1.97534   -2.000
 7143.00    0.91169   1.97591   -2.000
 7144.00    1.05932   1.97599   -2.000
 7145.00    1.29575   1.97656   -2.000
 7146.00    1.41185   1.97567   -2.000
 7147.00    1.50202   1.97575   -2.000
 7148.00    1.28564   1.97584   -2.000
 7149.00    1.01686   1.97641   -2.000
 7150.00    0.78765   1.97649   -2.000
 7151.00    0.56358   1.97609   -2.000
 7152.00    0.84385   1.97568   -2.000
 7153.00    1.16991   1.97624   -2.000
 7154.00    1.20068   1.97730   -2.000
 7155.00    1.21529   1.97739   -2.000
 7156.00    1.33604   1.97698   -2.000
 7157.00    1.46165   1.97657   -2.000
 7158.00    1.82769   1.97712   -2.000
 7159.00    2.17379   1.97721   -2.000
 7160.00    2.06738   1.97680   -2.000
 7161.00    1.98008   1.97639   -2.000
 7162.00    2.13345   1.97693   -2.000
 7163.00    2.20238   1.97703   -2.000
 7164.00    1.55095   1.97661   -2.000
 7165.00    1.08505   1.97716   -2.000
 7166.00    1.79510   1.97725   -2.000
 7167.00    2.25691   1.97780   -2.000
 7168.00    1.48622   1.97790   -2.000
 7169.00    0.88513   1.97748   -2.000
 7170.00    0.96671   1.97705   -2.000
 7171.00    1.06713   1.97759   -2.000
 7172.00    1.23049   1.97865   -2.000
 7173.00    1.37344   1.97779   -2.000
 7174.00    1.45879   1.97780   -2.000
 7175.00    1.51389   1.97790   -2.000
 7176.00    1.49602   1.97843   -2.000
 7177.00    1.47582   1.97949   -2.000
 7178.00    1.45078   1.97960   -2.000
 7179.00    1.42660   1.97917   -2.000
 7180.00    1.40400   1.97874   -2.000
 7181.00    1.42032   1.97927   -2.000
 7182.00    1.49823   1.97937   -2.000
 7183.00    1.52277   1.97894   -2.000
 7184.00    1.47315   1.97851   -2.000
 7185.00    1.36298   1.97808   -2.000
 7186.00    1.17875   1.97860   -2.000
 7187.00    1.10957   1.97871   -2.000
 7188.00    1.16440   1.97922   -2.000
 7189.00    1.10536   1.97933   -2.000
 7190.00    0.93804   1.97890   -2.000
 7191.00    0.85800   1.97846   -2.000
 7192.00    0.85113   1.97897   -2.000
 7193.00    0.86954   1.97908   -2.000
 7194.00    0.90662   1.97959   -2.000
 7195.00    1.01934   1.97970   -2.000
 7196.00    1.18111   1.97926   -2.000
 7197.00    0.56925   1.97976   -2.000
 7198.00   -0.48148   1.97988   -2.000
 7199.00   -2.06963   1.98038   -2.000
 7200.00   -3.92319   1.98050   -2.000
 7201.00   -4.84871   1.98006   -2.000
 7202.00   -5.37796   1.97961   -2.000
 7203.00   -4.43677   1.97916   -2.000
 7204.00   -2.95758   1.97966   -2.000
 7205.00   -0.87696   1.98072   -2.000
 7206.00    1.38997   1.98084   -2.000
 7207.00    1.49183   1.98133   -2.000
 7208.00    1.03487   1.98052   -2.000
 7209.00    1.15381   1.98043   -2.000
 7210.00    1.39388   1.98055   -2.000
 7211.00    1.17221   1.98103   -2.000
 7212.00    0.87386   1.98116   -2.000
 7213.00    0.58988   1.98071   -2.000
 7214.00    0.30771   1.98118   -2.000
 7215.00    0.73840   1.98131   -2.000
 7216.00    1.23084   1.98179   -2.000
 7217.00    0.94611   1.98192   -2.000
 7218.00    0.62190   1.98239   -2.000
