###################################################################
## OUTPUT of StarlightChains_v04.for    [Cid@UFSC - 01/Apr/2007] ##
###################################################################

## Some input info
KUG0210-078._4_56.txt                    [arq_obs]
Base.CB07.vall.4m                        [arq_base]
Masks.EmLines.NEW.gm                     [arq_masks]
StCv04.C11.config                        [arq_config]
   66                                    [N_base]
    0                                    [N_YAV_components = # of components with extra extinction!]
    0                                    [i_FitPowerLaw (1/0 = Yes/No)]
-9.99                                    [alpha_PowerLaw]
CCM                                      [red_law_option]
 1.458241                                [q_norm = A(l_norm)/A(V)]

## (Re)Sampling Parameters
 3741.00                                 [l_ini (A)]
 7218.00                                 [l_fin (A)]
    1.00                                 [dl    (A)]     (OBS: dl_cushion =    50.00 A)

## Normalization info
 4020.00                                 [l_norm (A) - for base]
 4010.00                                 [llow_norm (A) - window for f_obs]
 4060.00                                 [lupp_norm (A) - window for f_obs]
4.464384E-18                             [fobs_norm (in input units)]

## S/N
 3691.00                                 [llow_SN (A) - window for S/N]
 7268.00                                 [lupp_SN (A) - window for S/N]
   3.234                                 [S/N in S/N window]
   1.459                                 [S/N in norm. window]
   0.013                                 [S/N_err in S/N window]
   0.006                                 [S/N_err in norm. window]
  1.0000                                 [fscale_chi2]

## etc...
    -2007207                             [idum_orig]
  2406                                   [NOl_eff]
  2392                                   [Nl_eff]
    14    NSIGMA                         [Ntot_cliped & clip_method]
  6107430                                [Nglobal_steps]
   7                                     [N_chains]
  44                                     [NEX0s_base = N_base in EX0s-fits]
 0   0   1       14   2.0   6.942E+02    [Clip-Bug, RC-Crash & Burn-In warning-flags, n_censored_weights, wei_nsig_threshold & wei_limit]
   390    389.332    388.482      0.850  [idt_all, wdt_TotTime, wdt_UsrTime & wdt_SysTime (sec)]

## Synthesis Results - Best model ##

 2.06949E-05                             [chi2/Nl_eff]
    61.85048                             [adev (%)]

   130.00000                             [sum-of-x (%)]
 9.81015E-16                             [Flux_tot (units of input spectrum!)]
 1.92495E-13                             [Mini_tot (???)]
 1.37282E-13                             [Mcor_tot (???)]

   0.00                                  [v0_min  (km/s)]
 150.00                                  [vd_min  (km/s)]
 3.8196                                  [AV_min  (mag)]
 0.0000                                  [YAV_min (mag)]

# j     x_j(%)      Mini_j(%)     Mcor_j(%)     age_j(yr)     Z_j      (L/M)_j    YAV?  Mstars   component_j        a/Fe...       SSP_chi2r SSP_adev(%)   SSP_AV   SSP_x(%)
  1     19.4569     6.9722E+00    9.7763E+00    1.000000E+06  0.00400  1.094E-02    0   1.0000   age020_m42            0.0000     1.6300E-05    68.4780   3.8823   155.6115
  2      0.0000     0.0000E+00    0.0000E+00    3.160000E+06  0.00400  4.007E-02    0   0.9999   age045_m42            0.0000     1.6858E-05    67.3187   3.1687   165.2538
  3      1.7672     2.7285E-01    3.6300E-01    5.010000E+06  0.00400  2.539E-02    0   0.9488   age055_m42            0.0000     1.6713E-05    68.6384   3.4848   161.5473
  4      8.6184     1.2895E+00    1.6672E+00    6.610000E+06  0.00400  2.620E-02    0   0.9220   age061_m42            0.0000     1.7154E-05    67.9419   3.0977   165.4090
  5      0.0000     0.0000E+00    0.0000E+00    1.000000E+07  0.00400  1.322E-02    0   0.8862   age070_m42            0.0000     1.8510E-05    70.8693   2.8211   168.5462
  6      0.0000     0.0000E+00    0.0000E+00    1.445000E+07  0.00400  7.883E-03    0   0.8571   age078_m42            0.0000     1.8126E-05    70.9556   3.1438   164.6279
  7      0.0000     0.0000E+00    0.0000E+00    2.512000E+07  0.00400  5.251E-03    0   0.8174   age090_m42            0.0000     1.8863E-05    71.3014   2.6932   169.3453
  8      0.0000     0.0000E+00    0.0000E+00    4.000000E+07  0.00400  3.649E-03    0   0.7851   age104_m42            0.0000     1.8824E-05    70.5215   2.4679   170.6091
  9      0.0000     0.0000E+00    0.0000E+00    5.500000E+07  0.00400  3.098E-03    0   0.7629   age110_m42            0.0000     1.8339E-05    68.8262   2.6201   170.6528
 10      0.0000     0.0000E+00    0.0000E+00    1.015200E+08  0.00400  2.228E-03    0   0.7207   age116_m42            0.0000     1.8145E-05    67.7993   2.6415   170.8583
 11      0.0000     0.0000E+00    0.0000E+00    2.861200E+08  0.00400  1.093E-03    0   0.6648   age125_m42            0.0000     1.9140E-05    68.6272   2.0724   175.5843
 12      3.9823     2.3665E+01    2.1121E+01    5.088000E+08  0.00400  6.597E-04    0   0.6365   age130_m42            0.0000     1.8745E-05    66.9441   2.0636   176.9527
 13      0.0000     0.0000E+00    0.0000E+00    1.434000E+09  0.00400  2.132E-04    0   0.5798   age139_m42            0.0000     1.8668E-05    64.9467   1.0990   180.0731
 14      0.0000     0.0000E+00    0.0000E+00    4.250000E+09  0.00400  5.895E-05    0   0.5377   age158_m42            0.0000     1.7544E-05    64.0854   0.6537   173.5943
 15      0.0000     0.0000E+00    0.0000E+00    7.500000E+09  0.00400  3.510E-05    0   0.5212   age171_m42            0.0000     1.7440E-05    63.3123   0.4649   172.4103
 16      0.0000     0.0000E+00    0.0000E+00    1.300000E+10  0.00400  2.005E-05    0   0.5034   age193_m42            0.0000     1.7418E-05    62.3006   0.2984   171.4501
 17      0.0000     0.0000E+00    0.0000E+00    1.800000E+10  0.00400  1.525E-05    0   0.4967   age213_m42            0.0000     1.7411E-05    62.5940   0.2752   170.7487
 18     10.3272     3.2702E+00    4.5855E+00    1.000000E+06  0.00800  1.238E-02    0   1.0000   age020_m52            0.0000     1.6290E-05    68.5279   3.8794   155.8809
 19      0.0000     0.0000E+00    0.0000E+00    3.160000E+06  0.00800  3.074E-02    0   0.9966   age045_m52            0.0000     1.6298E-05    68.6758   3.8027   157.2661
 20      0.0000     0.0000E+00    0.0000E+00    5.010000E+06  0.00800  2.668E-02    0   0.9443   age055_m52            0.0000     1.6688E-05    68.8713   3.5661   160.2368
 21      2.4246     4.4499E-01    5.7261E-01    6.610000E+06  0.00800  2.136E-02    0   0.9177   age061_m52            0.0000     1.8227E-05    70.5740   2.3236   170.4345
 22      8.3120     2.6819E+00    3.3194E+00    1.000000E+07  0.00800  1.215E-02    0   0.8827   age070_m52            0.0000     1.8853E-05    71.9455   2.9978   168.2870
 23      7.0119     3.1534E+00    3.7815E+00    1.445000E+07  0.00800  8.717E-03    0   0.8552   age078_m52            0.0000     1.8244E-05    70.9165   3.1113   166.7717
 24     11.1019     7.7830E+00    8.9073E+00    2.512000E+07  0.00800  5.592E-03    0   0.8162   age090_m52            0.0000     1.9046E-05    71.3238   2.7575   171.2417
 25      0.0000     0.0000E+00    0.0000E+00    4.000000E+07  0.00800  3.896E-03    0   0.7841   age104_m52            0.0000     1.8902E-05    70.4824   2.6689   172.5336
 26      2.5521     4.6577E+00    4.7193E+00    1.015200E+08  0.00800  2.148E-03    0   0.7226   age116_m52            0.0000     1.8452E-05    68.9674   2.6105   172.0690
 27      0.0000     0.0000E+00    0.0000E+00    2.861200E+08  0.00800  9.925E-04    0   0.6683   age125_m52            0.0000     1.8835E-05    66.5439   2.1272   178.6643
 28      0.0000     0.0000E+00    0.0000E+00    9.047900E+08  0.00800  3.141E-04    0   0.6138   age135_m52            0.0000     1.8654E-05    63.8248   1.3328   185.5645
 29      0.0000     0.0000E+00    0.0000E+00    1.434000E+09  0.00800  1.719E-04    0   0.5853   age139_m52            0.0000     1.8298E-05    64.2744   0.7495   182.0184
 30      0.0000     0.0000E+00    0.0000E+00    2.500000E+09  0.00800  7.872E-05    0   0.5600   age150_m52            0.0000     1.7462E-05    62.7115   0.4815   177.3416
 31      0.0000     0.0000E+00    0.0000E+00    4.250000E+09  0.00800  4.336E-05    0   0.5426   age158_m52            0.0000     1.7402E-05    62.8602   0.4661   175.7193
 32      0.2480     3.0777E+01    2.2954E+01    6.250000E+09  0.00800  3.159E-05    0   0.5319   age166_m52            0.0000     1.7355E-05    61.3542   0.2647   175.6081
 33      0.0000     0.0000E+00    0.0000E+00    1.300000E+10  0.00800  1.361E-05    0   0.5073   age193_m52            0.0000     1.7453E-05    59.2360  -0.2035   174.3530
 34      0.0000     0.0000E+00    0.0000E+00    1.800000E+10  0.00800  9.886E-06    0   0.4990   age213_m52            0.0000     1.7431E-05    57.6345  -0.3131   173.5288
 35     21.0275     5.3389E+00    7.4862E+00    1.000000E+06  0.02000  1.544E-02    0   1.0000   age020_m62            0.0000     1.6288E-05    68.6278   3.8747   156.2902
 36     27.0599     2.8198E+00    3.8978E+00    3.160000E+06  0.02000  3.762E-02    0   0.9858   age045_m62            0.0000     1.6329E-05    68.7836   3.8145   157.6061
 37      0.0000     0.0000E+00    0.0000E+00    5.010000E+06  0.02000  3.296E-02    0   0.9342   age055_m62            0.0000     1.6713E-05    67.8456   3.4450   163.4948
 38      0.0000     0.0000E+00    0.0000E+00    8.710000E+06  0.02000  1.154E-02    0   0.8861   age067_m62            0.0000     2.2384E-05    77.9049   2.4538   172.4095
 39      0.0000     0.0000E+00    0.0000E+00    1.445000E+07  0.02000  7.663E-03    0   0.8472   age078_m62            0.0000     1.9941E-05    73.7262   2.6452   171.8556
 40      0.0000     0.0000E+00    0.0000E+00    2.512000E+07  0.02000  4.532E-03    0   0.8099   age090_m62            0.0000     2.0274E-05    74.1955   2.6379   171.2609
 41      0.0000     0.0000E+00    0.0000E+00    5.500000E+07  0.02000  2.733E-03    0   0.7595   age110_m62            0.0000     1.8855E-05    70.6324   2.6520   171.3018
 42      0.0000     0.0000E+00    0.0000E+00    1.609000E+08  0.02000  1.369E-03    0   0.6985   age120_m62            0.0000     1.8698E-05    67.7368   2.4922   175.7733
 43      0.0000     0.0000E+00    0.0000E+00    2.861200E+08  0.02000  9.013E-04    0   0.6714   age125_m62            0.0000     1.8863E-05    65.8043   2.2446   180.5434
 44      0.0000     0.0000E+00    0.0000E+00    5.088000E+08  0.02000  5.028E-04    0   0.6449   age130_m62            0.0000     1.8447E-05    62.8716   1.8677   185.1518
 45      0.0000     0.0000E+00    0.0000E+00    9.047900E+08  0.02000  2.428E-04    0   0.6179   age135_m62            0.0000     1.7908E-05    62.7869   1.2780   184.2807
 46      0.0000     0.0000E+00    0.0000E+00    1.434000E+09  0.02000  1.263E-04    0   0.5908   age139_m62            0.0000     1.7650E-05    62.7562   0.8336   181.6485
 47      0.0000     0.0000E+00    0.0000E+00    2.500000E+09  0.02000  5.985E-05    0   0.5673   age150_m62            0.0000     1.7239E-05    61.3635   0.4663   179.2748
 48      0.0000     0.0000E+00    0.0000E+00    4.250000E+09  0.02000  3.271E-05    0   0.5468   age158_m62            0.0000     1.7244E-05    59.0664   0.1593   177.7640
 49      0.0000     0.0000E+00    0.0000E+00    1.000000E+10  0.02000  1.360E-05    0   0.5167   age181_m62            0.0000     1.7475E-05    56.2956  -0.1891   176.8947
 50      0.0000     0.0000E+00    0.0000E+00    1.800000E+10  0.02000  7.124E-06    0   0.5013   age213_m62            0.0000     1.7608E-05    54.2361  -0.4021   175.5711
 51      0.0000     0.0000E+00    0.0000E+00    1.000000E+06  0.05000  2.592E-02    0   0.9998   age020_m72            0.0000     1.6300E-05    68.9893   3.8670   156.3287
 52      0.0000     0.0000E+00    0.0000E+00    3.160000E+06  0.05000  4.845E-02    0   0.9577   age045_m72            0.0000     1.6362E-05    68.3893   3.6996   159.5029
 53      0.0000     0.0000E+00    0.0000E+00    5.010000E+06  0.05000  3.072E-02    0   0.9147   age055_m72            0.0000     1.8621E-05    72.3845   3.2183   166.0785
 54      2.6683     7.1892E-01    8.9486E-01    6.610000E+06  0.05000  1.455E-02    0   0.8877   age061_m72            0.0000     2.4875E-05    81.7627   2.4775   174.2107
 55      0.0000     0.0000E+00    0.0000E+00    1.000000E+07  0.05000  9.074E-03    0   0.8524   age070_m72            0.0000     1.9124E-05    73.0092   3.3829   166.1017
 56      3.3732     3.1115E+00    3.4475E+00    2.512000E+07  0.05000  4.250E-03    0   0.7902   age090_m72            0.0000     1.9230E-05    72.3050   3.0989   168.5215
 57      0.0000     0.0000E+00    0.0000E+00    4.000000E+07  0.05000  3.087E-03    0   0.7618   age104_m72            0.0000     1.9712E-05    72.3376   2.8744   171.0522
 58      0.0000     0.0000E+00    0.0000E+00    1.015200E+08  0.05000  1.700E-03    0   0.7096   age116_m72            0.0000     1.9086E-05    69.0539   2.6319   175.1324
 59      0.0000     0.0000E+00    0.0000E+00    2.861200E+08  0.05000  7.384E-04    0   0.6633   age125_m72            0.0000     1.8590E-05    63.8498   2.1130   182.9518
 60      0.0000     0.0000E+00    0.0000E+00    5.088000E+08  0.05000  3.819E-04    0   0.6372   age130_m72            0.0000     1.7934E-05    61.9975   1.6201   185.9830
 61      0.0000     0.0000E+00    0.0000E+00    9.047900E+08  0.05000  1.676E-04    0   0.6110   age135_m72            0.0000     1.7054E-05    60.2521   0.9194   183.0944
 62      0.0686     3.0436E+00    2.5069E+00    1.434000E+09  0.05000  8.837E-05    0   0.5874   age139_m72            0.0000     1.7370E-05    60.4101   0.4635   181.9637
 63      0.0000     0.0000E+00    0.0000E+00    2.500000E+09  0.05000  4.233E-05    0   0.5598   age150_m72            0.0000     1.7163E-05    58.3984   0.1543   179.5754
 64      0.0000     0.0000E+00    0.0000E+00    6.250000E+09  0.05000  1.435E-05    0   0.5249   age166_m72            0.0000     1.7373E-05    55.6620  -0.2922   176.5662
 65      0.0000     0.0000E+00    0.0000E+00    1.300000E+10  0.05000  6.513E-06    0   0.5036   age193_m72            0.0000     1.7729E-05    53.0678  -0.5716   177.9646
 66      0.0000     0.0000E+00    0.0000E+00    1.800000E+10  0.05000  4.527E-06    0   0.4945   age213_m72            0.0000     1.7929E-05    51.4743  -0.7364   177.6803


## Synthesis Results - Average & Chains ##

# j      x_j: min, <> & last-chain-values for 1 ...  7 chains
  1     19.4569      1.5194      0.2725      0.0517      0.2747      0.8308      0.0000      0.3577      0.0243
  2      0.0000      1.6788      0.1270      0.9506      1.0388      0.0000      0.0000      0.1884      0.0000
  3      1.7672      1.5146      0.1652      0.0570      0.1662      0.0000      0.6365      2.1572      0.0000
  4      8.6184      1.5866      0.3732      0.0000      0.3199      0.3481      0.0000      0.2129      0.0000
  5      0.0000      1.6559      0.1403      0.9255      0.0000      1.5620      0.2931      0.8446      0.7671
  6      0.0000      1.7718      0.1188      0.0000      0.2491      0.1239      0.0000      0.0000      0.0000
  7      0.0000      1.1883      0.1956      0.0000      0.0000      0.1590      0.0000      0.4210      0.2730
  8      0.0000      1.5718      0.2255      0.0000      1.3958      0.1827      0.0652      0.4488      0.0000
  9      0.0000      1.5787      0.0867      0.6268      0.0000      0.0000      0.3241      2.4782      0.0072
 10      0.0000      1.0762      0.1119      0.0000      0.0401      0.0000      0.0000      0.0000      0.0000
 11      0.0000      1.3450      0.1384      0.4546      0.6020      1.6021      0.2065      0.0000      1.1757
 12      3.9823      1.2553      0.3797      0.0000      0.0000      0.0000      0.0046      0.6430      0.0001
 13      0.0000      1.4551      0.3950      0.2667      0.0617      1.8680      0.0000      0.9984      0.0000
 14      0.0000      1.5237      0.3051      0.4943      2.3002      0.0000      0.4188      0.0314      1.7206
 15      0.0000      1.7136      0.1002      0.0000      1.5072      0.0000      0.4561      0.5764      0.5122
 16      0.0000      2.8294      5.8257      4.0604      5.4674      8.5625      6.4324      3.2977      6.7813
 17      0.0000     19.1620     50.1476     50.3180     56.2201     45.3395     55.3004     54.1385    101.2063
 18     10.3272      1.4208      0.2307      1.8437      0.7247      0.0726      1.5696      0.0569      0.2233
 19      0.0000      1.4770      0.2712      0.5964      1.4914      2.4304      0.6761      0.0475      0.4707
 20      0.0000      1.3732      0.1082      0.2035      0.2796      0.4016      0.9567      0.8250      0.2016
 21      2.4246      2.1231      0.1605      0.2513      0.6210      0.3672      0.0000      0.8246      0.0931
 22      8.3120      0.9288      0.3888      0.2044      0.0620      0.4712      0.4415      0.2419      0.2582
 23      7.0119      1.6495      0.1977      0.1189      0.0000      0.4659      0.8082      1.4850      0.0000
 24     11.1019      1.3374      0.2029      0.6821      1.2088      3.4584      0.0000      0.3030      0.4902
 25      0.0000      1.4628      0.1283      0.9937      0.0000      0.0000      0.0000      0.0000      0.5939
 26      2.5521      1.5479      0.1721      0.3465      0.2753      0.0000      0.7211      0.8680      0.6119
 27      0.0000      1.0781      0.2269      0.0101      0.0000      0.0607      0.0001      0.0000      0.1856
 28      0.0000      1.6433      0.2156      0.0000      0.0000      0.0000      0.3031      0.1155      0.0577
 29      0.0000      1.4415      0.2012      0.8342      0.0551      1.3540      0.1142      0.4728      0.0835
 30      0.0000      1.0747      0.0960      1.7093      0.0000      0.1955      0.3833      0.4257      0.3294
 31      0.0000      1.4976      0.1349      1.7759      0.3794      0.4945      1.4018      0.4258      0.1262
 32      0.2480      1.5764      0.3781      0.5563      1.1853      0.4865      0.3539      1.9355      2.4858
 33      0.0000      2.1425      0.2492      0.7111      0.6093      0.7580      0.6855      0.1823      0.0000
 34      0.0000     14.9402     61.6656     46.0266     45.0462     44.3862     47.0055     45.7491      1.2713
 35     21.0275      1.0355      0.1809      0.0000      0.0000      0.2091      0.0000      0.1705      0.3067
 36     27.0599      1.3525      0.2202      0.1642      0.0000      0.5427      0.0000      0.0000      0.1900
 37      0.0000      1.8101      0.0804      0.6065      0.5105      0.5403      0.0000      0.0102      0.2964
 38      0.0000      1.3157      0.4184      0.3778      0.1633      0.0000      0.6202      0.0417      0.9877
 39      0.0000      1.3678      0.1780      0.8183      0.0000      0.0081      0.3413      0.9566      0.5201
 40      0.0000      1.5747      0.1660      0.0000      0.0000      0.7470      0.5189      0.0724      0.0000
 41      0.0000      1.1141      0.2307      0.0000      0.4289      0.8575      0.0000      0.5825      0.6877
 42      0.0000      1.3267      0.1370      0.4624      0.4905      0.5572      0.1078      0.6365      0.0000
 43      0.0000      1.1915      0.1018      0.1078      0.0000      0.1909      0.0000      1.0145      0.0000
 44      0.0000      2.0930      0.2400      1.1567      0.0000      0.2347      0.3290      0.3768      0.4551
 45      0.0000      1.7511      0.0978      0.5463      0.0000      0.0351      2.5420      0.0000      0.0000
 46      0.0000      1.5725      0.1872      0.0000      0.0000      0.0000      0.4089      0.0883      0.0000
 47      0.0000      1.9104      0.2085      0.0000      0.0000      0.3353      0.3168      0.3148      0.4708
 48      0.0000      1.5166      0.1077      1.0120      0.7889      0.3624      0.5797      1.3681      0.2789
 49      0.0000      1.1964      0.0983      0.0280      0.7928      0.0964      1.4576      0.0347      0.5485
 50      0.0000      1.5636      0.2087      0.5973      0.4285      0.0000      0.3387      0.3326      0.1057
 51      0.0000      1.2816      0.1452      0.5407      0.1503      1.4410      0.0000      0.0854      0.0610
 52      0.0000      1.6675      0.1542      1.6398      0.5710      0.2102      0.0000      0.6311      0.1336
 53      0.0000      1.3553      0.0647      0.0000      0.0692      0.0000      0.0000      0.1270      0.0000
 54      2.6683      1.5258      0.2206      0.5444      0.3081      0.0436      0.3126      0.1676      0.0000
 55      0.0000      1.3546      0.2625      0.2581      0.2411      0.2990      0.2050      0.1635      0.0000
 56      3.3732      1.0719      0.2145      0.3066      0.7117      0.2703      0.3602      0.1832      0.0000
 57      0.0000      1.5647      0.3662      0.2378      0.1825      0.0000      0.6055      0.0816      0.7665
 58      0.0000      0.9137      0.1880      0.0000      0.0000      1.5954      0.5422      0.0000      0.0000
 59      0.0000      1.0175      0.1640      0.0000      0.6207      0.0000      0.0000      0.0000      0.3656
 60      0.0000      1.3437      0.1592      1.3923      0.2043      0.3000      0.0322      0.1577      0.7166
 61      0.0000      1.4394      0.1798      0.2472      0.0000      0.3412      0.0103      0.7072      0.0326
 62      0.0686      1.0994      0.1582      1.1706      0.2747      0.0000      0.0000      0.0000      0.7979
 63      0.0000      1.6027      0.2741      0.7858      0.5435      2.5301      0.2641      0.0000      0.9402
 64      0.0000      1.8056      0.1670      0.2353      0.0000      0.1487      0.1489      0.0178      0.9714
 65      0.0000      1.6662      0.0483      0.7028      0.8955      2.1224      0.0502      0.3743      0.1932
 66      0.0000      1.6176      0.1509      0.3916      0.0427      0.0000      0.3004      0.4573      0.2237

# j      m_j: min, <> & last-chain-values for 1 ...  7 chains
  1  9.7763E+00  6.1306E-03  5.0071E-04  1.0910E-04  5.5890E-04  1.8048E-03  0.0000E+00  7.5106E-04  5.9535E-05
  2  0.0000E+00  1.8492E-03  6.3691E-05  5.4732E-04  5.7701E-04  0.0000E+00  0.0000E+00  1.0795E-04  0.0000E+00
  3  3.6300E-01  2.4984E-03  1.2411E-04  4.9148E-05  1.3822E-04  0.0000E+00  5.2315E-04  1.8515E-03  0.0000E+00
  4  1.6672E+00  2.4647E-03  2.6407E-04  0.0000E+00  2.5061E-04  2.9112E-04  0.0000E+00  1.7207E-04  0.0000E+00
  5  0.0000E+00  4.9000E-03  1.8914E-04  1.4314E-03  0.0000E+00  2.4886E-03  4.3209E-04  1.3004E-03  1.3769E-03
  6  0.0000E+00  8.5035E-03  2.5959E-04  0.0000E+00  6.0285E-04  3.2029E-04  0.0000E+00  0.0000E+00  0.0000E+00
  7  0.0000E+00  8.1654E-03  6.1211E-04  0.0000E+00  0.0000E+00  5.8815E-04  0.0000E+00  1.5052E-03  1.1378E-03
  8  0.0000E+00  1.4928E-02  9.7542E-04  0.0000E+00  6.6852E-03  9.3422E-04  3.0851E-04  2.2180E-03  0.0000E+00
  9  0.0000E+00  1.7161E-02  4.2928E-04  3.5612E-03  0.0000E+00  0.0000E+00  1.7553E-03  1.4017E-02  4.7723E-05
 10  0.0000E+00  1.5367E-02  7.2780E-04  0.0000E+00  2.8845E-04  0.0000E+00  0.0000E+00  0.0000E+00  0.0000E+00
 11  0.0000E+00  3.6111E-02  1.6922E-03  6.3791E-03  8.1509E-03  2.3159E-02  2.7628E-03  0.0000E+00  1.9149E-02
 12  2.1121E+01  5.3464E-02  7.3648E-03  0.0000E+00  0.0000E+00  0.0000E+00  9.6563E-05  1.4248E-02  3.7310E-06
 13  0.0000E+00  1.7468E-01  2.1595E-02  1.6734E-02  3.7352E-03  1.2074E-01  0.0000E+00  6.2360E-02  0.0000E+00
 14  0.0000E+00  6.1349E-01  5.5955E-02  1.0403E-01  4.6703E-01  0.0000E+00  8.4017E-02  6.5784E-03  4.2024E-01
 15  0.0000E+00  1.1232E+00  2.9925E-02  0.0000E+00  4.9820E-01  0.0000E+00  1.4896E-01  1.9656E-01  2.0365E-01
 16  0.0000E+00  3.1357E+00  2.9407E+00  2.3521E+00  3.0557E+00  5.1094E+00  3.5521E+00  1.9016E+00  4.5592E+00
 17  0.0000E+00  2.7550E+01  3.2838E+01  3.7813E+01  4.0761E+01  3.5097E+01  3.9616E+01  4.0499E+01  8.8268E+01
 18  4.5855E+00  5.0662E-03  3.7463E-04  3.4360E-03  1.3031E-03  1.3946E-04  2.7885E-03  1.0563E-04  4.8307E-04
 19  0.0000E+00  2.1138E-03  1.7675E-04  4.4609E-04  1.0763E-03  1.8727E-03  4.8212E-04  3.5337E-05  4.0861E-04
 20  0.0000E+00  2.1454E-03  7.6999E-05  1.6615E-04  2.2029E-04  3.3780E-04  7.4472E-04  6.7063E-04  1.9111E-04
 21  5.7261E-01  4.0265E-03  1.3860E-04  2.4915E-04  5.9390E-04  3.7494E-04  0.0000E+00  8.1369E-04  1.0707E-04
 22  3.3194E+00  2.9787E-03  5.6790E-04  3.4262E-04  1.0031E-04  8.1360E-04  7.0554E-04  4.0367E-04  5.0225E-04
 23  3.7815E+00  7.1436E-03  3.8996E-04  2.6903E-04  0.0000E+00  1.0864E-03  1.7439E-03  3.3461E-03  0.0000E+00
 24  8.9073E+00  8.6168E-03  5.9545E-04  2.2971E-03  3.9274E-03  1.1997E-02  0.0000E+00  1.0156E-03  1.9158E-03
 25  0.0000E+00  1.2995E-02  5.1922E-04  4.6144E-03  0.0000E+00  0.0000E+00  0.0000E+00  0.0000E+00  3.2007E-03
 26  4.7193E+00  2.2986E-02  1.1643E-03  2.6897E-03  2.0619E-03  0.0000E+00  5.3353E-03  6.7067E-03  5.5120E-03
 27  0.0000E+00  3.2043E-02  3.0716E-03  1.5720E-04  0.0000E+00  9.7143E-04  1.5812E-06  0.0000E+00  3.3466E-03
 28  0.0000E+00  1.4175E-01  8.4703E-03  0.0000E+00  0.0000E+00  0.0000E+00  1.3029E-02  5.1833E-03  3.0204E-03
 29  0.0000E+00  2.1666E-01  1.3774E-02  6.5535E-02  4.1790E-03  1.0957E-01  8.5531E-03  3.6973E-02  7.6100E-03
 30  0.0000E+00  3.3747E-01  1.3732E-02  2.8055E-01  0.0000E+00  3.3060E-02  5.9974E-02  6.9556E-02  6.2740E-02
 31  0.0000E+00  8.2723E-01  3.3935E-02  5.1275E-01  1.0567E-01  1.4706E-01  3.8582E-01  1.2239E-01  4.2285E-02
 32  2.2954E+01  1.1716E+00  1.2800E-01  2.1613E-01  4.4425E-01  1.9470E-01  1.3107E-01  7.4851E-01  1.1208E+00
 33  0.0000E+00  3.5252E+00  1.8675E-01  6.1153E-01  5.0556E-01  6.7154E-01  5.6202E-01  1.5605E-01  0.0000E+00
 34  0.0000E+00  3.3288E+01  6.2578E+01  5.3602E+01  5.0613E+01  5.3248E+01  5.2185E+01  5.3037E+01  1.7183E+00
 35  7.4862E+00  2.9605E-03  2.3559E-04  0.0000E+00  0.0000E+00  3.2191E-04  0.0000E+00  2.5358E-04  5.3186E-04
 36  3.8978E+00  1.5645E-03  1.1600E-04  9.9247E-05  0.0000E+00  3.3800E-04  0.0000E+00  0.0000E+00  1.3330E-04
 37  0.0000E+00  2.2647E-03  4.5819E-05  3.9659E-04  3.2209E-04  3.6398E-04  0.0000E+00  6.6501E-06  2.2493E-04
 38  0.0000E+00  4.4594E-03  6.4587E-04  6.6935E-04  2.7905E-04  0.0000E+00  1.0473E-03  7.3571E-05  2.0308E-03
 39  0.0000E+00  6.6752E-03  3.9561E-04  2.0872E-03  0.0000E+00  2.1217E-05  8.2995E-04  2.4290E-03  1.5398E-03
 40  0.0000E+00  1.2422E-02  5.9631E-04  0.0000E+00  0.0000E+00  3.1727E-03  2.0396E-03  2.9705E-04  0.0000E+00
 41  0.0000E+00  1.3667E-02  1.2889E-03  0.0000E+00  2.6532E-03  5.6635E-03  0.0000E+00  3.7178E-03  5.1175E-03
 42  0.0000E+00  2.9881E-02  1.4057E-03  5.4430E-03  5.5704E-03  6.7569E-03  1.2102E-03  7.4593E-03  0.0000E+00
 43  0.0000E+00  3.9179E-02  1.5247E-03  1.8530E-03  0.0000E+00  3.3801E-03  0.0000E+00  1.7357E-02  0.0000E+00
 44  0.0000E+00  1.1850E-01  6.1895E-03  3.4229E-02  0.0000E+00  7.1560E-03  9.2811E-03  1.1101E-02  1.5632E-02
 45  0.0000E+00  1.9671E-01  5.0016E-03  3.2076E-02  0.0000E+00  2.1218E-03  1.4228E-01  0.0000E+00  0.0000E+00
 46  0.0000E+00  3.2470E-01  1.7609E-02  0.0000E+00  0.0000E+00  0.0000E+00  4.2068E-02  9.4911E-03  0.0000E+00
 47  0.0000E+00  7.9932E-01  3.9732E-02  0.0000E+00  0.0000E+00  7.5546E-02  6.6053E-02  6.8537E-02  1.1951E-01
 48  0.0000E+00  1.1191E+00  3.6186E-02  3.9031E-01  2.9357E-01  1.4398E-01  2.1314E-01  5.2527E-01  1.2484E-01
 49  0.0000E+00  2.0064E+00  7.5081E-02  2.4572E-02  6.7047E-01  8.7068E-02  1.2180E+00  3.0258E-02  5.5803E-01
 50  0.0000E+00  4.8569E+00  2.9520E-01  9.6979E-01  6.7118E-01  0.0000E+00  5.2425E-01  5.3751E-01  1.9914E-01
 51  0.0000E+00  2.1822E-03  1.1262E-04  4.8121E-04  1.2903E-04  1.3210E-03  0.0000E+00  7.5672E-05  6.3013E-05
 52  0.0000E+00  1.4549E-03  6.1284E-05  7.4784E-04  2.5126E-04  9.8732E-05  0.0000E+00  2.8654E-04  7.0698E-05
 53  0.0000E+00  1.7813E-03  3.8706E-05  0.0000E+00  4.5852E-05  0.0000E+00  0.0000E+00  8.6864E-05  0.0000E+00
 54  8.9486E-01  4.1091E-03  2.7055E-04  7.6629E-04  4.1837E-04  6.3176E-05  4.1943E-04  2.3484E-04  0.0000E+00
 55  0.0000E+00  5.6168E-03  4.9572E-04  5.5945E-04  5.0420E-04  6.6752E-04  4.2362E-04  3.5284E-04  0.0000E+00
 56  3.4475E+00  8.7976E-03  8.0186E-04  1.3151E-03  2.9456E-03  1.1944E-03  1.4732E-03  7.8248E-04  0.0000E+00
 57  0.0000E+00  1.7044E-02  1.8171E-03  1.3539E-03  1.0022E-03  0.0000E+00  3.2863E-03  4.6271E-04  5.0652E-03
 58  0.0000E+00  1.6834E-02  1.5780E-03  0.0000E+00  0.0000E+00  1.5827E-02  4.9779E-03  0.0000E+00  0.0000E+00
 59  0.0000E+00  4.0345E-02  2.9624E-03  0.0000E+00  1.2411E-02  0.0000E+00  0.0000E+00  0.0000E+00  8.7939E-03
 60  0.0000E+00  9.8964E-02  5.3400E-03  5.3596E-02  7.5895E-03  1.1897E-02  1.1799E-03  6.0430E-03  3.2018E-02
 61  0.0000E+00  2.3164E-01  1.3180E-02  2.0793E-02  0.0000E+00  2.9561E-02  8.2435E-04  5.9210E-02  3.1864E-03
 62  2.5069E+00  3.2258E-01  2.1145E-02  1.7952E-01  4.0646E-02  0.0000E+00  0.0000E+00  0.0000E+00  1.4202E-01
 63  0.0000E+00  9.3562E-01  7.2874E-02  2.3978E-01  1.5999E-01  7.9525E-01  7.6815E-02  0.0000E+00  3.3294E-01
 64  0.0000E+00  2.9154E+00  1.2280E-01  1.9861E-01  0.0000E+00  1.2931E-01  1.1979E-01  1.4993E-02  9.5150E-01
 65  0.0000E+00  5.6870E+00  7.5027E-02  1.2539E+00  1.5413E+00  3.9004E+00  8.5445E-02  6.6471E-01  3.9997E-01
 66  0.0000E+00  7.7996E+00  3.3140E-01  9.8681E-01  1.0385E-01  0.0000E+00  7.2162E-01  1.1473E+00  6.5431E-01

# AV, chi2 & Mass for <> & i_chain = 1 ...  7 solutions
AV       3.8196      0.8346      0.6604      0.8286      0.7819      0.8695      0.7639      0.8338      0.9637
chi2 2.0695E-05  3.6209E-05  2.1595E-05  2.2037E-05  2.1722E-05  2.2043E-05  2.1730E-05  2.1928E-05  2.1610E-05
Mass 1.3728E-13  3.1027E-13  5.3907E-13  5.8887E-13  5.7325E-13  6.0390E-13  5.6631E-13  5.9569E-13  6.0825E-13
   0.00                                  [v0_min (km/s) before EX0s...]
 150.00                                  [vd_min (km/s) before EX0s...]


## Synthetic spectrum (Best Model) ##l_obs f_obs f_syn wei
 3478    [Nl_obs]
 3741.00    0.84154   1.04780    0.000
 3742.00    1.58373   1.05274    0.000
 3743.00    2.29501   1.04825    0.000
 3744.00    2.47271   1.03495    0.000
 3745.00    2.33953   1.01284    0.013
 3746.00    2.48258   0.98288    0.013
 3747.00    2.76590   0.94802    0.013
 3748.00    2.03863   0.91316    0.013
 3749.00    0.86698   0.88593    0.013
 3750.00   -0.14957   0.87481    0.000
 3751.00   -1.10755   0.88372    0.000
 3752.00   -1.97417   0.90906    0.000
 3753.00   -2.81150   0.94294    0.000
 3754.00   -2.29659   0.97783    0.000
 3755.00   -1.41930   1.00900    0.000
 3756.00   -1.25134   1.03405    0.000
 3757.00   -1.23906   1.05242    0.000
 3758.00   -0.47036   1.06549    0.000
 3759.00    0.43037   1.07430    0.012
 3760.00    1.10115   1.08030    0.012
 3761.00    1.74138   1.08428    0.012
 3762.00    1.09588   1.08430    0.012
 3763.00    0.32955   1.07832    0.012
 3764.00    1.46970   1.06481    0.012
 3765.00    2.71983   1.04228    0.012
 3766.00    1.90176   1.01020    0.011
 3767.00    1.04176   0.97035    0.011
 3768.00    1.04940   0.92745    0.011
 3769.00    1.06679   0.88899    0.011
 3770.00    1.32077   0.86437    0.011
 3771.00    1.51779   0.86189    0.011
 3772.00    0.96819   0.88269    0.011
 3773.00    0.51117   0.91972    0.011
 3774.00    0.86681   0.96376    0.011
 3775.00    1.18907   1.00717    0.011
 3776.00    1.29490   1.04481    0.010
 3777.00    1.41603   1.07527    0.010
 3778.00    1.61456   1.09930    0.011
 3779.00    1.82557   1.11817    0.011
 3780.00    2.08762   1.13289    0.011
 3781.00    2.01563   1.14369    0.011
 3782.00    0.81065   1.15076    0.011
 3783.00    0.00001   1.15446    0.000
 3784.00    0.31721   1.15512    0.011
 3785.00    0.52036   1.15322    0.011
 3786.00    0.44485   1.14923    0.011
 3787.00    0.02735   1.14279    0.011
 3788.00   -1.11093   1.13326    0.000
 3789.00   -1.06515   1.12005    0.000
 3790.00    1.14949   1.10226    0.011
 3791.00    2.17587   1.07921    0.011
 3792.00    1.30018   1.05051    0.011
 3793.00    0.83852   1.01463    0.011
 3794.00    0.95841   0.97090    0.011
 3795.00    1.00833   0.92284    0.011
 3796.00    0.97176   0.87778    0.011
 3797.00    1.19570   0.84570    0.011
 3798.00    1.70347   0.83661    0.010
 3799.00    1.88469   0.85434    0.011
 3800.00    1.75213   0.89292    0.011
 3801.00    1.52702   0.94149    0.011
 3802.00    1.22350   0.99004    0.011
 3803.00    1.05637   1.03210    0.011
 3804.00    0.99102   1.06540    0.010
 3805.00    0.83961   1.09075    0.010
 3806.00    0.63177   1.11088    0.010
 3807.00    0.80372   1.12897    0.010
 3808.00    1.19363   1.14569    0.010
 3809.00    1.38064   1.15990    0.010
 3810.00    1.46624   1.17091    0.010
 3811.00    1.04391   1.17815    0.010
 3812.00    0.40193   1.18165    0.010
 3813.00    0.54178   1.18209    0.010
 3814.00    0.97158   1.17970    0.010
 3815.00    1.19337   1.17339    0.010
 3816.00    1.34977   1.16161    0.010
 3817.00    0.96092   1.14475    0.010
 3818.00    0.42905   1.12563    0.010
 3819.00    0.47094   1.11001    0.010
 3820.00    0.63575   1.10625    0.010
 3821.00    1.10042   1.11574    0.010
 3822.00    1.61599   1.13057    0.010
 3823.00    1.16406   1.14325    0.010
 3824.00    0.58799   1.14928    0.010
 3825.00    0.57810   1.14708    0.010
 3826.00    0.61902   1.13772    0.010
 3827.00    0.90043   1.12231    0.010
 3828.00    1.19476   1.10099    0.010
 3829.00    1.06264   1.07290    0.010
 3830.00    0.91922   1.03687    0.010
 3831.00    0.54422   0.99212    0.010
 3832.00    0.19607   0.94038    0.010
 3833.00    0.44444   0.88784    0.010
 3834.00    0.66833   0.84389    0.010
 3835.00    0.58772   0.81972    0.010
 3836.00    0.53546   0.82372    0.010
 3837.00    0.72288   0.85430    0.010
 3838.00    0.90671   0.90182    0.010
 3839.00    1.06796   0.95572    0.010
 3840.00    1.11808   1.00721    0.010
 3841.00    0.61980   1.05142    0.010
 3842.00    0.34507   1.08741    0.010
 3843.00    0.96523   1.11594    0.010
 3844.00    1.27078   1.13826    0.010
 3845.00    0.53039   1.15560    0.010
 3846.00    0.16031   1.16911    0.010
 3847.00    0.83013   1.17961    0.000
 3848.00    1.53918   1.18781    0.000
 3849.00    2.34248   1.19429    0.000
 3850.00    2.35473   1.19948    0.000
 3851.00    0.72642   1.20385    0.000
 3852.00   -0.28361   1.20730    0.000
 3853.00   -0.17846   1.20936    0.000
 3854.00    0.17034   1.21005    0.000
 3855.00    0.90342   1.21000    0.000
 3856.00    1.27034   1.21014    0.000
 3857.00    1.13038   1.21130    0.000
 3858.00    0.92342   1.21306    0.000
 3859.00    0.63482   1.21441    0.000
 3860.00    0.50147   1.21517    0.000
 3861.00    0.53489   1.21567    0.000
 3862.00    0.76219   1.21566    0.000
 3863.00    1.17320   1.21483    0.000
 3864.00    1.25725   1.21318    0.000
 3865.00    1.06816   1.21086    0.000
 3866.00    1.12319   1.20809    0.000
 3867.00    1.35778   1.20532    0.000
 3868.00    1.17502   1.20383    0.000
 3869.00    0.72268   1.20303    0.000
 3870.00    0.42325   1.20079    0.000
 3871.00    0.21024   1.19684    0.000
 3872.00    0.13028   1.19304    0.000
 3873.00    0.11577   1.19064    0.000
 3874.00    0.40969   1.18854    0.000
 3875.00    0.83476   1.18527    0.000
 3876.00    1.22225   1.18055    0.000
 3877.00    1.59604   1.17456    0.000
 3878.00    1.66212   1.16674    0.000
 3879.00    1.63332   1.15640    0.000
 3880.00    1.68749   1.14266    0.000
 3881.00    1.76295   1.12403    0.009
 3882.00    1.66225   1.09919    0.009
 3883.00    1.52472   1.06745    0.009
 3884.00    0.83596   1.02767    0.009
 3885.00    0.05631   0.97903    0.009
 3886.00   -0.30428   0.92447    0.000
 3887.00   -0.61298   0.87165    0.000
 3888.00   -0.35931   0.83153    0.000
 3889.00   -0.05752   0.81637    0.000
 3890.00    0.22803   0.83251    0.009
 3891.00    0.51277   0.87408    0.009
 3892.00    0.91112   0.92859    0.009
 3893.00    1.30028   0.98479    0.009
 3894.00    0.97484   1.03512    0.009
 3895.00    0.66122   1.07622    0.009
 3896.00    0.58921   1.10835    0.009
 3897.00    0.50088   1.13328    0.009
 3898.00    0.21939   1.15254    0.009
 3899.00    0.00248   1.16796    0.008
 3900.00    0.31168   1.18133    0.008
 3901.00    0.57157   1.19308    0.008
 3902.00    0.53022   1.20298    0.008
 3903.00    0.55427   1.21108    0.007
 3904.00    0.89296   1.21761    0.007
 3905.00    1.14716   1.22282    0.007
 3906.00    1.07045   1.22738    0.007
 3907.00    0.97708   1.23181    0.008
 3908.00    0.82940   1.23587    0.008
 3909.00    0.80109   1.23896    0.008
 3910.00    1.10195   1.24079    0.008
 3911.00    1.30921   1.24152    0.008
 3912.00    1.29545   1.24196    0.008
 3913.00    1.33760   1.24288    0.009
 3914.00    1.49387   1.24389    0.009
 3915.00    1.46713   1.24387    0.009
 3916.00    1.11534   1.24167    0.009
 3917.00    1.22982   1.23691    0.009
 3918.00    2.06877   1.23007    0.009
 3919.00    2.37140   1.22298    0.009
 3920.00    1.94222   1.21797    0.009
 3921.00    1.48703   1.21599    0.009
 3922.00    1.00058   1.21575    0.009
 3923.00    0.86101   1.21491    0.009
 3924.00    1.08881   1.21307    0.009
 3925.00    1.08070   1.21096    0.009
 3926.00    0.85221   1.20957    0.009
 3927.00    0.88155   1.21085    0.009
 3928.00    1.12322   1.21449    0.009
 3929.00    1.69626   1.21769    0.009
 3930.00    2.50950   1.21857    0.010
 3931.00    2.25768   1.21625    0.010
 3932.00    1.32806   1.21148    0.010
 3933.00    1.09016   1.20718    0.009
 3934.00    1.23724   1.20704    0.009
 3935.00    1.70731   1.21234    0.010
 3936.00    2.33375   1.22140    0.010
 3937.00    2.19913   1.23157    0.010
 3938.00    1.74633   1.24058    0.010
 3939.00    2.07701   1.24725    0.010
 3940.00    2.68793   1.25153    0.010
 3941.00    2.26461   1.25362    0.010
 3942.00    1.52867   1.25393    0.009
 3943.00    0.93423   1.25312    0.009
 3944.00    0.37532   1.25193    0.010
 3945.00    0.24953   1.25123    0.009
 3946.00    0.21205   1.25134    0.009
 3947.00    0.89356   1.25172    0.010
 3948.00    1.69020   1.25192    0.010
 3949.00    1.67018   1.25160    0.010
 3950.00    1.55266   1.25021    0.009
 3951.00    0.85461   1.24744    0.009
 3952.00    0.10929   1.24334    0.009
 3953.00    0.56736   1.23823    0.009
 3954.00    1.08074   1.23284    0.010
 3955.00    1.74662   1.22779    0.009
 3956.00    2.39727   1.22269    0.009
 3957.00    2.15109   1.21647    0.009
 3958.00    1.88642   1.20808    0.010
 3959.00    1.27127   1.19629    0.010
 3960.00    0.66854   1.17987    0.000
 3961.00    0.20569   1.15827    0.000
 3962.00   -0.06490   1.13227    0.000
 3963.00    1.17572   1.10153    0.000
 3964.00    2.27307   1.06451    0.000
 3965.00    2.52023   1.02127    0.000
 3966.00    2.60048   0.97230    0.000
 3967.00    1.89699   0.91891    0.000
 3968.00    1.23726   0.86738    0.000
 3969.00    0.74527   0.82862    0.000
 3970.00    0.58138   0.81459    0.000
 3971.00    1.46621   0.83148    0.000
 3972.00    1.87627   0.87401    0.000
 3973.00    1.00052   0.93035    0.000
 3974.00    0.34786   0.98973    0.000
 3975.00    0.21323   1.04430    0.000
 3976.00    0.22541   1.08994    0.000
 3977.00    0.53248   1.12629    0.000
 3978.00    0.71373   1.15471    0.000
 3979.00    0.67491   1.17666    0.000
 3980.00    0.70589   1.19356    0.000
 3981.00    0.84373   1.20654    0.010
 3982.00    0.92645   1.21673    0.010
 3983.00    0.93506   1.22565    0.010
 3984.00    0.67975   1.23437    0.010
 3985.00    0.11189   1.24281    0.010
 3986.00    0.22307   1.25053    0.010
 3987.00    1.04329   1.25739    0.010
 3988.00    1.45812   1.26322    0.010
 3989.00    1.49956   1.26781    0.010
 3990.00    1.10078   1.27124    0.010
 3991.00    0.34457   1.27370    0.010
 3992.00    0.38844   1.27522    0.010
 3993.00    1.00396   1.27572    0.010
 3994.00    1.45849   1.27540    0.010
 3995.00    1.81207   1.27526    0.010
 3996.00    1.69032   1.27618    0.010
 3997.00    1.30808   1.27784    0.010
 3998.00    1.05797   1.27981    0.009
 3999.00    0.87081   1.28199    0.009
 4000.00    0.80319   1.28380    0.009
 4001.00    0.78470   1.28442    0.010
 4002.00    0.72366   1.28361    0.009
 4003.00    0.64768   1.28157    0.009
 4004.00    0.86338   1.27834    0.009
 4005.00    1.16550   1.27389    0.009
 4006.00    0.92941   1.26857    0.009
 4007.00    0.56110   1.26281    0.009
 4008.00    0.13365   1.25764    0.009
 4009.00   -0.30557   1.25554    0.000
 4010.00   -0.23490   1.25892    0.000
 4011.00   -0.08500   1.26688    0.000
 4012.00    0.14324   1.27625    0.009
 4013.00    0.38049   1.28467    0.009
 4014.00    0.49932   1.29109    0.009
 4015.00    0.60900   1.29523    0.009
 4016.00    1.09889   1.29738    0.010
 4017.00    1.60478   1.29800    0.010
 4018.00    1.31744   1.29733    0.010
 4019.00    1.03601   1.29476    0.010
 4020.00    1.33090   1.28865    0.010
 4021.00    1.59246   1.27695    0.010
 4022.00    1.26657   1.25846    0.010
 4023.00    0.96883   1.23389    0.010
 4024.00    0.97390   1.20663    0.010
 4025.00    1.00000   1.18348    0.010
 4026.00    1.18573   1.17378    0.010
 4027.00    1.19729   1.18329    0.010
 4028.00    0.20428   1.20686    0.010
 4029.00   -0.55142   1.23417    0.000
 4030.00   -0.21960   1.25821    0.000
 4031.00    0.11061   1.27610    0.010
 4032.00    0.43477   1.28787    0.010
 4033.00    0.50189   1.29536    0.010
 4034.00   -0.23680   1.30069    0.000
 4035.00   -0.49941   1.30527    0.000
 4036.00    0.50451   1.30961    0.009
 4037.00    1.17469   1.31321    0.009
 4038.00    1.08280   1.31533    0.010
 4039.00    1.03222   1.31586    0.010
 4040.00    1.06331   1.31518    0.010
 4041.00    0.92748   1.31379    0.010
 4042.00    0.50410   1.31230    0.010
 4043.00    0.37330   1.31095    0.010
 4044.00    0.68387   1.30989    0.010
 4045.00    1.04661   1.30976    0.010
 4046.00    1.47852   1.31099    0.010
 4047.00    1.78613   1.31337    0.010
 4048.00    1.94863   1.31616    0.010
 4049.00    1.61399   1.31858    0.010
 4050.00    0.76752   1.32017    0.010
 4051.00    0.27047   1.32061    0.010
 4052.00    0.09074   1.31995    0.010
 4053.00    0.49632   1.31864    0.010
 4054.00    1.37038   1.31742    0.010
 4055.00    1.56216   1.31694    0.010
 4056.00    1.27353   1.31729    0.010
 4057.00    1.40932   1.31803    0.010
 4058.00    1.80727   1.31839    0.010
 4059.00    2.18999   1.31786    0.010
 4060.00    2.56450   1.31675    0.010
 4061.00    2.17146   1.31566    0.010
 4062.00    1.41867   1.31482    0.010
 4063.00    1.24907   1.31411    0.010
 4064.00    1.31509   1.31328    0.010
 4065.00    1.62450   1.31157    0.010
 4066.00    2.01783   1.30774    0.010
 4067.00    1.37813   1.30142    0.010
 4068.00    0.43847   1.29394    0.010
 4069.00    0.61928   1.28743    0.009
 4070.00    1.06922   1.28391    0.009
 4071.00    1.24383   1.28399    0.009
 4072.00    1.36510   1.28640    0.010
 4073.00    1.51148   1.28942    0.010
 4074.00    1.66164   1.29113    0.010
 4075.00    1.73867   1.29106    0.010
 4076.00    1.80761   1.29135    0.010
 4077.00    1.45887   1.29364    0.010
 4078.00    1.07955   1.29727    0.010
 4079.00    1.25943   1.30114    0.009
 4080.00    1.46072   1.30430    0.009
 4081.00    1.04123   1.30558    0.009
 4082.00    0.64018   1.30447    0.010
 4083.00    1.06420   1.30113    0.010
 4084.00    1.46118   1.29598    0.010
 4085.00    1.41253   1.28975    0.010
 4086.00    1.35623   1.28279    0.010
 4087.00    1.22120   1.27492    0.010
 4088.00    1.08625   1.26634    0.010
 4089.00    0.95181   1.25853    0.010
 4090.00    0.78195   1.25216    0.010
 4091.00    0.41340   1.24474    0.010
 4092.00    0.22572   1.23326    0.000
 4093.00    0.84740   1.21628    0.000
 4094.00    1.32738   1.19266    0.000
 4095.00    1.28700   1.16112    0.000
 4096.00    1.40108   1.12105    0.000
 4097.00    1.99024   1.07305    0.000
 4098.00    2.36285   1.01917    0.000
 4099.00    2.16949   0.96328    0.000
 4100.00    1.72185   0.91263    0.000
 4101.00    0.70317   0.87863    0.000
 4102.00    0.10939   0.87288    0.000
 4103.00    0.34242   0.89862    0.000
 4104.00    0.78955   0.94746    0.000
 4105.00    1.59996   1.00670    0.000
 4106.00    1.69650   1.06566    0.000
 4107.00    0.73187   1.11748    0.000
 4108.00    0.22304   1.15960    0.000
 4109.00    0.30976   1.19254    0.000
 4110.00    0.73648   1.21809    0.000
 4111.00    1.55456   1.23818    0.000
 4112.00    1.76319   1.25421    0.000
 4113.00    1.35319   1.26665    0.010
 4114.00    1.52602   1.27560    0.010
 4115.00    2.22066   1.28134    0.010
 4116.00    2.47171   1.28471    0.010
 4117.00    2.37278   1.28649    0.010
 4118.00    2.43903   1.28627    0.010
 4119.00    2.61992   1.28467    0.010
 4120.00    2.42088   1.28451    0.010
 4121.00    1.99067   1.28920    0.010
 4122.00    1.98141   1.29955    0.010
 4123.00    2.19577   1.31234    0.010
 4124.00    1.49978   1.32376    0.010
 4125.00    0.38403   1.33169    0.010
 4126.00    0.63512   1.33531    0.010
 4127.00    1.42895   1.33529    0.010
 4128.00    1.72270   1.33361    0.010
 4129.00    1.84721   1.33218    0.010
 4130.00    1.05831   1.33157    0.010
 4131.00    0.00952   1.33234    0.009
 4132.00    0.21255   1.33515    0.009
 4133.00    0.70949   1.33977    0.010
 4134.00    1.42454   1.34532    0.010
 4135.00    2.18075   1.35063    0.010
 4136.00    1.53637   1.35454    0.009
 4137.00    0.68748   1.35633    0.009
 4138.00    1.30007   1.35560    0.010
 4139.00    2.06798   1.35174    0.010
 4140.00    2.18044   1.34411    0.010
 4141.00    2.24756   1.33300    0.010
 4142.00    1.65602   1.32029    0.010
 4143.00    1.04177   1.31017    0.009
 4144.00    1.75110   1.30823    0.010
 4145.00    2.44449   1.31609    0.010
 4146.00    2.52452   1.32930    0.010
 4147.00    2.52633   1.34271    0.009
 4148.00    1.31863   1.35326    0.009
 4149.00    0.17316   1.35970    0.009
 4150.00   -0.35894   1.36264    0.000
 4151.00   -0.69475   1.36350    0.000
 4152.00    0.36293   1.36331    0.009
 4153.00    1.32419   1.36317    0.010
 4154.00    1.75902   1.36422    0.009
 4155.00    2.03482   1.36642    0.009
 4156.00    1.61553   1.36920    0.009
 4157.00    1.32719   1.37243    0.009
 4158.00    1.50986   1.37573    0.009
 4159.00    1.60437   1.37832    0.009
 4160.00    1.43285   1.37972    0.009
 4161.00    1.18007   1.37999    0.009
 4162.00    0.71858   1.37952    0.009
 4163.00    0.55363   1.37899    0.009
 4164.00    1.04375   1.37873    0.010
 4165.00    1.45879   1.37843    0.010
 4166.00    1.73003   1.37775    0.009
 4167.00    1.90516   1.37648    0.009
 4168.00    1.91965   1.37485    0.010
 4169.00    1.76550   1.37375    0.010
 4170.00    1.36432   1.37369    0.009
 4171.00    0.98414   1.37408    0.009
 4172.00    0.63101   1.37458    0.009
 4173.00    0.38458   1.37560    0.009
 4174.00    0.25925   1.37721    0.010
 4175.00    0.46016   1.37912    0.010
 4176.00    0.98758   1.38105    0.010
 4177.00    1.33850   1.38283    0.010
 4178.00    1.53361   1.38462    0.010
 4179.00    1.50140   1.38670    0.010
 4180.00    1.29240   1.38892    0.010
 4181.00    1.38898   1.39061    0.010
 4182.00    1.69453   1.39134    0.010
 4183.00    1.47745   1.39107    0.010
 4184.00    0.94709   1.38983    0.010
 4185.00    1.15663   1.38802    0.010
 4186.00    1.75315   1.38638    0.010
 4187.00    1.59660   1.38558    0.010
 4188.00    1.09847   1.38592    0.010
 4189.00    1.18459   1.38719    0.010
 4190.00    1.49869   1.38945    0.010
 4191.00    1.35766   1.39247    0.010
 4192.00    1.06545   1.39501    0.010
 4193.00    1.49618   1.39596    0.010
 4194.00    2.12840   1.39447    0.010
 4195.00    1.74506   1.39005    0.010
 4196.00    1.12872   1.38309    0.010
 4197.00    0.93886   1.37455    0.010
 4198.00    0.82737   1.36608    0.010
 4199.00    1.54910   1.36010    0.010
 4200.00    2.38864   1.35901    0.010
 4201.00    2.21685   1.36335    0.010
 4202.00    1.94194   1.37155    0.009
 4203.00    1.06952   1.38122    0.009
 4204.00    0.15817   1.39044    0.009
 4205.00    1.86953   1.39818    0.010
 4206.00    3.65746   1.40422    0.010
 4207.00    2.86938   1.40861    0.010
 4208.00    2.07495   1.41155    0.010
 4209.00    1.09406   1.41327    0.010
 4210.00    0.23767   1.41406    0.010
 4211.00    1.19363   1.41426    0.010
 4212.00    2.02858   1.41415    0.010
 4213.00    1.71910   1.41410    0.009
 4214.00    1.36529   1.41426    0.009
 4215.00    0.70669   1.41466    0.009
 4216.00    0.20190   1.41583    0.009
 4217.00    0.51466   1.41799    0.009
 4218.00    0.81501   1.42053    0.009
 4219.00    1.06231   1.42271    0.009
 4220.00    1.19773   1.42384    0.009
 4221.00    0.93894   1.42361    0.009
 4222.00    0.91774   1.42208    0.009
 4223.00    1.60015   1.41960    0.009
 4224.00    2.21913   1.41658    0.009
 4225.00    2.67809   1.41375    0.009
 4226.00    3.01997   1.41220    0.009
 4227.00    3.10745   1.41282    0.009
 4228.00    2.72518   1.41577    0.009
 4229.00    1.45705   1.41985    0.009
 4230.00    0.52089   1.42342    0.009
 4231.00    0.13128   1.42555    0.009
 4232.00    0.25808   1.42603    0.008
 4233.00    1.13037   1.42551    0.008
 4234.00    1.51260   1.42504    0.008
 4235.00    1.27265   1.42500    0.008
 4236.00    1.23124   1.42521    0.008
 4237.00    1.41196   1.42599    0.008
 4238.00    2.00375   1.42741    0.008
 4239.00    3.00119   1.42905    0.009
 4240.00    3.50257   1.43068    0.009
 4241.00    3.57225   1.43223    0.009
 4242.00    2.91537   1.43393    0.009
 4243.00    1.70147   1.43594    0.009
 4244.00    1.08137   1.43768    0.009
 4245.00    0.86143   1.43841    0.009
 4246.00    1.75917   1.43801    0.009
 4247.00    3.31682   1.43712    0.009
 4248.00    3.67925   1.43631    0.009
 4249.00    3.42631   1.43561    0.009
 4250.00    2.65179   1.43491    0.009
 4251.00    1.64458   1.43435    0.009
 4252.00    1.47613   1.43394    0.009
 4253.00    1.62928   1.43381    0.009
 4254.00    1.37502   1.43476    0.009
 4255.00    0.98798   1.43713    0.009
 4256.00    0.96512   1.44000    0.009
 4257.00    1.04167   1.44237    0.009
 4258.00    1.14102   1.44379    0.009
 4259.00    1.24548   1.44451    0.009
 4260.00    0.93927   1.44510    0.009
 4261.00    0.55962   1.44591    0.009
 4262.00    0.69586   1.44670    0.009
 4263.00    0.90268   1.44640    0.009
 4264.00    0.55256   1.44385    0.009
 4265.00    0.14803   1.43889    0.009
 4266.00    0.76742   1.43268    0.009
 4267.00    1.44943   1.42820    0.009
 4268.00    1.69778   1.42824    0.009
 4269.00    1.92816   1.43181    0.009
 4270.00    0.93374   1.43599    0.009
 4271.00   -0.00738   1.43918    0.000
 4272.00    0.46040   1.44103    0.009
 4273.00    0.91297   1.44174    0.009
 4274.00    1.15654   1.44173    0.009
 4275.00    1.41157   1.44186    0.009
 4276.00    1.77074   1.44317    0.009
 4277.00    2.14023   1.44599    0.009
 4278.00    2.57846   1.44959    0.010
 4279.00    2.82416   1.45267    0.010
 4280.00    2.07309   1.45427    0.010
 4281.00    1.47028   1.45422    0.010
 4282.00    1.48641   1.45303   -2.000
 4283.00    1.43650   1.45173   -2.000
 4284.00    1.15863   1.45108   -2.000
 4285.00    0.98104   1.45127   -2.000
 4286.00    1.09498   1.45212   -2.000
 4287.00    1.44717   1.45293   -2.000
 4288.00    2.39033   1.45305   -2.000
 4289.00    2.83033   1.45287   -2.000
 4290.00    2.19469   1.45322   -2.000
 4291.00    1.51464   1.45459   -2.000
 4292.00    0.75213   1.45652   -2.000
 4293.00    0.36439   1.45805   -2.000
 4294.00    0.58444   1.45863   -2.000
 4295.00    0.46568   1.45869   -2.000
 4296.00   -0.13509   1.45853   -2.000
 4297.00    0.00014   1.45790   -2.000
 4298.00    1.05651   1.45653    0.010
 4299.00    1.98953   1.45446    0.010
 4300.00    2.78647   1.45223    0.010
 4301.00    3.09420   1.45038    0.010
 4302.00    2.92595   1.44890    0.010
 4303.00    2.79793   1.44806    0.010
 4304.00    2.70442   1.44837    0.010
 4305.00    2.13043   1.44948    0.010
 4306.00    1.19335   1.45055    0.009
 4307.00    1.48536   1.45117    0.009
 4308.00    2.59357   1.45172    0.010
 4309.00    2.89060   1.45272    0.010
 4310.00    2.71592   1.45416    0.010
 4311.00    2.13965   1.45561    0.009
 4312.00    1.35985   1.45663    0.009
 4313.00    1.28981   1.45723    0.009
 4314.00    1.53122   1.45792    0.009
 4315.00    1.58539   1.45903    0.009
 4316.00    1.56902   1.46018    0.009
 4317.00    1.71759   1.46092    0.009
 4318.00    1.91889   1.46119    0.009
 4319.00    1.59718   1.46090    0.009
 4320.00    1.13568   1.46010    0.009
 4321.00    1.35210   1.45862    0.009
 4322.00    1.71686   1.45560    0.009
 4323.00    1.39416   1.45051    0.009
 4324.00    0.95189   1.44372    0.009
 4325.00    0.97131   1.43635    0.009
 4326.00    1.05180   1.42976    0.009
 4327.00    2.02870   1.42429    0.009
 4328.00    3.08936   1.41860    0.009
 4329.00    2.85907   1.41085    0.009
 4330.00    2.55496   1.39963    0.000
 4331.00    2.32345   1.38399    0.000
 4332.00    2.09977   1.36320    0.000
 4333.00    2.58016   1.33632    0.000
 4334.00    3.03051   1.30173    0.000
 4335.00    2.75976   1.25751    0.000
 4336.00    2.49337   1.20294    0.000
 4337.00    2.28368   1.14061    0.000
 4338.00    2.05720   1.07786    0.000
 4339.00    1.68409   1.02581    0.000
 4340.00    1.33343   0.99703    0.000
 4341.00    1.12779   1.00092    0.000
 4342.00    0.99261   1.03631    0.000
 4343.00    1.21290   1.09177    0.000
 4344.00    1.35854   1.15407    0.000
 4345.00    1.19954   1.21351    0.000
 4346.00    1.01978   1.26470    0.000
 4347.00    0.76975   1.30597    0.000
 4348.00    0.82379   1.33817    0.000
 4349.00    1.74549   1.36312    0.000
 4350.00    2.28123   1.38306    0.000
 4351.00    1.87599   1.40023    0.009
 4352.00    1.52106   1.41660    0.009
 4353.00    1.27195   1.43303    0.009
 4354.00    1.26353   1.44881    0.009
 4355.00    1.69511   1.46285    0.009
 4356.00    2.03367   1.47449    0.009
 4357.00    2.22359   1.48349    0.009
 4358.00    2.16268   1.49023    0.009
 4359.00    1.75007   1.49557    0.009
 4360.00    1.72731   1.50030    0.009
 4361.00    2.18556   1.50472    0.009
 4362.00    2.35383   1.50885    0.009
 4363.00    2.20671   1.51228    0.009
 4364.00    2.13727   1.51450    0.009
 4365.00    2.14234   1.51543    0.009
 4366.00    2.41411   1.51533    0.009
 4367.00    2.91145   1.51514    0.009
 4368.00    2.76874   1.51581    0.009
 4369.00    2.14926   1.51731    0.009
 4370.00    2.02062   1.51909    0.009
 4371.00    2.21314   1.52058    0.009
 4372.00    2.17366   1.52166    0.009
 4373.00    2.00131   1.52277    0.009
 4374.00    1.57254   1.52436    0.009
 4375.00    1.01588   1.52679    0.009
 4376.00    1.10771   1.53016    0.009
 4377.00    1.47939   1.53383    0.009
 4378.00    2.12550   1.53668    0.009
 4379.00    2.87317   1.53787    0.009
 4380.00    2.97748   1.53696    0.009
 4381.00    2.88005   1.53347    0.009
 4382.00    2.31927   1.52706    0.009
 4383.00    1.63727   1.51809    0.009
 4384.00    2.07136   1.50741    0.009
 4385.00    2.74385   1.49609    0.009
 4386.00    2.77469   1.48542    0.009
 4387.00    2.69702   1.47774    0.009
 4388.00    2.39690   1.47724    0.009
 4389.00    2.06837   1.48620    0.009
 4390.00    1.79803   1.50146    0.009
 4391.00    1.53288   1.51795    0.009
 4392.00    1.94477   1.53213    0.009
 4393.00    2.39271   1.54212    0.009
 4394.00    2.39846   1.54816    0.009
 4395.00    2.38688   1.55197    0.009
 4396.00    1.67178   1.55538    0.009
 4397.00    1.00715   1.55893    0.009
 4398.00    1.45205   1.56191    0.009
 4399.00    1.85494   1.56375    0.008
 4400.00    1.73870   1.56455    0.009
 4401.00    1.61375   1.56477    0.009
 4402.00    1.41557   1.56467    0.009
 4403.00    1.27506   1.56411    0.009
 4404.00    1.49603   1.56342    0.009
 4405.00    1.72912   1.56345    0.009
 4406.00    2.02182   1.56468    0.009
 4407.00    2.23249   1.56673    0.009
 4408.00    2.11568   1.56901    0.009
 4409.00    2.08538   1.57116    0.009
 4410.00    2.34194   1.57259    0.009
 4411.00    2.36283   1.57257    0.009
 4412.00    1.72345   1.57085    0.009
 4413.00    1.43099   1.56727    0.009
 4414.00    1.97006   1.56242    0.009
 4415.00    2.36259   1.55857    0.009
 4416.00    2.45185   1.55785    0.009
 4417.00    2.30902   1.56076    0.009
 4418.00    1.74841   1.56652    0.009
 4419.00    1.57582   1.57348    0.009
 4420.00    2.01400   1.57983    0.009
 4421.00    2.14065   1.58467    0.009
 4422.00    1.83682   1.58783    0.009
 4423.00    1.89303   1.58988    0.009
 4424.00    2.38719   1.59123    0.009
 4425.00    2.58055   1.59194    0.009
 4426.00    2.45139   1.59211    0.009
 4427.00    2.07938   1.59201    0.009
 4428.00    1.47770   1.59189    0.009
 4429.00    1.14332   1.59167    0.009
 4430.00    1.03185   1.59106    0.009
 4431.00    1.06109   1.59023    0.009
 4432.00    1.19363   1.58923    0.009
 4433.00    1.43975   1.58789    0.009
 4434.00    1.75909   1.58641    0.009
 4435.00    1.75558   1.58534    0.009
 4436.00    1.56996   1.58521    0.009
 4437.00    1.65219   1.58643    0.009
 4438.00    1.86592   1.58921    0.009
 4439.00    1.81154   1.59258    0.009
 4440.00    1.64339   1.59504    0.009
 4441.00    1.72094   1.59620    0.009
 4442.00    1.88778   1.59687    0.009
 4443.00    1.71145   1.59797    0.009
 4444.00    1.42959   1.59986    0.009
 4445.00    1.91225   1.60216    0.009
 4446.00    2.59063   1.60412    0.009
 4447.00    2.75978   1.60565    0.009
 4448.00    2.82281   1.60724    0.009
 4449.00    2.33147   1.60897    0.009
 4450.00    1.74906   1.61047    0.009
 4451.00    2.01726   1.61148    0.009
 4452.00    2.39032   1.61199    0.009
 4453.00    2.52606   1.61221    0.009
 4454.00    2.64161   1.61239    0.009
 4455.00    2.70072   1.61280    0.009
 4456.00    2.75704   1.61371    0.009
 4457.00    2.08586   1.61481    0.009
 4458.00    1.42076   1.61571    0.009
 4459.00    1.86352   1.61622    0.009
 4460.00    2.29376   1.61644    0.009
 4461.00    2.47074   1.61648    0.000
 4462.00    2.62771   1.61638    0.000
 4463.00    2.54940   1.61590    0.000
 4464.00    2.46539   1.61400    0.000
 4465.00    2.33516   1.60919    0.000
 4466.00    2.18336   1.60000    0.000
 4467.00    1.90025   1.58527    0.000
 4468.00    1.79783   1.56501    0.000
 4469.00    2.56222   1.54180    0.000
 4470.00    3.07007   1.52087    0.000
 4471.00    2.57595   1.50975    0.000
 4472.00    1.96965   1.51528    0.000
 4473.00    0.99858   1.53648    0.000
 4474.00    0.42955   1.56466    0.000
 4475.00    0.96666   1.59111    0.000
 4476.00    1.38704   1.61051    0.000
 4477.00    1.53235   1.62059    0.000
 4478.00    1.45050   1.62206    0.000
 4479.00    0.90598   1.61789    0.000
 4480.00    0.99159   1.61231    0.000
 4481.00    2.19427   1.61022    0.000
 4482.00    2.82664   1.61464    0.009
 4483.00    2.57452   1.62429    0.009
 4484.00    2.23646   1.63528    0.009
 4485.00    1.78135   1.64452    0.009
 4486.00    1.62068   1.65033    0.009
 4487.00    1.81308   1.65275    0.009
 4488.00    1.94157   1.65296    0.009
 4489.00    2.00252   1.65266    0.009
 4490.00    1.87934   1.65307    0.009
 4491.00    1.58446   1.65443    0.009
 4492.00    1.55658   1.65629    0.009
 4493.00    1.74820   1.65801    0.009
 4494.00    1.92410   1.65936    0.009
 4495.00    2.08861   1.66060    0.009
 4496.00    2.18183   1.66205    0.009
 4497.00    2.22978   1.66378    0.009
 4498.00    2.25455   1.66564    0.009
 4499.00    2.26646   1.66740    0.009
 4500.00    2.43827   1.66899    0.009
 4501.00    2.68733   1.67079    0.009
 4502.00    2.52137   1.67327    0.009
 4503.00    2.18226   1.67624    0.009
 4504.00    2.50830   1.67884    0.009
 4505.00    3.07171   1.68037    0.009
 4506.00    2.63170   1.68075    0.009
 4507.00    1.88916   1.68029    0.009
 4508.00    1.69067   1.67950    0.009
 4509.00    1.62846   1.67866    0.009
 4510.00    1.98769   1.67766    0.009
 4511.00    2.43260   1.67633    0.009
 4512.00    2.03949   1.67478    0.009
 4513.00    1.51270   1.67347    0.009
 4514.00    1.80621   1.67284    0.009
 4515.00    2.19722   1.67336    0.009
 4516.00    1.95928   1.67522    0.009
 4517.00    1.67045   1.67788    0.009
 4518.00    1.97757   1.68059    0.009
 4519.00    2.31181   1.68284    0.009
 4520.00    2.07967   1.68413    0.009
 4521.00    1.85058   1.68426    0.009
 4522.00    2.13170   1.68331    0.009
 4523.00    2.39763   1.68187    0.009
 4524.00    2.37870   1.68049    0.009
 4525.00    2.35502   1.67915    0.009
 4526.00    2.27817   1.67764    0.009
 4527.00    2.23615   1.67597    0.009
 4528.00    2.46679   1.67445    0.009
 4529.00    2.58328   1.67384    0.009
 4530.00    2.02492   1.67469    0.009
 4531.00    1.65773   1.67659    0.009
 4532.00    2.18537   1.67862    0.009
 4533.00    2.58962   1.68003    0.009
 4534.00    2.52226   1.68081    0.009
 4535.00    2.44818   1.68121    0.009
 4536.00    2.35267   1.68077    0.009
 4537.00    2.37413   1.67815    0.009
 4538.00    2.71169   1.67230    0.009
 4539.00    2.56274   1.66376    0.009
 4540.00    1.28646   1.65487    0.009
 4541.00    0.74930   1.64914    0.009
 4542.00    1.69375   1.64954    0.009
 4543.00    2.10450   1.65611    0.009
 4544.00    1.58348   1.66619    0.009
 4545.00    1.48340   1.67673    0.009
 4546.00    2.02657   1.68551    0.009
 4547.00    2.28604   1.69122    0.009
 4548.00    2.16463   1.69377    0.009
 4549.00    1.87580   1.69403    0.009
 4550.00    1.38904   1.69343    0.000
 4551.00    1.48582   1.69281    0.000
 4552.00    2.19086   1.69263    0.000
 4553.00    2.64921   1.69405    0.000
 4554.00    2.88075   1.69759    0.000
 4555.00    2.56436   1.70265    0.000
 4556.00    1.80389   1.70857    0.000
 4557.00    1.68848   1.71468    0.000
 4558.00    2.03309   1.72006    0.000
 4559.00    2.12614   1.72427    0.000
 4560.00    2.06176   1.72714    0.000
 4561.00    2.00791   1.72845    0.000
 4562.00    1.95982   1.72823    0.000
 4563.00    2.04482   1.72687    0.000
 4564.00    2.19307   1.72514    0.000
 4565.00    2.37120   1.72381    0.000
 4566.00    2.56157   1.72312    0.000
 4567.00    2.20117   1.72306    0.000
 4568.00    1.64778   1.72385    0.000
 4569.00    1.58389   1.72549    0.000
 4570.00    1.66467   1.72746    0.000
 4571.00    1.35393   1.72927    0.000
 4572.00    0.94728   1.73100    0.000
 4573.00    1.19668   1.73277    0.000
 4574.00    1.57609   1.73450    0.000
 4575.00    2.08370   1.73634    0.000
 4576.00    2.61115   1.73837    0.000
 4577.00    1.88123   1.74013    0.000
 4578.00    1.00743   1.74117    0.000
 4579.00    1.37838   1.74150    0.000
 4580.00    1.84494   1.74147    0.000
 4581.00    1.89226   1.74140    0.000
 4582.00    1.92213   1.74149    0.000
 4583.00    1.76889   1.74184    0.000
 4584.00    1.61914   1.74265    0.000
 4585.00    1.68727   1.74398    0.000
 4586.00    1.80805   1.74543    0.000
 4587.00    2.84915   1.74643    0.000
 4588.00    3.76620   1.74664    0.000
 4589.00    3.35606   1.74612    0.000
 4590.00    2.97615   1.74518    0.000
 4591.00    2.82478   1.74461    0.000
 4592.00    2.65147   1.74502    0.000
 4593.00    2.35202   1.74615    0.000
 4594.00    2.05946   1.74740    0.000
 4595.00    1.79832   1.74860    0.000
 4596.00    1.63135   1.75015    0.000
 4597.00    1.81672   1.75241    0.000
 4598.00    2.14447   1.75489    0.000
 4599.00    2.91750   1.75679    0.000
 4600.00    3.35330   1.75786    0.000
 4601.00    2.89395   1.75847    0.000
 4602.00    2.50191   1.75944    0.000
 4603.00    2.26326   1.76125    0.000
 4604.00    2.25489   1.76363    0.000
 4605.00    2.70086   1.76611    0.000
 4606.00    2.59807   1.76833    0.000
 4607.00    1.55172   1.77026    0.000
 4608.00    1.19535   1.77197    0.000
 4609.00    1.87792   1.77347    0.000
 4610.00    2.24355   1.77491    0.000
 4611.00    2.18979   1.77643    0.000
 4612.00    1.96350   1.77794    0.000
 4613.00    1.53612   1.77929    0.000
 4614.00    1.41568   1.78036    0.000
 4615.00    1.61069   1.78090    0.000
 4616.00    2.07653   1.78053    0.000
 4617.00    2.78787   1.77934    0.000
 4618.00    3.13982   1.77789    0.000
 4619.00    3.20463   1.77729    0.000
 4620.00    3.15036   1.77862    0.000
 4621.00    3.01239   1.78181    0.000
 4622.00    2.61354   1.78596    0.000
 4623.00    2.05386   1.79010    0.000
 4624.00    1.81994   1.79326    0.000
 4625.00    1.76146   1.79482    0.000
 4626.00    1.99544   1.79469    0.000
 4627.00    2.36619   1.79308    0.000
 4628.00    2.64585   1.79036    0.000
 4629.00    2.88878   1.78729    0.000
 4630.00    2.90615   1.78493    0.000
 4631.00    2.84592   1.78415    0.000
 4632.00    2.39425   1.78510    0.000
 4633.00    1.82921   1.78708    0.000
 4634.00    1.60379   1.78917    0.000
 4635.00    1.45970   1.79065    0.000
 4636.00    1.56297   1.79088    0.000
 4637.00    1.71400   1.78951    0.000
 4638.00    1.99932   1.78699    0.000
 4639.00    2.30478   1.78441    0.000
 4640.00    2.28108   1.78280    0.000
 4641.00    2.22114   1.78255    0.000
 4642.00    2.41523   1.78349    0.000
 4643.00    2.62779   1.78455    0.000
 4644.00    2.23324   1.78390    0.000
 4645.00    1.81574   1.78011    0.000
 4646.00    2.42766   1.77318    0.000
 4647.00    3.03246   1.76508    0.000
 4648.00    3.17887   1.75872    0.000
 4649.00    3.31731   1.75621    0.000
 4650.00    3.32538   1.75855    0.000
 4651.00    3.25704   1.76570    0.000
 4652.00    2.40661   1.77604    0.000
 4653.00    1.73168   1.78699    0.000
 4654.00    2.33913   1.79673    0.000
 4655.00    2.77153   1.80494    0.000
 4656.00    2.22522   1.81188    0.000
 4657.00    1.74506   1.81756    0.000
 4658.00    1.56004   1.82179    0.000
 4659.00    1.50735   1.82420    0.000
 4660.00    1.93940   1.82449    0.000
 4661.00    2.34740   1.82300    0.000
 4662.00    2.68156   1.82076    0.000
 4663.00    2.76863   1.81862    0.000
 4664.00    2.21131   1.81687    0.000
 4665.00    1.95620   1.81563    0.000
 4666.00    2.37840   1.81513    0.000
 4667.00    2.67319   1.81582    0.000
 4668.00    2.72054   1.81799    0.000
 4669.00    2.50004   1.82138    0.000
 4670.00    1.82591   1.82511    0.000
 4671.00    1.49775   1.82813    0.000
 4672.00    1.68291   1.82970    0.000
 4673.00    2.02699   1.82996    0.000
 4674.00    2.57834   1.82979    0.000
 4675.00    2.65920   1.82991    0.000
 4676.00    2.19950   1.83053    0.000
 4677.00    1.73243   1.83141    0.000
 4678.00    1.25790   1.83182    0.000
 4679.00    1.36102   1.83064    0.000
 4680.00    1.98039   1.82682    0.000
 4681.00    2.40715   1.81937    0.000
 4682.00    2.68221   1.80799    0.000
 4683.00    2.49791   1.79374    0.000
 4684.00    1.99541   1.77943    0.000
 4685.00    2.08315   1.76955    0.000
 4686.00    2.52938   1.76877    0.000
 4687.00    2.51585   1.77814    0.000
 4688.00    2.25854   1.79409    0.000
 4689.00    2.13107   1.81165    0.000
 4690.00    2.06335   1.82724    0.000
 4691.00    1.67612   1.83918    0.000
 4692.00    1.16228   1.84759    0.000
 4693.00    1.35481   1.85316    0.000
 4694.00    1.78584   1.85650    0.000
 4695.00    2.22463   1.85789    0.000
 4696.00    2.66563   1.85742    0.000
 4697.00    2.46717   1.85540    0.000
 4698.00    2.11901   1.85256    0.000
 4699.00    1.91919   1.85011    0.000
 4700.00    1.74729   1.84892    0.000
 4701.00    1.92046   1.84893    0.000
 4702.00    2.14382   1.84962    0.000
 4703.00    2.37464   1.85075    0.000
 4704.00    2.60624   1.85218    0.000
 4705.00    2.47331   1.85385    0.000
 4706.00    2.31535   1.85555    0.000
 4707.00    2.37479   1.85679    0.000
 4708.00    2.44163   1.85662    0.000
 4709.00    2.58483   1.85420    0.000
 4710.00    2.71753   1.84934    0.000
 4711.00    2.50520   1.84284    0.000
 4712.00    2.31640   1.83647    0.000
 4713.00    2.48863   1.83357    0.000
 4714.00    2.65508   1.83688    0.000
 4715.00    2.76492   1.84586    0.000
 4716.00    2.82756   1.85741    0.000
 4717.00    2.55656   1.86896    0.000
 4718.00    2.32919   1.87867    0.000
 4719.00    2.33920   1.88584    0.000
 4720.00    2.33937   1.89070    0.000
 4721.00    2.29663   1.89378    0.000
 4722.00    2.32446   1.89566    0.000
 4723.00    2.60545   1.89670    0.000
 4724.00    2.86340   1.89691    0.000
 4725.00    3.05195   1.89611    0.000
 4726.00    3.06178   1.89436    0.000
 4727.00    2.61363   1.89211    0.000
 4728.00    2.22895   1.89021    0.000
 4729.00    1.98419   1.88938    0.000
 4730.00    1.91743   1.88992    0.000
 4731.00    2.19095   1.89168    0.000
 4732.00    2.28013   1.89427    0.000
 4733.00    2.06179   1.89707    0.000
 4734.00    1.99399   1.89956    0.000
 4735.00    2.14631   1.90147    0.000
 4736.00    2.34478   1.90277    0.000
 4737.00    2.60256   1.90375    0.000
 4738.00    2.68389   1.90471    0.000
 4739.00    2.56534   1.90569    0.000
 4740.00    2.46369   1.90675    0.000
 4741.00    2.37894   1.90807    0.000
 4742.00    2.37751   1.90979    0.000
 4743.00    2.44951   1.91189    0.000
 4744.00    2.59921   1.91413    0.000
 4745.00    2.80923   1.91631    0.000
 4746.00    2.87342   1.91833    0.000
 4747.00    2.83808   1.92004    0.000
 4748.00    2.56507   1.92131    0.000
 4749.00    2.14987   1.92215    0.000
 4750.00    2.20069   1.92258    0.000
 4751.00    2.49479   1.92265    0.000
 4752.00    2.74072   1.92250    0.000
 4753.00    2.96486   1.92229    0.000
 4754.00    2.90986   1.92214    0.000
 4755.00    2.74617   1.92218    0.000
 4756.00    2.75459   1.92246    0.000
 4757.00    2.82005   1.92296    0.000
 4758.00    2.92576   1.92352    0.000
 4759.00    3.04266   1.92378    0.000
 4760.00    2.93109   1.92340    0.000
 4761.00    2.76725   1.92230    0.008
 4762.00    2.69942   1.92074    0.008
 4763.00    2.64917   1.91934    0.008
 4764.00    2.24094   1.91865    0.008
 4765.00    1.78229   1.91904    0.008
 4766.00    2.12476   1.92060    0.008
 4767.00    2.54848   1.92305    0.008
 4768.00    2.52880   1.92588    0.008
 4769.00    2.48045   1.92856    0.008
 4770.00    2.67883   1.93072    0.008
 4771.00    2.88432   1.93235    0.008
 4772.00    2.91749   1.93379    0.008
 4773.00    2.94573   1.93540    0.008
 4774.00    2.83087   1.93722    0.008
 4775.00    2.71101   1.93898    0.008
 4776.00    2.51897   1.94034    0.008
 4777.00    2.33285   1.94110    0.008
 4778.00    2.20245   1.94127    0.007
 4779.00    2.08077   1.94109    0.007
 4780.00    2.01882   1.94089    0.007
 4781.00    2.03725   1.94084    0.007
 4782.00    2.48152   1.94091    0.007
 4783.00    2.78955   1.94103    0.007
 4784.00    2.51742   1.94126    0.007
 4785.00    2.22277   1.94161    0.007
 4786.00    1.84900   1.94214    0.007
 4787.00    1.66666   1.94302    0.007
 4788.00    2.04989   1.94434    0.007
 4789.00    2.42153   1.94614    0.007
 4790.00    2.76399   1.94845    0.008
 4791.00    2.94989   1.95122    0.008
 4792.00    2.79631   1.95431    0.008
 4793.00    2.78021   1.95749    0.008
 4794.00    3.02288   1.96034    0.008
 4795.00    2.98760   1.96240    0.008
 4796.00    2.49560   1.96340    0.008
 4797.00    2.26448   1.96338    0.008
 4798.00    2.40925   1.96273    0.008
 4799.00    2.55533   1.96198    0.008
 4800.00    2.70308   1.96154    0.008
 4801.00    2.73184   1.96154    0.008
 4802.00    2.62772   1.96178    0.008
 4803.00    2.64432   1.96205    0.008
 4804.00    2.77983   1.96227    0.008
 4805.00    2.84400   1.96252    0.008
 4806.00    2.84619   1.96288    0.008
 4807.00    2.73586   1.96336    0.008
 4808.00    2.53942   1.96380    0.008
 4809.00    2.46637   1.96408    0.008
 4810.00    2.47633   1.96413    0.008
 4811.00    2.63836   1.96402    0.008
 4812.00    2.89000   1.96394    0.008
 4813.00    2.64926   1.96429    0.008
 4814.00    2.15551   1.96530    0.008
 4815.00    1.89297   1.96690    0.008
 4816.00    1.73338   1.96869    0.008
 4817.00    1.83743   1.97017    0.008
 4818.00    2.04235   1.97098    0.008
 4819.00    2.22346   1.97106    0.008
 4820.00    2.39683   1.97072    0.008
 4821.00    2.78711   1.97024    0.008
 4822.00    3.23646   1.96964    0.008
 4823.00    3.01558   1.96902    0.008
 4824.00    2.64495   1.96866    0.008
 4825.00    2.43717   1.96860    0.008
 4826.00    2.25842   1.96855    0.008
 4827.00    2.27475   1.96829    0.008
 4828.00    2.31767   1.96783    0.008
 4829.00    2.12721   1.96754    0.008
 4830.00    1.91408   1.96776    0.008
 4831.00    1.87261   1.96840    0.008
 4832.00    1.84156   1.96920    0.008
 4833.00    1.80627   1.96992    0.008
 4834.00    1.77303   1.97021    0.008
 4835.00    2.12910   1.96979    0.008
 4836.00    2.48021   1.96852    0.008
 4837.00    2.70219   1.96639    0.008
 4838.00    2.90643   1.96351    0.008
 4839.00    2.86846   1.96012    0.008
 4840.00    2.84567   1.95647    0.008
 4841.00    2.96010   1.95280    0.008
 4842.00    3.01846   1.94906    0.007
 4843.00    2.70478   1.94500    0.008
 4844.00    2.41969   1.94027    0.008
 4845.00    2.28215   1.93437    0.008
 4846.00    2.29020   1.92680    0.008
 4847.00    2.90425   1.91733    0.008
 4848.00    3.29991   1.90594    0.000
 4849.00    2.94356   1.89257    0.000
 4850.00    2.64931   1.87670    0.000
 4851.00    2.53511   1.85732    0.000
 4852.00    2.35796   1.83308    0.000
 4853.00    2.02501   1.80249    0.000
 4854.00    1.95783   1.76397    0.000
 4855.00    2.45766   1.71606    0.000
 4856.00    2.87884   1.65798    0.000
 4857.00    3.15428   1.59056    0.000
 4858.00    3.23924   1.51784    0.000
 4859.00    3.01584   1.44850    0.000
 4860.00    2.89654   1.39482    0.000
 4861.00    2.92506   1.36917    0.000
 4862.00    2.88760   1.37868    0.000
 4863.00    2.76772   1.42124    0.000
 4864.00    2.57304   1.48636    0.000
 4865.00    2.29599   1.56084    0.000
 4866.00    2.13844   1.63343    0.000
 4867.00    2.09693   1.69723    0.000
 4868.00    2.09693   1.74981    0.000
 4869.00    2.13245   1.79171    0.000
 4870.00    2.03847   1.82487    0.000
 4871.00    1.84679   1.85171    0.000
 4872.00    1.90061   1.87441    0.000
 4873.00    2.11716   1.89442    0.000
 4874.00    2.32152   1.91238    0.000
 4875.00    2.51880   1.92851    0.007
 4876.00    2.75380   1.94285    0.007
 4877.00    3.00787   1.95538    0.007
 4878.00    3.15274   1.96603    0.007
 4879.00    3.24979   1.97478    0.007
 4880.00    3.07083   1.98169    0.007
 4881.00    2.78813   1.98705    0.007
 4882.00    2.71615   1.99131    0.007
 4883.00    2.71138   1.99487    0.007
 4884.00    2.93287   1.99806    0.007
 4885.00    3.21468   2.00103    0.007
 4886.00    3.20420   2.00385    0.007
 4887.00    3.12994   2.00641    0.007
 4888.00    3.04418   2.00866    0.007
 4889.00    2.95643   2.01085    0.007
 4890.00    3.12431   2.01362    0.007
 4891.00    3.32586   2.01777    0.007
 4892.00    3.39397   2.02371    0.007
 4893.00    3.44968   2.03099    0.008
 4894.00    3.20486   2.03848    0.007
 4895.00    2.94300   2.04501    0.007
 4896.00    2.59058   2.04969    0.007
 4897.00    2.24297   2.05228    0.007
 4898.00    2.64710   2.05315    0.007
 4899.00    3.02736   2.05297    0.008
 4900.00    2.84068   2.05253    0.007
 4901.00    2.68210   2.05241    0.007
 4902.00    2.88680   2.05281    0.007
 4903.00    3.07121   2.05371    0.007
 4904.00    3.07924   2.05493    0.007
 4905.00    3.04110   2.05618    0.007
 4906.00    2.70583   2.05712    0.007
 4907.00    2.51114   2.05758    0.007
 4908.00    3.02347   2.05767    0.007
 4909.00    3.41436   2.05774    0.007
 4910.00    3.31096   2.05820    0.007
 4911.00    3.18053   2.05934    0.007
 4912.00    2.95888   2.06102    0.007
 4913.00    2.87613   2.06258    0.008
 4914.00    3.18881   2.06291    0.007
 4915.00    3.36947   2.06059    0.007
 4916.00    3.22892   2.05416    0.007
 4917.00    3.15641   2.04265    0.007
 4918.00    3.22673   2.02620    0.007
 4919.00    3.23128   2.00668    0.007
 4920.00    3.11584   1.98782    0.007
 4921.00    3.02870   1.97433    0.007
 4922.00    2.98670   1.97045    0.007
 4923.00    2.96949   1.97774    0.007
 4924.00    2.98698   1.99437    0.007
 4925.00    3.12669   2.01614    0.007
 4926.00    3.41694   2.03859    0.007
 4927.00    3.45603   2.05811    0.007
 4928.00    3.22248   2.07282    0.008
 4929.00    2.78803   2.08237    0.008
 4930.00    2.16120   2.08737    0.007
 4931.00    2.24890   2.08891    0.007
 4932.00    2.93993   2.08830    0.007
 4933.00    3.22335   2.08676    0.008
 4934.00    3.20369   2.08517    0.008
 4935.00    3.25656   2.08389    0.008
 4936.00    3.35678   2.08282    0.008
 4937.00    3.35072   2.08187    0.008
 4938.00    3.28390   2.08127    0.007
 4939.00    2.84366   2.08148    0.008
 4940.00    2.21753   2.08285    0.000
 4941.00    2.03255   2.08544    0.000
 4942.00    2.03753   2.08901    0.000
 4943.00    2.44462   2.09321    0.000
 4944.00    3.00018   2.09762    0.000
 4945.00    3.01761   2.10185    0.000
 4946.00    2.86671   2.10563    0.000
 4947.00    2.54707   2.10882    0.000
 4948.00    2.18341   2.11133    0.000
 4949.00    1.94720   2.11305    0.000
 4950.00    1.73813   2.11387    0.000
 4951.00    2.04691   2.11361    0.000
 4952.00    2.44294   2.11212    0.000
 4953.00    2.56018   2.10939    0.000
 4954.00    2.64195   2.10570    0.000
 4955.00    2.86779   2.10167    0.000
 4956.00    3.10642   2.09830    0.000
 4957.00    3.13078   2.09667    0.000
 4958.00    3.14383   2.09750    0.000
 4959.00    2.90809   2.10057    0.000
 4960.00    2.66700   2.10477    0.000
 4961.00    2.38030   2.10873    0.000
 4962.00    2.11784   2.11144    0.000
 4963.00    2.38256   2.11254    0.000
 4964.00    2.65435   2.11231    0.000
 4965.00    3.01288   2.11143    0.000
 4966.00    3.35479   2.11069    0.000
 4967.00    3.55764   2.11070    0.000
 4968.00    3.63710   2.11178    0.000
 4969.00    2.94603   2.11389    0.000
 4970.00    2.44712   2.11676    0.000
 4971.00    2.89037   2.11994    0.000
 4972.00    3.19613   2.12300    0.000
 4973.00    2.95458   2.12551    0.000
 4974.00    2.78870   2.12716    0.000
 4975.00    2.87312   2.12772    0.000
 4976.00    2.97597   2.12713    0.000
 4977.00    3.13030   2.12547    0.000
 4978.00    3.32103   2.12289    0.000
 4979.00    3.59881   2.11958    0.000
 4980.00    3.63317   2.11589    0.000
 4981.00    3.16473   2.11235    0.000
 4982.00    2.68468   2.10977    0.000
 4983.00    2.18375   2.10894    0.000
 4984.00    2.03572   2.11026    0.000
 4985.00    2.44214   2.11349    0.000
 4986.00    2.72107   2.11777    0.000
 4987.00    2.82414   2.12203    0.000
 4988.00    2.77550   2.12534    0.000
 4989.00    2.54264   2.12734    0.000
 4990.00    2.57935   2.12825    0.000
 4991.00    2.90460   2.12867    0.000
 4992.00    3.22900   2.12925    0.000
 4993.00    3.55261   2.13035    0.000
 4994.00    3.38348   2.13190    0.000
 4995.00    2.80418   2.13337    0.000
 4996.00    2.72624   2.13399    0.000
 4997.00    3.01572   2.13305    0.000
 4998.00    2.97984   2.13031    0.000
 4999.00    2.73457   2.12616    0.000
 5000.00    2.75735   2.12155    0.000
 5001.00    2.93102   2.11756    0.000
 5002.00    3.05036   2.11489    0.000
 5003.00    3.14307   2.11366    0.000
 5004.00    3.18300   2.11369    0.000
 5005.00    3.20057   2.11476    0.000
 5006.00    3.13901   2.11677    0.000
 5007.00    3.04875   2.11942    0.000
 5008.00    2.94146   2.12196    0.000
 5009.00    2.82896   2.12316    0.000
 5010.00    3.00330   2.12169    0.000
 5011.00    3.25087   2.11657    0.000
 5012.00    3.29543   2.10779    0.000
 5013.00    3.29780   2.09670    0.000
 5014.00    3.08913   2.08596    0.000
 5015.00    2.84593   2.07882    0.000
 5016.00    2.81962   2.07780    0.000
 5017.00    2.81994   2.08336    0.000
 5018.00    2.52932   2.09378    0.000
 5019.00    2.21411   2.10626    0.000
 5020.00    2.44179   2.11823    0.000
 5021.00    2.69600   2.12819    0.000
 5022.00    2.68663   2.13574    0.000
 5023.00    2.67354   2.14117    0.000
 5024.00    2.68184   2.14495    0.000
 5025.00    2.70790   2.14754    0.000
 5026.00    3.08986   2.14943    0.000
 5027.00    3.45388   2.15113    0.000
 5028.00    3.60839   2.15306    0.000
 5029.00    3.71017   2.15538    0.007
 5030.00    3.38620   2.15790    0.007
 5031.00    3.10052   2.16020    0.007
 5032.00    3.04699   2.16182    0.007
 5033.00    2.95558   2.16239    0.007
 5034.00    2.68305   2.16169    0.007
 5035.00    2.46495   2.15968    0.008
 5036.00    2.45881   2.15651    0.019
 5037.00    2.46569   2.15242   -1.000
 5038.00    2.51481   2.14783   -1.000
 5039.00    2.58305   2.14360   -1.000
 5040.00    2.70377   2.14094   -1.000
 5041.00    2.85067   2.14097   -1.000
 5042.00    3.05915   2.14385   -1.000
 5043.00    3.19601   2.14841   -1.000
 5044.00    3.18727   2.15270   -1.000
 5045.00    3.08748   2.15522    0.038
 5046.00    2.82658   2.15564    0.010
 5047.00    2.76386   2.15499    0.007
 5048.00    3.00795   2.15496    0.007
 5049.00    3.08773   2.15678    0.007
 5050.00    2.94412   2.16048    0.007
 5051.00    2.71199   2.16505    0.007
 5052.00    2.37389   2.16921    0.007
 5053.00    2.38305   2.17204    0.007
 5054.00    2.75869   2.17348    0.007
 5055.00    3.10565   2.17431    0.007
 5056.00    3.42593   2.17577    0.007
 5057.00    3.38755   2.17861    0.007
 5058.00    3.05485   2.18265    0.007
 5059.00    3.07881   2.18689    0.007
 5060.00    3.36039   2.19027    0.007
 5061.00    3.27228   2.19199    0.007
 5062.00    2.94978   2.19187    0.007
 5063.00    2.90246   2.19035    0.007
 5064.00    3.00770   2.18828    0.007
 5065.00    3.16974   2.18656    0.007
 5066.00    3.35918   2.18575    0.007
 5067.00    3.11748   2.18587    0.007
 5068.00    2.69630   2.18661    0.007
 5069.00    2.56393   2.18760    0.007
 5070.00    2.53439   2.18853    0.007
 5071.00    2.57756   2.18922    0.007
 5072.00    2.64258   2.18970    0.007
 5073.00    2.41559   2.19013    0.007
 5074.00    2.11566   2.19053    0.007
 5075.00    2.26025   2.19076    0.007
 5076.00    2.49491   2.19062    0.007
 5077.00    2.69220   2.18996    0.007
 5078.00    2.88355   2.18885    0.007
 5079.00    3.03876   2.18768    0.007
 5080.00    3.18969   2.18712    0.007
 5081.00    2.77413   2.18772    0.007
 5082.00    2.31303   2.18956    0.007
 5083.00    2.58732   2.19234    0.007
 5084.00    2.89470   2.19557    0.007
 5085.00    2.88686   2.19877    0.007
 5086.00    2.87150   2.20163    0.007
 5087.00    2.66748   2.20412    0.007
 5088.00    2.49858   2.20634    0.006
 5089.00    2.98300   2.20837    0.007
 5090.00    3.37012   2.21024    0.007
 5091.00    2.67350   2.21188    0.007
 5092.00    2.10249   2.21312    0.007
 5093.00    2.51016   2.21363    0.007
 5094.00    2.89154   2.21310    0.007
 5095.00    3.11796   2.21144    0.007
 5096.00    3.28411   2.20894    0.007
 5097.00    3.16899   2.20617    0.007
 5098.00    3.03287   2.20391    0.007
 5099.00    2.81677   2.20278    0.007
 5100.00    2.69756   2.20307    0.007
 5101.00    2.88656   2.20456    0.007
 5102.00    3.06517   2.20663    0.007
 5103.00    3.21574   2.20861    0.007
 5104.00    3.14649   2.21009    0.007
 5105.00    2.56897   2.21096    0.007
 5106.00    2.30960   2.21132    0.007
 5107.00    2.68667   2.21149    0.007
 5108.00    2.98878   2.21191    0.007
 5109.00    3.16028   2.21287    0.007
 5110.00    3.06463   2.21448    0.007
 5111.00    2.56150   2.21677    0.007
 5112.00    2.42893   2.21955    0.007
 5113.00    2.79289   2.22262    0.007
 5114.00    3.02848   2.22586    0.007
 5115.00    3.11258   2.22907    0.007
 5116.00    2.94192   2.23188    0.007
 5117.00    2.50618   2.23379    0.007
 5118.00    2.66080   2.23431    0.007
 5119.00    3.35724   2.23322    0.007
 5120.00    3.58480   2.23068    0.007
 5121.00    3.43304   2.22719    0.007
 5122.00    3.28457   2.22344    0.007
 5123.00    3.13845   2.22011    0.007
 5124.00    2.89570   2.21764    0.007
 5125.00    2.59258   2.21617    0.007
 5126.00    2.75182   2.21564    0.007
 5127.00    3.16344   2.21599    0.007
 5128.00    3.08652   2.21722    0.007
 5129.00    2.77783   2.21921    0.007
 5130.00    2.57319   2.22165    0.007
 5131.00    2.41113   2.22427    0.007
 5132.00    2.42065   2.22681    0.007
 5133.00    2.49015   2.22918    0.007
 5134.00    2.79834   2.23132    0.007
 5135.00    3.17689   2.23294    0.007
 5136.00    3.01314   2.23365    0.007
 5137.00    2.71692   2.23341    0.007
 5138.00    2.62943   2.23250    0.007
 5139.00    2.58318   2.23125    0.007
 5140.00    2.45403   2.23000    0.007
 5141.00    2.31210   2.22876    0.007
 5142.00    2.27069   2.22749    0.007
 5143.00    2.24073   2.22652    0.007
 5144.00    2.47083   2.22620    0.007
 5145.00    2.72076   2.22661    0.007
 5146.00    2.66420   2.22767    0.007
 5147.00    2.59504   2.22907    0.007
 5148.00    2.42204   2.23034    0.007
 5149.00    2.25853   2.23127    0.007
 5150.00    2.53018   2.23178    0.007
 5151.00    2.79533   2.23218    0.007
 5152.00    2.94798   2.23299    0.007
 5153.00    3.08111   2.23471    0.007
 5154.00    3.00657   2.23762    0.007
 5155.00    2.91306   2.24171    0.007
 5156.00    2.67686   2.24661    0.007
 5157.00    2.51673   2.25159    0.007
 5158.00    2.79230   2.25583    0.007
 5159.00    3.04437   2.25858    0.007
 5160.00    3.18935   2.25954    0.007
 5161.00    3.28137   2.25843    0.007
 5162.00    3.17571   2.25497    0.007
 5163.00    3.07141   2.24902    0.007
 5164.00    2.97133   2.24060    0.007
 5165.00    2.98595   2.23028    0.007
 5166.00    3.30436   2.21942    0.007
 5167.00    3.30822   2.20983    0.007
 5168.00    2.59682   2.20304    0.007
 5169.00    2.26981   2.19965    0.007
 5170.00    2.69970   2.19931    0.007
 5171.00    2.86684   2.20133    0.007
 5172.00    2.58305   2.20548    0.008
 5173.00    2.21161   2.21198    0.008
 5174.00    1.70845   2.22045    0.009
 5175.00    1.60910   2.22954    0.009
 5176.00    2.04313   2.23765    0.009
 5177.00    2.44140   2.24351    0.008
 5178.00    2.79807   2.24623    0.007
 5179.00    3.09397   2.24544    0.007
 5180.00    3.32751   2.24164    0.007
 5181.00    3.36822   2.23611    0.007
 5182.00    3.23443   2.23068    0.007
 5183.00    3.16136   2.22748    0.007
 5184.00    3.13671   2.22828    0.007
 5185.00    2.88542   2.23321    0.007
 5186.00    2.47511   2.24067    0.007
 5187.00    2.43166   2.24837    0.007
 5188.00    2.61397   2.25448    0.007
 5189.00    2.65404   2.25813    0.007
 5190.00    2.61766   2.25935    0.000
 5191.00    2.51390   2.25889    0.000
 5192.00    2.37870   2.25805    0.000
 5193.00    2.44241   2.25803    0.000
 5194.00    2.58614   2.25930    0.000
 5195.00    2.67530   2.26169    0.000
 5196.00    2.74574   2.26478    0.000
 5197.00    2.68433   2.26793    0.000
 5198.00    2.58483   2.27054    0.000
 5199.00    2.44012   2.27217    0.000
 5200.00    2.28461   2.27242    0.000
 5201.00    2.71026   2.27118    0.000
 5202.00    3.24779   2.26851    0.000
 5203.00    3.09502   2.26468    0.000
 5204.00    2.83904   2.26022    0.000
 5205.00    3.17382   2.25612    0.000
 5206.00    3.57331   2.25337    0.000
 5207.00    3.50458   2.25262    0.000
 5208.00    3.40205   2.25406    0.000
 5209.00    3.40751   2.25761    0.000
 5210.00    3.41701   2.26275    0.000
 5211.00    3.32424   2.26866    0.007
 5212.00    3.22881   2.27452    0.007
 5213.00    3.05357   2.27973    0.007
 5214.00    2.88388   2.28399    0.007
 5215.00    2.80422   2.28737    0.007
 5216.00    2.71561   2.29045    0.007
 5217.00    2.53590   2.29381    0.007
 5218.00    2.37420   2.29746    0.007
 5219.00    2.34355   2.30078    0.007
 5220.00    2.36365   2.30291    0.007
 5221.00    2.66653   2.30301    0.007
 5222.00    2.92367   2.30053    0.007
 5223.00    2.97737   2.29573    0.006
 5224.00    3.03284   2.28970    0.006
 5225.00    3.09475   2.28407    0.007
 5226.00    3.19615   2.28055    0.007
 5227.00    3.41844   2.28038    0.007
 5228.00    3.47787   2.28355    0.007
 5229.00    3.11351   2.28866    0.007
 5230.00    2.81550   2.29383    0.007
 5231.00    2.66590   2.29780    0.007
 5232.00    2.75334   2.30014    0.007
 5233.00    3.30021   2.30150    0.007
 5234.00    3.47438   2.30309    0.007
 5235.00    3.01857   2.30574    0.007
 5236.00    2.82084   2.30948    0.007
 5237.00    3.00534   2.31366    0.007
 5238.00    3.05283   2.31753    0.007
 5239.00    2.92195   2.32068    0.007
 5240.00    2.77813   2.32296    0.007
 5241.00    2.61947   2.32446    0.007
 5242.00    2.61492   2.32521    0.007
 5243.00    2.76624   2.32517    0.007
 5244.00    2.73014   2.32429    0.007
 5245.00    2.52685   2.32249    0.007
 5246.00    2.39245   2.31967    0.007
 5247.00    2.31221   2.31649    0.007
 5248.00    2.35158   2.31383    0.007
 5249.00    2.47365   2.31212    0.007
 5250.00    2.54760   2.31144    0.007
 5251.00    2.59238   2.31199    0.007
 5252.00    2.94735   2.31368    0.007
 5253.00    3.46647   2.31616    0.007
 5254.00    3.22178   2.31921    0.007
 5255.00    2.62635   2.32272    0.007
 5256.00    2.40913   2.32636    0.007
 5257.00    2.34143   2.32927    0.007
 5258.00    2.40308   2.33042    0.007
 5259.00    2.50831   2.32900    0.007
 5260.00    2.57948   2.32484    0.007
 5261.00    2.64101   2.31847    0.007
 5262.00    2.90257   2.31093    0.007
 5263.00    3.21083   2.30346    0.007
 5264.00    3.05260   2.29730    0.007
 5265.00    2.80691   2.29313    0.007
 5266.00    2.80959   2.29101    0.007
 5267.00    2.84826   2.29049    0.007
 5268.00    2.96057   2.29078    0.007
 5269.00    3.08062   2.29173    0.007
 5270.00    3.23677   2.29418    0.007
 5271.00    3.39538   2.29857    0.007
 5272.00    2.98172   2.30417    0.007
 5273.00    2.54888   2.31015    0.007
 5274.00    2.63510   2.31614    0.007
 5275.00    2.71508   2.32198    0.007
 5276.00    2.57714   2.32782    0.007
 5277.00    2.45612   2.33351    0.007
 5278.00    2.59289   2.33819    0.007
 5279.00    2.72815   2.34108    0.007
 5280.00    2.84876   2.34216    0.007
 5281.00    2.97714   2.34214    0.007
 5282.00    3.16023   2.34217    0.006
 5283.00    3.27969   2.34329    0.006
 5284.00    3.05415   2.34616    0.006
 5285.00    2.78019   2.35075    0.007
 5286.00    2.29583   2.35602    0.007
 5287.00    1.99836   2.36079    0.007
 5288.00    2.36958   2.36440    0.007
 5289.00    2.68424   2.36674    0.007
 5290.00    2.82900   2.36788    0.007
 5291.00    2.95531   2.36785    0.007
 5292.00    3.03445   2.36665    0.007
 5293.00    2.99332   2.36429    0.007
 5294.00    2.68761   2.36086    0.007
 5295.00    2.44313   2.35652    0.007
 5296.00    2.31549   2.35188    0.007
 5297.00    2.23075   2.34801    0.007
 5298.00    2.21747   2.34606    0.007
 5299.00    2.19731   2.34655    0.007
 5300.00    2.16713   2.34918    0.007
 5301.00    2.28463   2.35324    0.007
 5302.00    2.59165   2.35818    0.007
 5303.00    2.79711   2.36338    0.007
 5304.00    2.88773   2.36809    0.007
 5305.00    2.91671   2.37171    0.007
 5306.00    2.88421   2.37406    0.007
 5307.00    2.82546   2.37552    0.007
 5308.00    2.74361   2.37657    0.007
 5309.00    2.56979   2.37739    0.007
 5310.00    2.32468   2.37775    0.007
 5311.00    2.31735   2.37737    0.007
 5312.00    2.47204   2.37617    0.007
 5313.00    2.71196   2.37425    0.007
 5314.00    3.00277   2.37193    0.007
 5315.00    3.22536   2.36960    0.007
 5316.00    3.41242   2.36780    0.007
 5317.00    3.25069   2.36712    0.007
 5318.00    2.93141   2.36750    0.007
 5319.00    2.87428   2.36826    0.007
 5320.00    2.91900   2.36867    0.006
 5321.00    3.04659   2.36847    0.006
 5322.00    3.20157   2.36729    0.006
 5323.00    3.24667   2.36485    0.006
 5324.00    3.26130   2.36120    0.006
 5325.00    3.14720   2.35682    0.006
 5326.00    3.00374   2.35217    0.006
 5327.00    2.80304   2.34808    0.006
 5328.00    2.59189   2.34605    0.006
 5329.00    2.53301   2.34756    0.006
 5330.00    2.49548   2.35238    0.006
 5331.00    2.46992   2.35899    0.006
 5332.00    2.44558   2.36576    0.006
 5333.00    2.70031   2.37171    0.006
 5334.00    2.97294   2.37631    0.006
 5335.00    2.67672   2.37914    0.006
 5336.00    2.36449   2.38004    0.006
 5337.00    2.43245   2.37931    0.006
 5338.00    2.49823   2.37753    0.006
 5339.00    2.50205   2.37533    0.006
 5340.00    2.50961   2.37351    0.006
 5341.00    2.57071   2.37288    0.006
 5342.00    2.66997   2.37355    0.006
 5343.00    3.12649   2.37490    0.006
 5344.00    3.51719   2.37637    0.006
 5345.00    3.45894   2.37772    0.006
 5346.00    3.31792   2.37942    0.006
 5347.00    2.73990   2.38180    0.006
 5348.00    2.32202   2.38489    0.006
 5349.00    2.58411   2.38869    0.006
 5350.00    2.82410   2.39335    0.006
 5351.00    2.98665   2.39849    0.006
 5352.00    3.08708   2.40352    0.006
 5353.00    3.00440   2.40810    0.006
 5354.00    2.97009   2.41214    0.006
 5355.00    3.05729   2.41537    0.006
 5356.00    3.15771   2.41748    0.006
 5357.00    3.28672   2.41837    0.006
 5358.00    3.30339   2.41799    0.006
 5359.00    3.10901   2.41637    0.007
 5360.00    2.89136   2.41368    0.007
 5361.00    2.63554   2.41030    0.007
 5362.00    2.41907   2.40684    0.006
 5363.00    2.25920   2.40380    0.006
 5364.00    2.25342   2.40120    0.006
 5365.00    2.44260   2.39881    0.006
 5366.00    2.69025   2.39641    0.006
 5367.00    3.00308   2.39384    0.007
 5368.00    3.11112   2.39123   -2.000
 5369.00    3.01779   2.38900   -2.000
 5370.00    2.77104   2.38800   -2.000
 5371.00    2.39123   2.38923   -2.000
 5372.00    2.31117   2.39319   -2.000
 5373.00    2.46010   2.39919   -2.000
 5374.00    2.67983   2.40569   -2.000
 5375.00    2.94711   2.41136   -2.000
 5376.00    2.94251   2.41537   -2.000
 5377.00    2.77798   2.41764   -2.000
 5378.00    2.78014   2.41849   -2.000
 5379.00    2.86779   2.41817   -2.000
 5380.00    2.88120   2.41714   -2.000
 5381.00    2.86163   2.41601   -2.000
 5382.00    2.71588   2.41521   -2.000
 5383.00    2.52195   2.41491    0.006
 5384.00    2.44327   2.41509    0.006
 5385.00    2.40198   2.41544    0.006
 5386.00    2.68809   2.41547    0.006
 5387.00    3.06311   2.41491    0.006
 5388.00    3.09982   2.41377    0.006
 5389.00    3.06117   2.41214    0.006
 5390.00    2.73744   2.41022    0.006
 5391.00    2.36307   2.40829    0.006
 5392.00    2.29773   2.40636    0.006
 5393.00    2.27431   2.40442    0.006
 5394.00    2.51244   2.40251    0.006
 5395.00    2.77584   2.40082    0.006
 5396.00    2.85882   2.39961    0.006
 5397.00    2.93096   2.39935    0.006
 5398.00    3.07331   2.40032    0.006
 5399.00    3.21820   2.40166    0.006
 5400.00    3.48095   2.40209    0.006
 5401.00    3.71725   2.40102    0.006
 5402.00    3.27130   2.39822    0.006
 5403.00    2.85770   2.39342    0.006
 5404.00    2.88267   2.38680    0.006
 5405.00    2.91614   2.37885    0.006
 5406.00    3.02614   2.37007    0.006
 5407.00    3.11196   2.36047    0.006
 5408.00    3.03799   2.35004    0.006
 5409.00    3.00001   2.33982    0.006
 5410.00    3.14718   2.33222    0.006
 5411.00    3.23806   2.33033    0.006
 5412.00    3.09532   2.33598    0.006
 5413.00    2.94874   2.34833    0.006
 5414.00    2.78897   2.36458    0.006
 5415.00    2.63339   2.38177    0.006
 5416.00    2.48998   2.39762    0.006
 5417.00    2.39760   2.41044    0.006
 5418.00    2.43127   2.41953    0.006
 5419.00    2.57952   2.42526    0.006
 5420.00    2.97172   2.42848    0.006
 5421.00    3.11897   2.43019    0.006
 5422.00    2.81320   2.43099    0.006
 5423.00    2.53030   2.43111    0.006
 5424.00    2.28436   2.43083    0.006
 5425.00    2.29230   2.43046    0.006
 5426.00    2.66008   2.42971    0.006
 5427.00    2.81270   2.42804    0.006
 5428.00    2.69697   2.42515    0.006
 5429.00    2.56669   2.42173    0.006
 5430.00    2.42042   2.41912    0.006
 5431.00    2.43315   2.41765    0.006
 5432.00    2.60002   2.41696    0.006
 5433.00    2.81556   2.41730    0.006
 5434.00    3.07270   2.41919    0.006
 5435.00    3.07093   2.42289    0.006
 5436.00    2.87421   2.42814    0.006
 5437.00    2.83264   2.43448    0.006
 5438.00    2.89371   2.44113    0.006
 5439.00    2.91489   2.44704    0.006
 5440.00    2.91295   2.45130    0.006
 5441.00    2.90438   2.45333    0.006
 5442.00    2.89246   2.45292    0.006
 5443.00    2.85795   2.45022    0.006
 5444.00    2.81356   2.44578    0.006
 5445.00    2.82953   2.44055    0.006
 5446.00    2.86812   2.43588    0.006
 5447.00    2.82458   2.43308    0.006
 5448.00    2.75491   2.43243    0.006
 5449.00    2.62637   2.43285    0.006
 5450.00    2.48219   2.43307    0.006
 5451.00    2.37734   2.43238    0.006
 5452.00    2.28105   2.43064    0.006
 5453.00    2.47680   2.42835    0.006
 5454.00    2.72300   2.42649    0.006
 5455.00    2.73913   2.42601    0.006
 5456.00    2.72510   2.42767    0.006
 5457.00    2.75718   2.43099    0.006
 5458.00    2.79353   2.43473    0.006
 5459.00    2.84833   2.43767    0.006
 5460.00    2.90416   2.43936    0.006
 5461.00    2.82007   2.43995    0.006
 5462.00    2.73350   2.43999    0.006
 5463.00    2.71412   2.44006    0.006
 5464.00    2.70808   2.44070    0.006
 5465.00    3.01505   2.44186    0.006
 5466.00    3.28140   2.44311    0.006
 5467.00    3.02608   2.44437    0.006
 5468.00    2.80614   2.44538    0.006
 5469.00    2.89238   2.44557    0.006
 5470.00    2.95353   2.44472    0.006
 5471.00    2.85387   2.44304    0.006
 5472.00    2.76142   2.44061    0.006
 5473.00    2.70508   2.43772    0.006
 5474.00    2.67431   2.43522    0.006
 5475.00    2.74730   2.43349    0.006
 5476.00    2.79054   2.43258    0.006
 5477.00    2.73364   2.43306    0.006
 5478.00    2.76976   2.43510   -2.000
 5479.00    3.07007   2.43787   -2.000
 5480.00    3.27866   2.44059   -2.000
 5481.00    3.26458   2.44317   -2.000
 5482.00    3.30030   2.44606   -2.000
 5483.00    3.44034   2.44925   -2.000
 5484.00    3.13797   2.45226   -2.000
 5485.00    2.02992   2.45468   -2.000
 5486.00    1.27691   2.45617   -2.000
 5487.00    1.08908   2.45698   -2.000
 5488.00    1.30349   2.45780   -2.000
 5489.00    2.07981   2.45887   -2.000
 5490.00    2.71396   2.45987   -2.000
 5491.00    3.17332   2.46070   -2.000
 5492.00    3.17487   2.46129   -2.000
 5493.00    2.68030   2.46147   -2.000
 5494.00    2.51576   2.46146   -2.000
 5495.00    2.66670   2.46149   -2.000
 5496.00    2.92195   2.46141   -2.000
 5497.00    3.26510   2.46132   -2.000
 5498.00    3.32255   2.46157   -2.000
 5499.00    3.16796   2.46186   -2.000
 5500.00    3.09937   2.46148   -2.000
 5501.00    3.08684   2.46041   -2.000
 5502.00    3.03103   2.45922    0.006
 5503.00    2.95052   2.45812    0.006
 5504.00    2.84347   2.45712    0.006
 5505.00    2.72323   2.45606    0.006
 5506.00    2.65212   2.45514    0.006
 5507.00    2.60212   2.45485    0.006
 5508.00    2.47287   2.45514    0.006
 5509.00    2.31443   2.45529    0.006
 5510.00    2.46396   2.45520    0.006
 5511.00    2.70960   2.45503    0.006
 5512.00    2.76505   2.45524    0.006
 5513.00    2.77101   2.45630    0.006
 5514.00    2.87477   2.45858    0.006
 5515.00    2.99930   2.46209    0.006
 5516.00    2.98976   2.46646    0.006
 5517.00    2.95771   2.47115    0.006
 5518.00    2.99435   2.47563    0.006
 5519.00    3.03970   2.47913    0.006
 5520.00    3.00282   2.48130    0.006
 5521.00    2.95870   2.48216    0.006
 5522.00    2.85529   2.48180    0.006
 5523.00    2.74878   2.48032    0.006
 5524.00    2.37316   2.47790    0.005
 5525.00    1.99942   2.47495    0.005
 5526.00    2.14814   2.47211    0.005
 5527.00    2.30921   2.46997    0.005
 5528.00    2.73622   2.46913    0.005
 5529.00    3.12880   2.46999    0.005
 5530.00    3.10133   2.47191    0.005
 5531.00    3.07195   2.47392    0.005
 5532.00    3.02666   2.47552    0.005
 5533.00    2.98592   2.47665    0.006
 5534.00    2.97352   2.47754    0.005
 5535.00    2.95940   2.47863    0.006
 5536.00    2.93689   2.48039    0.013
 5537.00    2.90653   2.48282   -1.000
 5538.00    2.84503   2.48550   -1.000
 5539.00    2.79453   2.48818   -1.000
 5540.00    2.78033   2.49039   -1.000
 5541.00    2.75333   2.49166   -1.000
 5542.00    2.69062   2.49200   -1.000
 5543.00    2.68394   2.49184    0.038
 5544.00    2.81100   2.49184    0.009
 5545.00    2.85861   2.49230    0.006
 5546.00    2.74244   2.49340    0.006
 5547.00    2.66885   2.49515    0.006
 5548.00    2.67162   2.49714    0.006
 5549.00    2.76709   2.49886    0.006
 5550.00    3.00794   2.49998    0.006
 5551.00    3.10763   2.50029    0.006
 5552.00    3.01295   2.49979    0.006
 5553.00    2.91965   2.49874    0.006
 5554.00    2.82804   2.49761    0.006
 5555.00    2.76520   2.49677    0.006
 5556.00    2.73310   2.49625    0.006
 5557.00    2.78450   2.49590    0.006
 5558.00    2.91458   2.49569    0.006
 5559.00    2.98861   2.49543    0.006
 5560.00    3.01608   2.49485    0.006
 5561.00    2.89751   2.49389    0.006
 5562.00    2.67210   2.49262    0.006
 5563.00    2.52941   2.49124    0.006
 5564.00    2.43985   2.49003    0.005
 5565.00    2.41148   2.48915    0.005
 5566.00    2.41750   2.48872    0.005
 5567.00    2.57092   2.48892    0.005
 5568.00    2.79641   2.48952    0.006
 5569.00    3.04650   2.49027    0.006
 5570.00    3.30697   2.49130    0.006
 5571.00    3.34503   2.49253    0.006
 5572.00    3.30263   2.49355    0.006
 5573.00    2.97539   2.49468    0.006
 5574.00    2.56100   2.49636    0.006
 5575.00    2.43002   2.49825    0.006
 5576.00    2.37121   2.50003    0.005
 5577.00    2.58703   2.50162    0.005
 5578.00    2.85974   2.50288    0.005
 5579.00    2.89649   2.50371    0.005
 5580.00    2.89476   2.50402    0.005
 5581.00    2.95141   2.50339    0.005
 5582.00    3.01520   2.50174    0.006
 5583.00    3.01897   2.49921    0.006
 5584.00    3.01771   2.49572    0.006
 5585.00    2.99919   2.49124    0.006
 5586.00    2.97983   2.48623    0.006
 5587.00    2.87271   2.48144    0.006
 5588.00    2.76241   2.47772    0.006
 5589.00    2.54147   2.47547    0.006
 5590.00    2.33233   2.47470    0.006
 5591.00    2.35759   2.47498    0.006
 5592.00    2.38148   2.47662    0.006
 5593.00    2.38947   2.47988    0.006
 5594.00    2.40011   2.48443    0.006
 5595.00    2.43210   2.48897    0.006
 5596.00    2.49195   2.49249    0.006
 5597.00    2.72011   2.49419    0.006
 5598.00    2.92868   2.49427    0.006
 5599.00    3.04377   2.49387    0.006
 5600.00    3.05682   2.49369    0.006
 5601.00    2.67350   2.49412    0.006
 5602.00    2.38152   2.49569    0.006
 5603.00    2.38508   2.49876    0.006
 5604.00    2.42530   2.50314    0.006
 5605.00    2.56591   2.50799    0.006
 5606.00    2.72002   2.51267    0.006
 5607.00    2.90581   2.51667    0.005
 5608.00    2.98296   2.51967    0.005
 5609.00    2.83972   2.52137    0.005
 5610.00    2.75455   2.52169    0.005
 5611.00    2.77193   2.52073    0.005
 5612.00    2.74258   2.51855    0.005
 5613.00    2.64099   2.51519    0.005
 5614.00    2.62432   2.51103    0.005
 5615.00    2.72288   2.50713    0.005
 5616.00    2.76845   2.50498    0.005
 5617.00    2.75072   2.50476    0.005
 5618.00    2.72636   2.50558    0.005
 5619.00    2.69503   2.50676    0.005
 5620.00    2.59569   2.50799    0.005
 5621.00    2.43317   2.50904    0.005
 5622.00    2.37806   2.50950    0.005
 5623.00    2.41093   2.50923    0.005
 5624.00    2.42755   2.50880    0.005
 5625.00    2.43247   2.50930    0.005
 5626.00    2.45648   2.51109    0.005
 5627.00    2.49257   2.51370    0.005
 5628.00    2.64361   2.51663    0.005
 5629.00    2.85825   2.51959    0.005
 5630.00    2.84629   2.52203    0.005
 5631.00    2.72530   2.52367    0.006
 5632.00    2.66008   2.52432    0.006
 5633.00    2.61804   2.52389    0.005
 5634.00    2.62062   2.52254    0.005
 5635.00    2.63906   2.52042    0.006
 5636.00    2.58583   2.51775    0.005
 5637.00    2.51111   2.51501    0.005
 5638.00    2.53642   2.51262    0.005
 5639.00    2.58664   2.51070    0.005
 5640.00    2.46089   2.50959    0.005
 5641.00    2.29959   2.50950    0.005
 5642.00    1.70625   2.51061    0.006
 5643.00    1.04450   2.51219    0.007
 5644.00    1.45082   2.51382    0.007
 5645.00    1.98289   2.51547    0.007
 5646.00    2.35126   2.51718    0.007
 5647.00    2.70656   2.51911    0.007
 5648.00    2.82988   2.52130    0.006
 5649.00    2.94287   2.52371    0.005
 5650.00    2.95317   2.52613    0.005
 5651.00    2.96311   2.52821    0.005
 5652.00    3.01286   2.52953    0.005
 5653.00    3.05346   2.52953    0.005
 5654.00    2.92544   2.52798    0.005
 5655.00    2.79750   2.52528    0.005
 5656.00    2.67049   2.52197    0.005
 5657.00    2.55495   2.51812    0.005
 5658.00    2.52835   2.51439    0.005
 5659.00    2.52201   2.51222    0.005
 5660.00    2.63460   2.51185    0.005
 5661.00    2.69442   2.51221    0.005
 5662.00    2.50876   2.51295    0.005
 5663.00    2.39591   2.51433    0.005
 5664.00    2.55987   2.51626    0.005
 5665.00    2.70422   2.51805    0.005
 5666.00    2.78634   2.51948    0.005
 5667.00    2.88202   2.52108    0.005
 5668.00    3.01419   2.52329    0.005
 5669.00    3.06659   2.52613    0.005
 5670.00    2.93493   2.52917    0.005
 5671.00    2.83948   2.53228    0.005
 5672.00    2.81631   2.53524    0.005
 5673.00    2.74871   2.53755    0.005
 5674.00    2.60385   2.53868    0.006
 5675.00    2.61068   2.53870    0.006
 5676.00    2.84847   2.53808    0.006
 5677.00    3.07128   2.53706    0.006
 5678.00    3.27404   2.53553    0.006
 5679.00    3.29632   2.53387    0.006
 5680.00    3.10601   2.53290    0.006
 5681.00    2.95660   2.53260    0.005
 5682.00    2.84968   2.53247    0.005
 5683.00    2.78443   2.53240    0.005
 5684.00    2.75736   2.53270    0.005
 5685.00    2.70742   2.53296    0.005
 5686.00    2.63900   2.53330    0.005
 5687.00    2.52702   2.53417    0.005
 5688.00    2.38408   2.53599    0.005
 5689.00    2.31354   2.53856    0.005
 5690.00    2.28814   2.54132    0.005
 5691.00    2.36745   2.54360    0.005
 5692.00    2.50381   2.54489    0.005
 5693.00    2.64121   2.54495    0.005
 5694.00    2.77911   2.54367    0.005
 5695.00    2.88434   2.54134    0.005
 5696.00    2.97623   2.53898    0.005
 5697.00    3.02569   2.53717    0.005
 5698.00    3.06036   2.53604    0.005
 5699.00    2.94395   2.53552    0.005
 5700.00    2.78311   2.53520    0.005
 5701.00    2.63506   2.53502    0.005
 5702.00    2.49012   2.53502    0.005
 5703.00    2.55834   2.53508    0.005
 5704.00    2.66854   2.53470    0.005
 5705.00    2.83251   2.53339    0.005
 5706.00    3.00474   2.53130    0.005
 5707.00    2.93911   2.52897    0.005
 5708.00    2.84653   2.52702    0.005
 5709.00    2.76624   2.52613    0.005
 5710.00    2.68688   2.52685    0.005
 5711.00    2.66856   2.52921    0.005
 5712.00    2.65272   2.53302    0.005
 5713.00    2.84653   2.53808    0.005
 5714.00    3.03330   2.54326    0.005
 5715.00    2.86221   2.54785    0.005
 5716.00    2.70403   2.55168    0.005
 5717.00    2.76744   2.55473    0.005
 5718.00    2.82683   2.55721    0.005
 5719.00    2.84361   2.55925    0.005
 5720.00    2.84387   2.56079    0.005
 5721.00    2.72034   2.56177    0.005
 5722.00    2.63000   2.56228    0.005
 5723.00    2.72908   2.56241    0.005
 5724.00    2.81840   2.56217    0.005
 5725.00    2.86343   2.56166    0.005
 5726.00    2.86633   2.56071    0.005
 5727.00    2.71248   2.55990    0.005
 5728.00    2.61506   2.55986    0.005
 5729.00    2.69333   2.56044    0.005
 5730.00    2.78220   2.56115    0.005
 5731.00    2.89907   2.56194    0.005
 5732.00    2.94303   2.56320    0.005
 5733.00    2.82156   2.56471    0.005
 5734.00    2.76954   2.56576    0.005
 5735.00    2.85402   2.56605    0.005
 5736.00    2.94273   2.56550    0.005
 5737.00    3.03870   2.56432    0.005
 5738.00    3.06684   2.56276    0.005
 5739.00    2.99326   2.56139    0.005
 5740.00    2.88066   2.56105    0.000
 5741.00    2.71663   2.56192    0.000
 5742.00    2.64740   2.56370    0.000
 5743.00    2.68825   2.56549    0.000
 5744.00    2.75617   2.56746    0.000
 5745.00    2.85180   2.56918    0.000
 5746.00    2.90543   2.57016    0.000
 5747.00    2.92111   2.57026    0.000
 5748.00    3.02937   2.57001    0.000
 5749.00    3.21133   2.57001    0.000
 5750.00    3.19076   2.56996    0.000
 5751.00    3.02836   2.56943    0.000
 5752.00    2.89578   2.56860    0.000
 5753.00    2.78153   2.56804    0.000
 5754.00    2.66697   2.56833    0.000
 5755.00    2.55225   2.56965    0.000
 5756.00    2.60524   2.57139    0.000
 5757.00    2.73636   2.57265    0.000
 5758.00    2.91614   2.57303    0.000
 5759.00    3.11545   2.57237    0.000
 5760.00    3.14506   2.57109    0.000
 5761.00    3.11655   2.56978    0.000
 5762.00    3.07131   2.56917    0.000
 5763.00    3.02124   2.56992    0.000
 5764.00    3.03547   2.57207    0.000
 5765.00    3.06502   2.57469    0.000
 5766.00    3.08520   2.57706    0.000
 5767.00    3.10358   2.57897    0.000
 5768.00    3.06960   2.58019    0.000
 5769.00    3.02782   2.58077    0.000
 5770.00    3.03209   2.58080    0.000
 5771.00    3.04138   2.58039    0.000
 5772.00    3.08210   2.57975    0.000
 5773.00    3.12507   2.57910    0.000
 5774.00    2.99600   2.57835    0.000
 5775.00    2.86060   2.57735    0.000
 5776.00    2.90345   2.57601    0.000
 5777.00    2.94784   2.57405    0.000
 5778.00    3.02048   2.57126    0.000
 5779.00    3.08451   2.56755    0.000
 5780.00    3.01014   2.56330    0.000
 5781.00    2.95772   2.55930    0.000
 5782.00    3.12743   2.55668    0.000
 5783.00    3.25123   2.55565    0.000
 5784.00    3.04227   2.55580    0.000
 5785.00    2.85427   2.55717    0.000
 5786.00    2.78264   2.55996    0.000
 5787.00    2.72985   2.56363    0.000
 5788.00    2.76060   2.56728    0.000
 5789.00    2.76634   2.57066    0.000
 5790.00    2.68093   2.57348    0.000
 5791.00    2.58157   2.57602   -2.000
 5792.00    2.43958   2.57870   -2.000
 5793.00    2.33851   2.58125   -2.000
 5794.00    2.34365   2.58319   -2.000
 5795.00    2.42445   2.58435   -2.000
 5796.00    2.67415   2.58467   -2.000
 5797.00    2.85308   2.58434   -2.000
 5798.00    2.89511   2.58414   -2.000
 5799.00    2.90471   2.58459   -2.000
 5800.00    2.85960   2.58516   -2.000
 5801.00    2.89229   2.58589   -2.000
 5802.00    3.03999   2.58717   -2.000
 5803.00    3.18885   2.58874   -2.000
 5804.00    3.33924   2.58986   -2.000
 5805.00    3.41815   2.59081   -2.000
 5806.00    3.41522   2.59170   -2.000
 5807.00    3.30020   2.59238   -2.000
 5808.00    3.07199   2.59261   -2.000
 5809.00    2.88084   2.59237   -2.000
 5810.00    2.72268   2.59162   -2.000
 5811.00    2.62222   2.59046    0.000
 5812.00    2.56702   2.58951    0.000
 5813.00    2.68676   2.58920    0.000
 5814.00    2.92722   2.58974    0.000
 5815.00    3.04324   2.59063    0.000
 5816.00    3.08396   2.59220    0.000
 5817.00    2.98904   2.59458    0.000
 5818.00    2.82248   2.59741    0.000
 5819.00    2.85685   2.60007    0.000
 5820.00    2.98330   2.60240    0.000
 5821.00    2.91560   2.60433    0.000
 5822.00    2.77131   2.60576    0.000
 5823.00    2.77449   2.60692    0.000
 5824.00    2.82722   2.60810    0.000
 5825.00    2.79104   2.60945    0.000
 5826.00    2.72976   2.61064    0.000
 5827.00    2.79139   2.61136    0.000
 5828.00    2.88164   2.61169    0.000
 5829.00    2.76185   2.61173    0.000
 5830.00    2.60280   2.61149    0.000
 5831.00    2.62708   2.61096    0.000
 5832.00    2.67780   2.61035    0.000
 5833.00    2.73617   2.60958    0.000
 5834.00    2.79533   2.60885    0.000
 5835.00    2.73339   2.60857    0.000
 5836.00    2.66326   2.60890    0.000
 5837.00    2.75376   2.60941    0.000
 5838.00    2.84957   2.61001    0.000
 5839.00    2.86716   2.61091    0.000
 5840.00    2.88398   2.61208    0.000
 5841.00    2.87832   2.61302    0.000
 5842.00    2.88206   2.61336    0.000
 5843.00    3.02794   2.61298    0.000
 5844.00    3.13977   2.61184    0.000
 5845.00    2.92114   2.61011    0.000
 5846.00    2.72116   2.60798    0.000
 5847.00    2.65192   2.60562    0.000
 5848.00    2.59765   2.60333    0.000
 5849.00    2.62421   2.60103    0.000
 5850.00    2.63520   2.59861    0.000
 5851.00    2.57868   2.59596    0.000
 5852.00    2.53227   2.59312    0.000
 5853.00    2.52189   2.59051    0.000
 5854.00    2.53577   2.58877    0.000
 5855.00    2.62234   2.58780    0.000
 5856.00    2.75100   2.58699    0.000
 5857.00    2.98702   2.58648    0.000
 5858.00    3.08724   2.58691    0.000
 5859.00    2.88929   2.58855    0.000
 5860.00    2.71367   2.59063    0.000
 5861.00    2.58054   2.59251    0.000
 5862.00    2.49246   2.59391    0.000
 5863.00    2.47925   2.59509    0.000
 5864.00    2.51408   2.59616    0.000
 5865.00    2.61887   2.59681    0.000
 5866.00    2.73942   2.59685    0.000
 5867.00    2.88015   2.59610    0.000
 5868.00    2.91428   2.59374    0.000
 5869.00    2.82808   2.58816    0.000
 5870.00    2.67159   2.57798    0.000
 5871.00    2.44513   2.56284    0.000
 5872.00    2.39825   2.54335    0.000
 5873.00    2.50905   2.52175    0.000
 5874.00    2.62841   2.49845    0.000
 5875.00    2.75442   2.47981    0.000
 5876.00    2.83669   2.47470    0.000
 5877.00    2.88923   2.48464    0.000
 5878.00    2.93008   2.50437    0.000
 5879.00    2.96398   2.52386    0.000
 5880.00    2.97846   2.54239    0.000
 5881.00    2.98286   2.55841    0.000
 5882.00    3.01343   2.57014    0.000
 5883.00    3.05579   2.57593    0.000
 5884.00    2.99184   2.57573    0.000
 5885.00    2.88668   2.57047    0.000
 5886.00    2.78852   2.56137    0.000
 5887.00    2.69266   2.54942    0.000
 5888.00    2.68662   2.53549    0.000
 5889.00    2.70541   2.52146    0.000
 5890.00    2.58529   2.51147    0.000
 5891.00    2.43358   2.50837    0.000
 5892.00    2.36537   2.51016    0.000
 5893.00    2.31235   2.51351    0.000
 5894.00    2.32252   2.51727    0.000
 5895.00    2.34151   2.52070    0.000
 5896.00    2.44969   2.52593    0.000
 5897.00    2.56683   2.53481    0.000
 5898.00    2.71773   2.54532    0.000
 5899.00    2.87079   2.55538    0.000
 5900.00    2.85238   2.56494    0.000
 5901.00    2.82896   2.57384    0.001
 5902.00    2.81029   2.58142    0.001
 5903.00    2.78904   2.58756    0.001
 5904.00    2.69493   2.59227    0.001
 5905.00    2.60067   2.59558    0.001
 5906.00    2.50413   2.59793    0.001
 5907.00    2.41065   2.59980    0.001
 5908.00    2.34572   2.60108    0.001
 5909.00    2.28824   2.60151    0.001
 5910.00    2.28128   2.60124    0.001
 5911.00    2.29668   2.60058    0.001
 5912.00    2.42968   2.59931    0.001
 5913.00    2.53269   2.59743    0.001
 5914.00    2.50876   2.59571    0.002
 5915.00    2.50442   2.59493    0.005
 5916.00    2.56861   2.59504    0.005
 5917.00    2.60362   2.59585    0.005
 5918.00    2.55281   2.59695    0.005
 5919.00    2.51483   2.59824    0.005
 5920.00    2.50902   2.59985    0.005
 5921.00    2.51633   2.60138    0.005
 5922.00    2.55195   2.60270    0.005
 5923.00    2.56758   2.60398    0.005
 5924.00    2.54573   2.60506    0.005
 5925.00    2.56730   2.60577    0.005
 5926.00    2.65994   2.60612    0.005
 5927.00    2.74334   2.60600    0.005
 5928.00    2.81349   2.60552    0.005
 5929.00    2.89572   2.60502    0.005
 5930.00    2.99319   2.60490    0.005
 5931.00    3.07270   2.60542    0.005
 5932.00    3.13219   2.60639    0.005
 5933.00    3.11425   2.60724    0.005
 5934.00    3.02029   2.60783    0.005
 5935.00    2.97870   2.60848    0.005
 5936.00    2.98246   2.60934    0.005
 5937.00    2.97255   2.60983    0.005
 5938.00    2.95222   2.60975    0.005
 5939.00    2.84863   2.60908    0.005
 5940.00    2.68924   2.60798    0.005
 5941.00    2.66032   2.60696    0.005
 5942.00    2.70799   2.60703    0.005
 5943.00    2.69644   2.60800    0.005
 5944.00    2.65457   2.60913    0.005
 5945.00    2.43149   2.61024    0.005
 5946.00    2.12805   2.61109    0.005
 5947.00    1.97989   2.61132    0.005
 5948.00    1.89088   2.61077    0.005
 5949.00    2.03271   2.61002    0.005
 5950.00    2.24924   2.60946    0.005
 5951.00    2.17435   2.60884    0.005
 5952.00    2.02053   2.60782    0.005
 5953.00    2.05222   2.60696    0.005
 5954.00    2.12511   2.60694    0.005
 5955.00    2.31881   2.60724    0.005
 5956.00    2.53388   2.60742    0.005
 5957.00    2.71244   2.60837    0.005
 5958.00    2.88607   2.61062    0.005
 5959.00    2.88386   2.61378    0.005
 5960.00    2.86476   2.61718    0.005
 5961.00    2.68559   2.62010    0.005
 5962.00    2.49687   2.62250    0.005
 5963.00    2.46712   2.62436    0.005
 5964.00    2.44174   2.62570    0.005
 5965.00    2.46429   2.62659    0.005
 5966.00    2.48683   2.62750    0.005
 5967.00    2.50923   2.62883    0.005
 5968.00    2.53799   2.63025    0.005
 5969.00    2.65242   2.63149    0.005
 5970.00    2.75756   2.63237    0.005
 5971.00    2.77947   2.63254    0.005
 5972.00    2.79046   2.63173    0.005
 5973.00    2.72954   2.62995    0.005
 5974.00    2.67774   2.62726    0.005
 5975.00    2.67269   2.62403    0.005
 5976.00    2.67711   2.62084    0.005
 5977.00    2.72073   2.61802    0.005
 5978.00    2.78170   2.61578    0.005
 5979.00    2.90210   2.61490    0.005
 5980.00    2.97281   2.61523    0.005
 5981.00    2.90010   2.61607    0.005
 5982.00    2.82630   2.61664    0.005
 5983.00    2.74982   2.61696    0.005
 5984.00    2.68540   2.61745    0.005
 5985.00    2.64661   2.61888    0.005
 5986.00    2.61538   2.62102    0.005
 5987.00    2.59807   2.62310    0.005
 5988.00    2.60962   2.62507    0.005
 5989.00    2.66772   2.62736    0.005
 5990.00    2.73614   2.62964    0.005
 5991.00    2.81918   2.63166    0.005
 5992.00    2.86742   2.63351    0.005
 5993.00    2.87233   2.63521    0.005
 5994.00    2.79231   2.63632    0.005
 5995.00    2.61910   2.63648    0.005
 5996.00    2.53327   2.63576    0.005
 5997.00    2.53202   2.63459    0.005
 5998.00    2.59404   2.63341    0.005
 5999.00    2.71008   2.63247    0.005
 6000.00    2.72308   2.63181    0.005
 6001.00    2.65864   2.63116    0.005
 6002.00    2.57909   2.63039    0.005
 6003.00    2.48957   2.62982    0.005
 6004.00    2.38402   2.62977    0.005
 6005.00    2.26921   2.62972    0.005
 6006.00    2.30517   2.62931    0.005
 6007.00    2.41709   2.62878    0.005
 6008.00    2.55531   2.62874    0.005
 6009.00    2.70500   2.62970    0.005
 6010.00    2.57329   2.63120    0.005
 6011.00    2.33629   2.63214    0.005
 6012.00    2.33633   2.63230    0.005
 6013.00    2.41160   2.63223    0.005
 6014.00    2.57054   2.63250    0.005
 6015.00    2.75166   2.63279    0.005
 6016.00    2.81369   2.63253    0.005
 6017.00    2.84990   2.63217    0.005
 6018.00    2.83839   2.63225    0.005
 6019.00    2.81866   2.63252    0.005
 6020.00    2.76304   2.63295    0.005
 6021.00    2.70274   2.63385    0.005
 6022.00    2.64811   2.63524    0.005
 6023.00    2.59401   2.63701    0.005
 6024.00    2.53863   2.63900    0.005
 6025.00    2.48318   2.64128    0.005
 6026.00    2.44037   2.64354    0.005
 6027.00    2.39888   2.64551    0.005
 6028.00    2.46045   2.64750    0.005
 6029.00    2.52285   2.64939    0.004
 6030.00    2.60454   2.65086    0.004
 6031.00    2.68486   2.65206    0.005
 6032.00    2.74755   2.65332    0.005
 6033.00    2.80309   2.65469    0.005
 6034.00    2.79699   2.65580    0.005
 6035.00    2.78397   2.65652    0.005
 6036.00    2.72669   2.65688    0.005
 6037.00    2.68978   2.65711    0.005
 6038.00    2.75466   2.65725    0.005
 6039.00    2.80874   2.65740    0.005
 6040.00    2.81916   2.65770    0.005
 6041.00    2.82759   2.65842    0.005
 6042.00    2.82939   2.65954    0.005
 6043.00    2.81403   2.66106    0.005
 6044.00    2.75005   2.66267    0.005
 6045.00    2.67940   2.66415    0.005
 6046.00    2.59258   2.66534    0.005
 6047.00    2.54011   2.66622    0.005
 6048.00    2.55943   2.66671    0.005
 6049.00    2.58676   2.66682    0.005
 6050.00    2.62863   2.66669    0.005
 6051.00    2.62110   2.66607    0.005
 6052.00    2.53506   2.66479    0.005
 6053.00    2.48017   2.66313    0.005
 6054.00    2.46870   2.66157    0.005
 6055.00    2.43668   2.66024    0.005
 6056.00    2.37945   2.65919    0.005
 6057.00    2.35751   2.65857    0.005
 6058.00    2.37373   2.65841    0.005
 6059.00    2.48709   2.65853    0.005
 6060.00    2.69314   2.65842    0.005
 6061.00    2.76655   2.65792    0.005
 6062.00    2.72837   2.65716    0.005
 6063.00    2.63700   2.65648    0.005
 6064.00    2.50624   2.65608    0.005
 6065.00    2.48229   2.65637    0.005
 6066.00    2.52785   2.65833    0.005
 6067.00    2.50053   2.66180    0.005
 6068.00    2.43171   2.66541    0.005
 6069.00    2.44278   2.66869    0.005
 6070.00    2.49347   2.67159    0.005
 6071.00    2.52914   2.67394    0.005
 6072.00    2.55837   2.67543    0.005
 6073.00    2.56991   2.67572    0.005
 6074.00    2.57493   2.67507    0.005
 6075.00    2.70015   2.67375    0.005
 6076.00    2.86277   2.67178    0.005
 6077.00    2.87325   2.66927    0.005
 6078.00    2.84425   2.66655    0.005
 6079.00    2.68399   2.66425    0.005
 6080.00    2.49595   2.66252    0.005
 6081.00    2.44349   2.66096    0.005
 6082.00    2.41370   2.65989    0.005
 6083.00    2.24832   2.65989    0.004
 6084.00    2.06583   2.66055    0.004
 6085.00    2.14707   2.66112    0.004
 6086.00    2.25143   2.66177    0.004
 6087.00    2.51917   2.66250    0.004
 6088.00    2.79537   2.66303    0.005
 6089.00    2.75406   2.66305    0.004
 6090.00    2.70649   2.66291    0.004
 6091.00    2.62324   2.66335    0.004
 6092.00    2.53998   2.66443    0.004
 6093.00    2.45657   2.66591    0.004
 6094.00    2.38996   2.66790    0.004
 6095.00    2.52695   2.67001    0.004
 6096.00    2.66175   2.67119    0.005
 6097.00    2.77848   2.67125    0.005
 6098.00    2.88267   2.67072    0.005
 6099.00    2.90919   2.66977    0.005
 6100.00    2.92048   2.66811    0.005
 6101.00    2.85751   2.66541    0.005
 6102.00    2.79460   2.66233    0.005
 6103.00    2.73185   2.66091    0.005
 6104.00    2.67299   2.66216    0.005
 6105.00    2.62689   2.66450    0.005
 6106.00    2.58848   2.66659    0.005
 6107.00    2.57141   2.66851    0.005
 6108.00    2.56915   2.67075    0.005
 6109.00    2.60216   2.67343    0.005
 6110.00    2.64764   2.67552    0.004
 6111.00    2.71879   2.67652    0.005
 6112.00    2.72267   2.67732    0.005
 6113.00    2.60613   2.67842    0.005
 6114.00    2.53299   2.67898    0.004
 6115.00    2.52777   2.67833    0.004
 6116.00    2.56625   2.67639    0.004
 6117.00    2.66478   2.67404    0.004
 6118.00    2.74541   2.67172    0.004
 6119.00    2.80439   2.66893    0.004
 6120.00    2.77247   2.66583    0.004
 6121.00    2.64361   2.66321    0.004
 6122.00    2.52523   2.66192    0.004
 6123.00    2.41671   2.66279    0.004
 6124.00    2.41117   2.66499    0.004
 6125.00    2.49106   2.66699    0.005
 6126.00    2.58815   2.66880    0.005
 6127.00    2.69781   2.67080    0.005
 6128.00    2.74206   2.67290    0.005
 6129.00    2.74439   2.67485    0.005
 6130.00    2.72528   2.67603    0.005
 6131.00    2.69414   2.67560    0.005
 6132.00    2.68141   2.67337    0.005
 6133.00    2.67765   2.66998    0.005
 6134.00    2.67918   2.66585    0.005
 6135.00    2.68293   2.66116    0.005
 6136.00    2.65966   2.65656    0.005
 6137.00    2.62663   2.65389    0.005
 6138.00    2.57688   2.65511    0.005
 6139.00    2.52204   2.65930    0.005
 6140.00    2.54553   2.66363    0.005
 6141.00    2.58891   2.66711    0.005
 6142.00    2.58888   2.67094    0.004
 6143.00    2.57989   2.67560    0.004
 6144.00    2.49824   2.67941    0.004
 6145.00    2.40477   2.68105    0.004
 6146.00    2.37653   2.68092    0.004
 6147.00    2.35621   2.67996    0.004
 6148.00    2.41493   2.67838    0.004
 6149.00    2.48024   2.67625    0.004
 6150.00    2.53484   2.67422    0.004
 6151.00    2.58893   2.67314    0.004
 6152.00    2.65840   2.67282    0.004
 6153.00    2.72779   2.67245    0.004
 6154.00    2.77923   2.67117    0.004
 6155.00    2.82751   2.66882    0.005
 6156.00    2.81365   2.66555    0.005
 6157.00    2.79556   2.66080    0.005
 6158.00    2.72871   2.65497    0.005
 6159.00    2.66000   2.64859    0.005
 6160.00    2.57635   2.64186    0.005
 6161.00    2.49905   2.63520    0.005
 6162.00    2.45989   2.63025    0.005
 6163.00    2.44642   2.62834    0.005
 6164.00    2.55499   2.62851    0.005
 6165.00    2.63444   2.62961    0.005
 6166.00    2.60110   2.63111    0.005
 6167.00    2.57964   2.63310    0.005
 6168.00    2.59657   2.63470    0.005
 6169.00    2.60796   2.63535    0.005
 6170.00    2.60421   2.63689    0.004
 6171.00    2.60639   2.64015    0.004
 6172.00    2.62244   2.64375    0.004
 6173.00    2.67967   2.64668    0.004
 6174.00    2.82030   2.64958    0.004
 6175.00    2.88563   2.65275    0.004
 6176.00    2.81826   2.65585    0.004
 6177.00    2.74393   2.65861    0.004
 6178.00    2.65888   2.66115    0.004
 6179.00    2.65336   2.66326    0.004
 6180.00    2.75556   2.66475    0.004
 6181.00    2.77819   2.66580    0.004
 6182.00    2.70591   2.66619    0.004
 6183.00    2.59421   2.66549    0.004
 6184.00    2.44106   2.66371    0.005
 6185.00    2.38716   2.66091    0.005
 6186.00    2.42534   2.65697    0.005
 6187.00    2.52628   2.65285    0.005
 6188.00    2.67854   2.64937    0.005
 6189.00    2.76637   2.64672    0.005
 6190.00    2.80782   2.64473    0.005
 6191.00    2.70255   2.64365    0.005
 6192.00    2.50460   2.64503    0.005
 6193.00    2.29727   2.64850    0.005
 6194.00    2.08475   2.65207    0.005
 6195.00    1.94723   2.65503    0.005
 6196.00    1.84571   2.65767   -2.000
 6197.00    2.04675   2.66004   -2.000
 6198.00    2.37322   2.66143   -2.000
 6199.00    2.91548   2.66187   -2.000
 6200.00    3.53423   2.66258   -2.000
 6201.00    3.45943   2.66445   -2.000
 6202.00    3.17707   2.66691   -2.000
 6203.00    2.91236   2.66910   -2.000
 6204.00    2.65203   2.67093   -2.000
 6205.00    2.48476   2.67241   -2.000
 6206.00    2.33622   2.67351   -2.000
 6207.00    2.45795   2.67370   -2.000
 6208.00    2.62231   2.67246    0.005
 6209.00    2.69294   2.66985    0.005
 6210.00    2.75258   2.66619    0.005
 6211.00    2.73712   2.66199    0.005
 6212.00    2.71569   2.65752    0.005
 6213.00    2.63312   2.65276    0.005
 6214.00    2.54787   2.64867    0.005
 6215.00    2.42990   2.64595    0.004
 6216.00    2.31454   2.64473    0.004
 6217.00    2.34070   2.64484    0.004
 6218.00    2.36508   2.64529    0.004
 6219.00    2.35665   2.64549    0.004
 6220.00    2.34588   2.64589    0.004
 6221.00    2.30948   2.64688    0.004
 6222.00    2.28733   2.64804    0.004
 6223.00    2.37533   2.64860    0.004
 6224.00    2.47455   2.64836    0.004
 6225.00    2.63945   2.64779    0.004
 6226.00    2.76623   2.64691    0.004
 6227.00    2.71617   2.64558    0.004
 6228.00    2.64075   2.64384    0.004
 6229.00    2.46919   2.64183    0.004
 6230.00    2.31889   2.64003    0.004
 6231.00    2.23590   2.63970    0.004
 6232.00    2.18735   2.64124    0.004
 6233.00    2.23124   2.64353    0.004
 6234.00    2.30799   2.64607    0.004
 6235.00    2.46037   2.64811    0.004
 6236.00    2.58415   2.64915    0.004
 6237.00    2.65093   2.64887    0.004
 6238.00    2.65117   2.64705    0.004
 6239.00    2.53591   2.64452    0.004
 6240.00    2.42657   2.64228    0.004
 6241.00    2.32621   2.64104    0.004
 6242.00    2.26103   2.64029    0.004
 6243.00    2.24281   2.63996    0.004
 6244.00    2.23384   2.64132    0.004
 6245.00    2.23576   2.64386    0.004
 6246.00    2.24374   2.64645    0.004
 6247.00    2.25802   2.64907    0.004
 6248.00    2.28184   2.65141    0.004
 6249.00    2.31437   2.65290    0.004
 6250.00    2.35755   2.65315    0.004
 6251.00    2.40931   2.65178    0.004
 6252.00    2.48177   2.64903    0.004
 6253.00    2.56891   2.64615    0.004
 6254.00    2.57572   2.64385    0.004
 6255.00    2.53255   2.64198    0.004
 6256.00    2.44712   2.64028    0.004
 6257.00    2.33872   2.63935    0.004
 6258.00    2.26473   2.64018    0.004
 6259.00    2.20701   2.64329    0.005
 6260.00    2.20905   2.64767    0.005
 6261.00    2.23543   2.65183    0.005
 6262.00    2.42527   2.65626    0.006
 6263.00    2.67199   2.66080    0.006
 6264.00    2.73552   2.66397    0.006
 6265.00    2.74531   2.66566    0.006
 6266.00    2.68728   2.66717    0.005
 6267.00    2.61277   2.66892    0.005
 6268.00    2.65805   2.67014    0.005
 6269.00    2.72685   2.67083    0.005
 6270.00    2.59276   2.67191    0.005
 6271.00    2.42763   2.67366    0.004
 6272.00    2.37921   2.67537    0.004
 6273.00    2.34395   2.67640    0.004
 6274.00    2.37993   2.67685    0.004
 6275.00    2.42126   2.67712    0.004
 6276.00    2.43177   2.67720    0.004
 6277.00    2.44104   2.67701    0.004
 6278.00    2.41373   2.67666    0.004
 6279.00    2.38873   2.67630    0.004
 6280.00    2.46850   2.67617    0.000
 6281.00    2.55164   2.67691    0.000
 6282.00    2.69224   2.67871    0.000
 6283.00    2.82133   2.68128    0.000
 6284.00    2.82939   2.68401    0.000
 6285.00    2.82748   2.68642    0.000
 6286.00    2.75120   2.68902    0.000
 6287.00    2.67578   2.69163    0.000
 6288.00    2.60528   2.69335    0.000
 6289.00    2.52898   2.69398    0.000
 6290.00    2.42642   2.69341    0.000
 6291.00    2.34792   2.69211    0.000
 6292.00    2.35869   2.69015    0.000
 6293.00    2.37123   2.68792    0.000
 6294.00    2.38926   2.68609    0.000
 6295.00    2.42029   2.68403    0.000
 6296.00    2.48555   2.68148    0.000
 6297.00    2.53176   2.67956    0.000
 6298.00    2.53483   2.67902    0.000
 6299.00    2.50692   2.67939    0.000
 6300.00    2.41822   2.67950    0.000
 6301.00    2.35518   2.67950    0.000
 6302.00    2.33601   2.68063    0.000
 6303.00    2.34754   2.68307    0.000
 6304.00    2.40504   2.68569    0.000
 6305.00    2.42895   2.68775    0.000
 6306.00    2.40865   2.68986    0.000
 6307.00    2.35773   2.69249    0.000
 6308.00    2.27129   2.69452    0.000
 6309.00    2.25218   2.69503    0.000
 6310.00    2.30189   2.69435    0.000
 6311.00    2.34266   2.69321    0.000
 6312.00    2.37535   2.69217    0.000
 6313.00    2.38666   2.69112    0.000
 6314.00    2.38096   2.68959    0.000
 6315.00    2.38868   2.68839    0.000
 6316.00    2.40578   2.68851    0.000
 6317.00    2.38958   2.68928    0.000
 6318.00    2.35297   2.68999    0.000
 6319.00    2.38779   2.69193    0.000
 6320.00    2.46085   2.69516    0.000
 6321.00    2.53283   2.69839    0.004
 6322.00    2.60432   2.70114    0.004
 6323.00    2.63857   2.70397    0.004
 6324.00    2.65790   2.70707    0.004
 6325.00    2.59660   2.70954    0.004
 6326.00    2.50775   2.71125    0.004
 6327.00    2.42075   2.71258    0.004
 6328.00    2.33427   2.71406    0.004
 6329.00    2.36909   2.71503    0.004
 6330.00    2.43273   2.71469    0.004
 6331.00    2.47682   2.71381    0.004
 6332.00    2.51717   2.71304    0.004
 6333.00    2.41561   2.71199    0.004
 6334.00    2.29299   2.71000    0.004
 6335.00    2.30080   2.70750    0.004
 6336.00    2.32275   2.70634    0.004
 6337.00    2.43114   2.70696    0.004
 6338.00    2.54568   2.70785    0.004
 6339.00    2.54479   2.70815    0.004
 6340.00    2.53969   2.70840    0.004
 6341.00    2.50013   2.70815    0.004
 6342.00    2.46007   2.70643    0.004
 6343.00    2.40712   2.70356    0.004
 6344.00    2.35644   2.70077    0.004
 6345.00    2.34208   2.69898    0.004
 6346.00    2.32331   2.69753    0.004
 6347.00    2.26004   2.69793    0.004
 6348.00    2.19730   2.70039    0.004
 6349.00    2.13837   2.70445    0.004
 6350.00    2.10898   2.70785    0.004
 6351.00    2.24315   2.71032    0.004
 6352.00    2.35655   2.71210    0.004
 6353.00    2.37808   2.71224    0.004
 6354.00    2.40119   2.71040    0.004
 6355.00    2.43002   2.70763    0.004
 6356.00    2.45422   2.70495    0.004
 6357.00    2.46432   2.70165    0.004
 6358.00    2.43033   2.69768    0.004
 6359.00    2.28215   2.69464    0.004
 6360.00    2.18649   2.69333    0.004
 6361.00    2.20783   2.69284    0.004
 6362.00    2.22703   2.69310    0.004
 6363.00    2.24208   2.69493    0.004
 6364.00    2.23261   2.69826    0.004
 6365.00    2.18184   2.70193    0.004
 6366.00    2.20410   2.70524    0.004
 6367.00    2.33413   2.70883    0.004
 6368.00    2.43585   2.71235    0.005
 6369.00    2.50084   2.71512    0.005
 6370.00    2.48157   2.71645    0.005
 6371.00    2.36600   2.71829    0.004
 6372.00    2.30509   2.72131    0.004
 6373.00    2.29928   2.72457    0.004
 6374.00    2.25772   2.72690    0.004
 6375.00    2.18437   2.72812    0.004
 6376.00    2.14490   2.72929    0.004
 6377.00    2.13198   2.72992    0.004
 6378.00    2.12898   2.72944    0.004
 6379.00    2.13284   2.72841    0.004
 6380.00    2.13713   2.72793    0.004
 6381.00    2.14169   2.72816    0.004
 6382.00    2.11254   2.72889    0.004
 6383.00    2.06561   2.72974    0.004
 6384.00    2.06977   2.73047    0.004
 6385.00    2.09729   2.73147    0.004
 6386.00    2.13416   2.73255    0.004
 6387.00    2.17471   2.73305    0.004
 6388.00    2.19600   2.73250    0.004
 6389.00    2.21085   2.73125    0.004
 6390.00    2.20091   2.73010    0.004
 6391.00    2.18400   2.72902    0.004
 6392.00    2.15441   2.72738    0.004
 6393.00    2.12188   2.72571    0.004
 6394.00    2.21868   2.72543    0.005
 6395.00    2.33957   2.72614    0.005
 6396.00    2.44039   2.72657    0.005
 6397.00    2.53833   2.72696    0.005
 6398.00    2.45326   2.72739    0.004
 6399.00    2.34914   2.72709    0.004
 6400.00    2.34525   2.72674    0.004
 6401.00    2.34809   2.72822    0.004
 6402.00    2.37344   2.73062    0.004
 6403.00    2.39953   2.73216    0.004
 6404.00    2.42364   2.73333    0.004
 6405.00    2.44537   2.73459    0.004
 6406.00    2.39281   2.73528    0.004
 6407.00    2.34207   2.73477    0.004
 6408.00    2.31873   2.73403    0.004
 6409.00    2.30169   2.73443    0.004
 6410.00    2.34547   2.73483    0.004
 6411.00    2.38314   2.73436    0.004
 6412.00    2.37816   2.73441    0.004
 6413.00    2.34737   2.73560    0.004
 6414.00    2.17765   2.73692    0.004
 6415.00    2.03252   2.73752    0.004
 6416.00    1.99361   2.73750    0.004
 6417.00    1.97049   2.73740    0.004
 6418.00    2.00355   2.73762    0.004
 6419.00    2.05249   2.73791    0.004
 6420.00    2.14888   2.73805    0.004
 6421.00    2.21960   2.73910    0.004
 6422.00    2.22497   2.74207    0.004
 6423.00    2.22352   2.74573    0.004
 6424.00    2.20712   2.74835    0.004
 6425.00    2.22702   2.74993    0.004
 6426.00    2.31592   2.75087    0.004
 6427.00    2.38920   2.75106    0.004
 6428.00    2.43658   2.75017    0.004
 6429.00    2.46250   2.74823    0.004
 6430.00    2.45719   2.74566    0.004
 6431.00    2.39862   2.74417    0.004
 6432.00    2.27194   2.74476    0.004
 6433.00    2.19938   2.74591    0.004
 6434.00    2.18778   2.74655    0.004
 6435.00    2.23654   2.74755    0.004
 6436.00    2.34527   2.74954    0.004
 6437.00    2.43158   2.75144    0.004
 6438.00    2.49823   2.75224    0.004
 6439.00    2.49049   2.75353    0.004
 6440.00    2.42531   2.75683    0.004
 6441.00    2.38041   2.76066    0.004
 6442.00    2.34927   2.76333    0.004
 6443.00    2.32390   2.76496    0.004
 6444.00    2.30197   2.76544    0.004
 6445.00    2.33483   2.76400    0.004
 6446.00    2.39611   2.76090    0.004
 6447.00    2.45176   2.75699    0.004
 6448.00    2.50488   2.75227    0.004
 6449.00    2.49468   2.74693    0.004
 6450.00    2.45999   2.74315    0.004
 6451.00    2.37376   2.74249    0.004
 6452.00    2.27057   2.74361    0.004
 6453.00    2.22535   2.74534    0.004
 6454.00    2.19612   2.74748    0.004
 6455.00    2.16888   2.74975    0.004
 6456.00    2.14209   2.75222    0.004
 6457.00    2.04921   2.75454    0.004
 6458.00    1.94435   2.75570    0.004
 6459.00    1.79753   2.75599    0.004
 6460.00    1.64487   2.75591    0.004
 6461.00    1.60628   2.75500    0.004
 6462.00    1.57908   2.75325    0.004
 6463.00    1.67115   2.75307    0.004
 6464.00    1.77075   2.75530    0.004
 6465.00    1.92773   2.75756    0.004
 6466.00    2.08629   2.75924    0.004
 6467.00    2.22256   2.76105    0.004
 6468.00    2.35505   2.76280    0.004
 6469.00    2.38194   2.76356    0.004
 6470.00    2.40540   2.76301    0.004
 6471.00    2.38037   2.76168    0.004
 6472.00    2.34720   2.76073    0.004
 6473.00    2.23858   2.76038    0.004
 6474.00    2.13489   2.75946    0.004
 6475.00    2.06448   2.75817    0.004
 6476.00    2.02045   2.75765    0.004
 6477.00    2.11479   2.75713    0.004
 6478.00    2.19644   2.75536    0.004
 6479.00    2.22447   2.75307    0.004
 6480.00    2.25455   2.75100    0.004
 6481.00    2.29180   2.74849    0.004
 6482.00    2.29918   2.74624    0.004
 6483.00    2.21892   2.74553    0.004
 6484.00    2.16477   2.74650    0.004
 6485.00    2.17595   2.74744    0.004
 6486.00    2.16636   2.74778    0.004
 6487.00    2.11203   2.74773    0.004
 6488.00    2.08412   2.74665    0.004
 6489.00    2.10567   2.74310    0.004
 6490.00    2.14302   2.73689    0.004
 6491.00    2.20620   2.72960    0.004
 6492.00    2.22415   2.72200    0.004
 6493.00    2.17731   2.71374    0.004
 6494.00    2.16036   2.70578    0.004
 6495.00    2.18111   2.70070    0.004
 6496.00    2.17352   2.69940    0.004
 6497.00    2.13447   2.70110    0.004
 6498.00    2.11122   2.70531    0.004
 6499.00    2.10346   2.71139    0.004
 6500.00    2.11820   2.71917    0.004
 6501.00    2.15239   2.72744    0.004
 6502.00    2.17675   2.73492    0.004
 6503.00    2.19362   2.74103    0.004
 6504.00    2.20020   2.74574    0.004
 6505.00    2.19987   2.74945    0.004
 6506.00    2.18618   2.75226    0.004
 6507.00    2.16465   2.75385    0.004
 6508.00    2.16930   2.75458    0.004
 6509.00    2.18731   2.75534    0.004
 6510.00    2.24838   2.75603    0.004
 6511.00    2.32849   2.75589    0.004
 6512.00    2.31124   2.75488    0.004
 6513.00    2.25699   2.75354    0.004
 6514.00    2.25212   2.75174    0.004
 6515.00    2.26319   2.74954    0.004
 6516.00    2.33075   2.74773    0.004
 6517.00    2.41357   2.74661    0.004
 6518.00    2.44763   2.74590    0.004
 6519.00    2.47090   2.74601    0.004
 6520.00    2.46169   2.74709    0.004
 6521.00    2.44675   2.74817    0.004
 6522.00    2.39582   2.74841    0.004
 6523.00    2.34004   2.74812    0.004
 6524.00    2.22399   2.74792    0.004
 6525.00    2.10218   2.74745    0.004
 6526.00    2.03253   2.74617    0.004
 6527.00    1.96596   2.74480    0.004
 6528.00    2.05751   2.74422    0.000
 6529.00    2.15267   2.74415    0.000
 6530.00    2.19431   2.74405    0.000
 6531.00    2.23564   2.74378    0.000
 6532.00    2.26883   2.74365    0.000
 6533.00    2.29714   2.74380    0.000
 6534.00    2.26019   2.74429    0.000
 6535.00    2.22527   2.74474    0.000
 6536.00    2.20835   2.74453    0.000
 6537.00    2.19276   2.74334    0.000
 6538.00    2.18594   2.74145    0.000
 6539.00    2.18926   2.73889    0.000
 6540.00    2.24440   2.73480    0.000
 6541.00    2.30538   2.72856    0.000
 6542.00    2.39052   2.72066    0.000
 6543.00    2.42679   2.71217    0.000
 6544.00    2.29609   2.70324    0.000
 6545.00    2.18931   2.69313    0.000
 6546.00    2.15141   2.68214    0.000
 6547.00    2.10619   2.67139    0.000
 6548.00    2.04295   2.66055    0.000
 6549.00    2.01406   2.64746    0.000
 6550.00    2.05802   2.63114    0.000
 6551.00    2.10845   2.61178    0.000
 6552.00    2.17080   2.58889    0.000
 6553.00    2.20483   2.56056    0.000
 6554.00    2.19327   2.52517    0.000
 6555.00    2.16009   2.48294    0.000
 6556.00    2.09639   2.43401    0.000
 6557.00    2.05443   2.37695    0.000
 6558.00    2.03947   2.31217    0.000
 6559.00    2.04239   2.24722    0.000
 6560.00    2.06488   2.19032    0.000
 6561.00    2.12602   2.14342    0.000
 6562.00    2.22449   2.11008    0.000
 6563.00    2.24977   2.10292    0.000
 6564.00    2.21271   2.12776    0.000
 6565.00    2.16653   2.17379    0.000
 6566.00    2.11350   2.22982    0.000
 6567.00    2.09313   2.29345    0.000
 6568.00    2.09428   2.35981    0.000
 6569.00    2.09572   2.42070    0.000
 6570.00    2.09733   2.47212    0.000
 6571.00    2.11365   2.51457    0.000
 6572.00    2.13737   2.54848    0.000
 6573.00    2.10122   2.57516    0.000
 6574.00    2.03902   2.59702    0.000
 6575.00    2.02541   2.61582    0.000
 6576.00    2.02993   2.63176    0.000
 6577.00    2.06699   2.64488    0.000
 6578.00    2.11436   2.65641    0.000
 6579.00    2.06100   2.66755    0.000
 6580.00    1.98101   2.67815    0.000
 6581.00    1.95962   2.68761    0.000
 6582.00    1.95090   2.69606    0.000
 6583.00    2.05417   2.70550    0.000
 6584.00    2.17665   2.71466    0.000
 6585.00    2.24272   2.72335    0.000
 6586.00    2.30145   2.73039    0.000
 6587.00    2.27003   2.73681    0.000
 6588.00    2.23038   2.74135    0.000
 6589.00    2.18876   2.74386    0.000
 6590.00    2.14703   2.74518    0.000
 6591.00    2.10522   2.74583    0.000
 6592.00    2.06463   2.74518    0.000
 6593.00    2.14033   2.74451    0.000
 6594.00    2.21545   2.74577    0.000
 6595.00    2.27721   2.74877    0.000
 6596.00    2.33129   2.75204    0.000
 6597.00    2.28791   2.75531    0.000
 6598.00    2.24762   2.75884    0.000
 6599.00    2.23379   2.76275    0.000
 6600.00    2.22666   2.76643    0.000
 6601.00    2.26213   2.76895    0.000
 6602.00    2.27512   2.77009    0.000
 6603.00    2.17611   2.77050    0.000
 6604.00    2.10132   2.77007    0.000
 6605.00    2.12426   2.76885    0.000
 6606.00    2.14560   2.76785    0.000
 6607.00    2.16159   2.76763    0.000
 6608.00    2.16057   2.76766    0.000
 6609.00    2.11145   2.76807    0.004
 6610.00    2.08344   2.77029    0.004
 6611.00    2.10646   2.77415    0.004
 6612.00    2.09448   2.77757    0.004
 6613.00    2.00946   2.78025    0.004
 6614.00    1.97485   2.78337    0.004
 6615.00    2.03167   2.78708    0.004
 6616.00    2.10410   2.78968    0.004
 6617.00    2.20129   2.79104    0.004
 6618.00    2.21630   2.79192    0.004
 6619.00    2.11692   2.79238    0.004
 6620.00    2.04756   2.79168    0.004
 6621.00    2.01498   2.79022    0.004
 6622.00    2.01129   2.78852    0.004
 6623.00    2.03882   2.78646    0.004
 6624.00    2.06616   2.78410    0.004
 6625.00    2.09331   2.78235    0.004
 6626.00    2.06379   2.78161    0.004
 6627.00    1.98668   2.78119    0.004
 6628.00    1.99925   2.78055    0.004
 6629.00    2.07813   2.77985    0.004
 6630.00    2.12915   2.77955    0.004
 6631.00    2.16206   2.77968    0.004
 6632.00    2.12367   2.77966    0.004
 6633.00    2.04476   2.77948    0.004
 6634.00    2.01077   2.78021    0.004
 6635.00    1.99899   2.78190    0.004
 6636.00    2.01735   2.78357    0.004
 6637.00    2.04860   2.78513    0.004
 6638.00    2.06970   2.78655    0.004
 6639.00    2.08708   2.78711    0.004
 6640.00    2.02808   2.78723    0.004
 6641.00    1.94537   2.78794    0.004
 6642.00    1.91372   2.78812    0.004
 6643.00    1.89530   2.78721    0.004
 6644.00    1.96529   2.78720    0.004
 6645.00    2.05395   2.78865    0.004
 6646.00    2.09015   2.78968    0.004
 6647.00    2.11761   2.78987    0.004
 6648.00    2.16931   2.79045    0.004
 6649.00    2.22406   2.79141    0.004
 6650.00    2.24933   2.79182    0.004
 6651.00    2.27204   2.79160    0.004
 6652.00    2.20956   2.79131    0.004
 6653.00    2.14272   2.79133    0.004
 6654.00    2.18612   2.79141    0.004
 6655.00    2.23129   2.79125    0.004
 6656.00    2.26403   2.79073    0.004
 6657.00    2.29020   2.79020    0.004
 6658.00    2.17781   2.78938    0.004
 6659.00    2.07371   2.78772    0.004
 6660.00    2.06939   2.78581    0.004
 6661.00    2.07403   2.78431    0.004
 6662.00    2.15268   2.78252    0.004
 6663.00    2.22641   2.78060    0.004
 6664.00    2.26974   2.78028    0.004
 6665.00    2.30004   2.78143    0.004
 6666.00    2.26703   2.78252    0.004
 6667.00    2.24234   2.78397    0.004
 6668.00    2.25051   2.78627    0.004
 6669.00    2.25473   2.78820    0.004
 6670.00    2.24598   2.78836    0.004
 6671.00    2.23594   2.78684    0.004
 6672.00    2.22228   2.78238    0.004
 6673.00    2.17962   2.77327    0.004
 6674.00    2.06803   2.76175    0.004
 6675.00    1.97850   2.75056    0.004
 6676.00    1.93427   2.73937    0.004
 6677.00    1.94683   2.72707    0.004
 6678.00    2.06083   2.71961    0.004
 6679.00    2.10223   2.72010    0.004
 6680.00    2.03018   2.72656    0.004
 6681.00    2.02984   2.73423    0.004
 6682.00    2.12786   2.74304    0.004
 6683.00    2.19618   2.75439    0.004
 6684.00    2.22863   2.76565    0.004
 6685.00    2.16274   2.77437    0.004
 6686.00    1.99217   2.78059    0.004
 6687.00    1.91278   2.78578    0.004
 6688.00    1.91902   2.78973    0.004
 6689.00    1.98011   2.79266    0.004
 6690.00    2.08662   2.79471    0.004
 6691.00    2.13331   2.79590    0.004
 6692.00    2.13640   2.79627    0.004
 6693.00    2.10718   2.79645    0.004
 6694.00    2.05728   2.79658    0.004
 6695.00    1.99261   2.79645    0.004
 6696.00    1.91968   2.79624    0.000
 6697.00    1.90083   2.79669    0.000
 6698.00    1.90832   2.79772    0.000
 6699.00    1.92603   2.79877    0.000
 6700.00    1.94803   2.79976    0.000
 6701.00    1.94620   2.80078    0.000
 6702.00    1.93580   2.80173    0.000
 6703.00    1.97020   2.80229    0.000
 6704.00    2.01825   2.80257    0.000
 6705.00    2.01276   2.80291    0.000
 6706.00    1.99372   2.80314    0.000
 6707.00    2.05318   2.80310    0.000
 6708.00    2.12880   2.80284    0.000
 6709.00    2.22643   2.80211    0.000
 6710.00    2.32762   2.80055    0.000
 6711.00    2.27989   2.79867    0.000
 6712.00    2.21413   2.79628    0.000
 6713.00    2.20360   2.79286    0.000
 6714.00    2.19765   2.78915    0.000
 6715.00    2.14344   2.78629    0.000
 6716.00    2.08693   2.78389    0.000
 6717.00    2.05798   2.78166    0.000
 6718.00    2.02924   2.78099    0.000
 6719.00    1.99018   2.78257    0.000
 6720.00    1.94882   2.78446    0.000
 6721.00    1.86275   2.78606    0.000
 6722.00    1.79617   2.78834    0.000
 6723.00    1.95322   2.79154    0.000
 6724.00    2.10344   2.79420    0.000
 6725.00    2.19923   2.79591    0.000
 6726.00    2.26245   2.79768    0.000
 6727.00    2.13024   2.79974    0.000
 6728.00    2.01076   2.80155    0.000
 6729.00    1.95162   2.80280    0.000
 6730.00    1.91509   2.80395    0.000
 6731.00    1.96593   2.80491    0.000
 6732.00    2.01027   2.80560    0.000
 6733.00    2.03368   2.80597    0.000
 6734.00    2.04876   2.80592    0.000
 6735.00    2.04111   2.80546    0.000
 6736.00    2.01880   2.80512    0.000
 6737.00    1.96223   2.80457    0.000
 6738.00    1.97321   2.80332    0.000
 6739.00    2.12068   2.80183    0.000
 6740.00    2.20312   2.80115    0.000
 6741.00    2.17113   2.80073    0.000
 6742.00    2.13467   2.79960    0.000
 6743.00    2.09131   2.79844    0.000
 6744.00    2.10655   2.79847    0.000
 6745.00    2.20102   2.79853    0.000
 6746.00    2.26301   2.79797    0.000
 6747.00    2.28632   2.79785    0.000
 6748.00    2.26021   2.79804    0.000
 6749.00    2.18221   2.79795    0.000
 6750.00    2.12163   2.79842    0.000
 6751.00    2.07718   2.79991    0.000
 6752.00    2.13174   2.80126    0.000
 6753.00    2.26713   2.80296    0.004
 6754.00    2.31708   2.80619    0.005
 6755.00    2.30567   2.80971    0.005
 6756.00    2.14311   2.81272    0.005
 6757.00    1.88526   2.81574    0.005
 6758.00    1.62842   2.81860    0.005
 6759.00    1.37214   2.82065    0.005
 6760.00    1.56656   2.82193    0.005
 6761.00    1.97696   2.82244    0.005
 6762.00    2.18667   2.82208    0.005
 6763.00    2.31335   2.82133    0.005
 6764.00    2.25023   2.82048    0.005
 6765.00    2.11999   2.81946    0.005
 6766.00    2.15626   2.81811    0.005
 6767.00    2.24225   2.81699    0.005
 6768.00    2.26962   2.81710    0.004
 6769.00    2.28248   2.81825    0.004
 6770.00    2.26245   2.81947    0.004
 6771.00    2.23582   2.82100    0.004
 6772.00    2.19543   2.82372    0.004
 6773.00    2.15287   2.82697    0.004
 6774.00    2.09914   2.82949    0.004
 6775.00    2.04411   2.83133    0.004
 6776.00    1.83462   2.83259    0.004
 6777.00    1.61295   2.83281    0.004
 6778.00    1.62691   2.83168    0.004
 6779.00    1.65113   2.82921    0.004
 6780.00    1.78319   2.82585    0.005
 6781.00    1.91367   2.82216    0.005
 6782.00    1.91820   2.81840    0.004
 6783.00    1.92176   2.81494    0.004
 6784.00    1.90761   2.81266    0.004
 6785.00    1.89090   2.81186    0.004
 6786.00    1.84623   2.81214    0.004
 6787.00    1.80247   2.81341    0.004
 6788.00    1.76574   2.81551    0.004
 6789.00    1.74477   2.81750    0.004
 6790.00    1.81568   2.81917    0.004
 6791.00    1.87689   2.82111    0.004
 6792.00    1.89322   2.82293    0.004
 6793.00    1.90043   2.82404    0.004
 6794.00    1.87322   2.82533    0.004
 6795.00    1.83153   2.82710    0.004
 6796.00    1.74416   2.82888    0.004
 6797.00    1.70216   2.83061    0.004
 6798.00    1.78171   2.83245    0.004
 6799.00    1.87986   2.83417    0.004
 6800.00    2.02079   2.83584    0.004
 6801.00    2.11918   2.83741    0.004
 6802.00    2.13299   2.83852    0.004
 6803.00    2.17454   2.83922    0.004
 6804.00    2.26415   2.83992    0.004
 6805.00    2.25973   2.84067    0.004
 6806.00    2.11266   2.84078    0.004
 6807.00    1.97801   2.84082    0.004
 6808.00    1.85993   2.84144    0.004
 6809.00    1.80283   2.84168    0.004
 6810.00    1.81733   2.84139    0.004
 6811.00    1.89277   2.84136    0.004
 6812.00    2.03126   2.84159    0.004
 6813.00    2.10494   2.84177    0.004
 6814.00    2.11943   2.84178    0.004
 6815.00    2.09431   2.84199    0.004
 6816.00    2.03732   2.84287    0.004
 6817.00    1.98267   2.84426    0.004
 6818.00    1.92968   2.84555    0.004
 6819.00    1.90640   2.84683    0.004
 6820.00    1.90156   2.84826    0.004
 6821.00    1.90759   2.84993    0.004
 6822.00    1.91951   2.85153    0.004
 6823.00    1.92583   2.85236    0.004
 6824.00    1.92950   2.85257    0.004
 6825.00    1.97292   2.85264    0.004
 6826.00    2.03251   2.85253    0.004
 6827.00    2.02535   2.85189    0.004
 6828.00    1.99501   2.85103    0.004
 6829.00    1.91839   2.85074    0.004
 6830.00    1.82824   2.85129    0.004
 6831.00    1.84125   2.85213    0.004
 6832.00    1.87925   2.85266    0.004
 6833.00    1.96347   2.85328    0.004
 6834.00    2.05673   2.85429    0.004
 6835.00    2.18718   2.85459    0.004
 6836.00    2.32330   2.85390    0.004
 6837.00    2.19977   2.85258    0.004
 6838.00    2.04710   2.85097    0.004
 6839.00    2.05429   2.84927    0.005
 6840.00    2.07343   2.84797    0.005
 6841.00    2.07810   2.84713    0.004
 6842.00    2.08221   2.84724    0.004
 6843.00    1.98302   2.84859    0.004
 6844.00    1.89018   2.85090    0.004
 6845.00    2.07813   2.85322    0.004
 6846.00    2.24816   2.85529    0.004
 6847.00    2.11526   2.85720    0.004
 6848.00    1.99124   2.85863    0.004
 6849.00    1.95992   2.85920    0.004
 6850.00    1.92937   2.85893    0.004
 6851.00    1.90446   2.85801    0.004
 6852.00    1.86645   2.85691    0.004
 6853.00    1.75416   2.85584    0.004
 6854.00    1.65585   2.85418    0.004
 6855.00    1.62065   2.85255    0.004
 6856.00    1.61005   2.85198    0.004
 6857.00    1.69044   2.85166    0.004
 6858.00    1.76378   2.85140    0.004
 6859.00    1.81527   2.85213    0.004
 6860.00    1.88361   2.85336    0.004
 6861.00    1.99633   2.85420    0.004
 6862.00    2.08030   2.85559    0.004
 6863.00    2.09931   2.85777    0.004
 6864.00    2.12379   2.85924    0.004
 6865.00    2.15896   2.85972    0.003
 6866.00    2.13227   2.86023    0.002
 6867.00    2.00001   2.86058    0.002
 6868.00    1.80744   2.85992    0.002
 6869.00    1.52472   2.85964    0.002
 6870.00    1.43751   2.86049    0.002
 6871.00    1.60712   2.86109    0.002
 6872.00    1.73406   2.86165    0.002
 6873.00    1.81162   2.86367    0.002
 6874.00    1.85689   2.86639    0.002
 6875.00    1.86921   2.86844    0.002
 6876.00    1.81608   2.87025    0.003
 6877.00    1.70406   2.87215    0.003
 6878.00    1.54708   2.87316    0.004
 6879.00    1.35443   2.87293    0.004
 6880.00    1.37119   2.87228    0.004
 6881.00    1.53408   2.87132    0.004
 6882.00    1.66882   2.86963    0.004
 6883.00    1.78635   2.86832    0.004
 6884.00    1.92462   2.86812    0.004
 6885.00    2.07399   2.86822    0.004
 6886.00    2.11268   2.86809    0.004
 6887.00    2.10003   2.86892    0.004
 6888.00    1.98155   2.87048    0.004
 6889.00    1.82075   2.87152    0.004
 6890.00    1.80586   2.87269    0.004
 6891.00    1.84069   2.87462    0.004
 6892.00    1.86900   2.87634    0.004
 6893.00    1.89543   2.87785    0.004
 6894.00    1.85252   2.87994    0.004
 6895.00    1.79318   2.88215    0.004
 6896.00    1.81881   2.88392    0.004
 6897.00    1.86063   2.88576    0.004
 6898.00    1.87854   2.88809    0.004
 6899.00    1.89292   2.89024    0.004
 6900.00    1.97265   2.89170    0.004
 6901.00    2.05943   2.89348    0.004
 6902.00    2.02933   2.89591    0.004
 6903.00    1.99098   2.89797    0.004
 6904.00    1.75573   2.89940    0.004
 6905.00    1.51340   2.90073    0.004
 6906.00    1.63976   2.90230    0.004
 6907.00    1.76499   2.90337    0.004
 6908.00    1.80886   2.90350    0.004
 6909.00    1.84926   2.90318    0.004
 6910.00    1.83480   2.90249    0.004
 6911.00    1.81781   2.90129    0.004
 6912.00    1.77546   2.90014    0.004
 6913.00    1.73870   2.89903    0.004
 6914.00    1.74209   2.89813    0.004
 6915.00    1.75004   2.89827    0.004
 6916.00    1.78316   2.89898    0.004
 6917.00    1.79750   2.89985    0.004
 6918.00    1.72903   2.90136    0.004
 6919.00    1.68012   2.90258    0.004
 6920.00    1.70209   2.90321    0.004
 6921.00    1.71747   2.90370    0.004
 6922.00    1.71285   2.90371    0.004
 6923.00    1.70555   2.90305    0.004
 6924.00    1.69133   2.90239    0.004
 6925.00    1.66523   2.90212    0.004
 6926.00    1.61270   2.90230    0.004
 6927.00    1.56710   2.90337    0.004
 6928.00    1.53488   2.90461    0.004
 6929.00    1.53841   2.90545    0.004
 6930.00    1.60203   2.90663    0.004
 6931.00    1.69750   2.90826    0.004
 6932.00    1.83986   2.90926    0.004
 6933.00    1.88846   2.90960    0.004
 6934.00    1.81561   2.91100    0.004
 6935.00    1.76043   2.91263    0.004
 6936.00    1.72539   2.91352    0.004
 6937.00    1.73579   2.91451    0.004
 6938.00    1.79191   2.91573    0.004
 6939.00    1.79549   2.91655    0.004
 6940.00    1.75246   2.91693    0.004
 6941.00    1.67090   2.91698    0.004
 6942.00    1.55920   2.91672    0.004
 6943.00    1.62747   2.91665    0.004
 6944.00    1.81946   2.91654    0.004
 6945.00    1.92592   2.91646    0.004
 6946.00    1.98082   2.91738    0.004
 6947.00    1.98420   2.91862    0.004
 6948.00    1.96048   2.91938    0.004
 6949.00    1.88179   2.92030    0.004
 6950.00    1.77802   2.92106    0.004
 6951.00    1.75450   2.92109    0.004
 6952.00    1.76251   2.92150    0.004
 6953.00    1.67811   2.92230    0.004
 6954.00    1.56280   2.92306    0.004
 6955.00    1.54018   2.92447    0.004
 6956.00    1.54361   2.92671    0.004
 6957.00    1.58719   2.92918    0.004
 6958.00    1.64006   2.93159    0.004
 6959.00    1.72498   2.93414    0.004
 6960.00    1.81586   2.93681    0.004
 6961.00    1.74295   2.93910    0.004
 6962.00    1.64660   2.94087    0.004
 6963.00    1.60262   2.94262    0.004
 6964.00    1.56406   2.94425    0.004
 6965.00    1.65474   2.94536    0.004
 6966.00    1.75403   2.94613    0.004
 6967.00    1.74468   2.94689    0.004
 6968.00    1.73184   2.94750    0.004
 6969.00    1.75149   2.94763    0.004
 6970.00    1.76704   2.94692    0.004
 6971.00    1.65695   2.94553    0.004
 6972.00    1.55787   2.94379    0.004
 6973.00    1.62259   2.94149    0.004
 6974.00    1.68758   2.93802    0.004
 6975.00    1.75513   2.93404    0.004
 6976.00    1.80178   2.93109    0.004
 6977.00    1.70304   2.92900    0.004
 6978.00    1.62715   2.92723    0.004
 6979.00    1.67392   2.92769    0.004
 6980.00    1.73405   2.93129    0.004
 6981.00    1.85176   2.93550    0.004
 6982.00    1.96503   2.93977    0.004
 6983.00    2.06257   2.94489    0.004
 6984.00    2.08766   2.94933    0.004
 6985.00    1.89674   2.95204    0.004
 6986.00    1.73701   2.95394    0.004
 6987.00    1.65652   2.95516    0.004
 6988.00    1.60343   2.95535    0.004
 6989.00    1.61027   2.95517    0.004
 6990.00    1.56654   2.95536    0.004
 6991.00    1.42692   2.95596    0.004
 6992.00    1.35871   2.95673    0.004
 6993.00    1.40876   2.95728    0.004
 6994.00    1.49455   2.95772    0.004
 6995.00    1.63224   2.95818    0.004
 6996.00    1.70988   2.95811    0.004
 6997.00    1.71087   2.95760    0.004
 6998.00    1.69643   2.95718    0.004
 6999.00    1.66463   2.95637    0.004
 7000.00    1.68001   2.95532    0.004
 7001.00    1.74220   2.95489    0.004
 7002.00    1.75369   2.95492    0.004
 7003.00    1.72085   2.95470    0.004
 7004.00    1.61147   2.95437    0.004
 7005.00    1.44310   2.95483    0.004
 7006.00    1.50941   2.95597    0.004
 7007.00    1.73473   2.95687    0.004
 7008.00    1.80923   2.95761    0.004
 7009.00    1.79418   2.95877    0.004
 7010.00    1.76341   2.95965    0.004
 7011.00    1.72451   2.95955    0.004
 7012.00    1.67690   2.95897    0.004
 7013.00    1.62539   2.95855    0.004
 7014.00    1.69760   2.95841    0.004
 7015.00    1.81755   2.95812    0.004
 7016.00    1.81792   2.95784    0.004
 7017.00    1.77903   2.95950    0.004
 7018.00    1.73236   2.96281    0.004
 7019.00    1.68355   2.96511    0.004
 7020.00    1.72848   2.96687    0.004
 7021.00    1.79460   2.96923    0.004
 7022.00    1.73686   2.97097    0.004
 7023.00    1.65675   2.97125    0.004
 7024.00    1.53702   2.97142    0.004
 7025.00    1.41181   2.97269    0.004
 7026.00    1.61539   2.97409    0.004
 7027.00    1.85162   2.97498    0.004
 7028.00    1.79917   2.97659    0.004
 7029.00    1.72865   2.97883    0.004
 7030.00    1.64774   2.98043    0.004
 7031.00    1.56731   2.98150    0.004
 7032.00    1.69061   2.98253    0.004
 7033.00    1.80359   2.98326    0.004
 7034.00    1.63339   2.98332    0.004
 7035.00    1.47603   2.98350    0.004
 7036.00    1.49902   2.98484    0.004
 7037.00    1.50968   2.98669    0.004
 7038.00    1.40657   2.98832    0.004
 7039.00    1.33372   2.99199    0.004
 7040.00    1.46483   2.99759    0.004
 7041.00    1.60241   3.00239    0.004
 7042.00    1.77376   3.00690    0.004
 7043.00    1.90463   3.01171    0.004
 7044.00    1.86500   3.01519    0.004
 7045.00    1.79219   3.01710    0.005
 7046.00    1.60392   3.01800    0.004
 7047.00    1.48637   3.01761    0.004
 7048.00    1.57583   3.01558    0.004
 7049.00    1.63304   3.01138    0.004
 7050.00    1.60978   3.00570   -2.000
 7051.00    1.62752   2.99930   -2.000
 7052.00    1.73345   2.99170   -2.000
 7053.00    1.79667   2.98379   -2.000
 7054.00    1.78012   2.97693   -2.000
 7055.00    1.78830   2.97083   -2.000
 7056.00    1.83682   2.96580   -2.000
 7057.00    1.85645   2.96226   -2.000
 7058.00    1.83476   2.95962   -2.000
 7059.00    1.75941   2.95710   -2.000
 7060.00    1.61655   2.95517   -2.000
 7061.00    1.61368   2.95416   -2.000
 7062.00    1.76607   2.95293   -2.000
 7063.00    1.80805   2.95180   -2.000
 7064.00    1.74206   2.95159   -2.000
 7065.00    1.73100   2.95124   -2.000
 7066.00    1.76733   2.95132   -2.000
 7067.00    1.72379   2.95291   -2.000
 7068.00    1.61957   2.95489   -2.000
 7069.00    1.71517   2.95762   -2.000
 7070.00    1.94418   2.96183   -2.000
 7071.00    2.00834   2.96625   -2.000
 7072.00    1.97609   2.97021   -2.000
 7073.00    1.93007   2.97407   -2.000
 7074.00    1.87703   2.97751   -2.000
 7075.00    1.87728   2.97999   -2.000
 7076.00    1.90106   2.98127   -2.000
 7077.00    1.94410   2.98173   -2.000
 7078.00    1.99444   2.98138   -2.000
 7079.00    1.76554   2.97944   -2.000
 7080.00    1.44672   2.97607   -2.000
 7081.00    1.51303   2.97156   -2.000
 7082.00    1.68308   2.96564   -2.000
 7083.00    1.96350   2.95859   -2.000
 7084.00    2.26829   2.95046   -2.000
 7085.00    2.01155   2.94234   -2.000
 7086.00    1.65612   2.93534   -2.000
 7087.00    1.77066   2.92836   -2.000
 7088.00    1.94816   2.92200   -2.000
 7089.00    1.93764   2.91771   -2.000
 7090.00    1.90926   2.91454   -2.000
 7091.00    1.92241   2.91236   -2.000
 7092.00    1.93799   2.91170   -2.000
 7093.00    1.96320   2.91190   -2.000
 7094.00    1.98772   2.91294   -2.000
 7095.00    1.88537   2.91503   -2.000
 7096.00    1.78200   2.91835   -2.000
 7097.00    1.65337   2.92179   -2.000
 7098.00    1.54373   2.92547   -2.000
 7099.00    1.68624   2.93054   -2.000
 7100.00    1.78177   2.93463   -2.000
 7101.00    1.46083   2.93826   -2.000
 7102.00    1.20272   2.94184   -2.000
 7103.00    1.35501   2.94454   -2.000
 7104.00    1.51684   2.94687   -2.000
 7105.00    1.72721   2.94912   -2.000
 7106.00    1.82433   2.95037   -2.000
 7107.00    1.45528   2.95076   -2.000
 7108.00    1.19544   2.95154   -2.000
 7109.00    1.30783   2.95237   -2.000
 7110.00    1.46711   2.95260   -2.000
 7111.00    1.76109   2.95320   -2.000
 7112.00    1.94385   2.95493   -2.000
 7113.00    1.85370   2.95728   -2.000
 7114.00    1.82964   2.95981   -2.000
 7115.00    1.94546   2.96238   -2.000
 7116.00    1.93230   2.96528   -2.000
 7117.00    1.68197   2.96796   -2.000
 7118.00    1.45494   2.96946   -2.000
 7119.00    1.26534   2.96991   -2.000
 7120.00    1.21452   2.97000   -2.000
 7121.00    1.35935   2.96883   -2.000
 7122.00    1.30996   2.96570   -2.000
 7123.00    1.01966   2.96233   -2.000
 7124.00    1.03528   2.95888   -2.000
 7125.00    1.38538   2.95411   -2.000
 7126.00    1.71403   2.94908   -2.000
 7127.00    2.02200   2.94535   -2.000
 7128.00    2.04206   2.94264   -2.000
 7129.00    1.81729   2.94057   -2.000
 7130.00    1.64945   2.93953   -2.000
 7131.00    1.52424   2.94005   -2.000
 7132.00    1.59229   2.94201   -2.000
 7133.00    1.78751   2.94447   -2.000
 7134.00    1.78330   2.94764   -2.000
 7135.00    1.66423   2.95082   -2.000
 7136.00    1.52083   2.95365   -2.000
 7137.00    1.36521   2.95698   -2.000
 7138.00    1.43511   2.95959   -2.000
 7139.00    1.60294   2.96135   -2.000
 7140.00    1.63752   2.96371   -2.000
 7141.00    1.62247   2.96580   -2.000
 7142.00    1.52383   2.96685   -2.000
 7143.00    1.39877   2.96801   -2.000
 7144.00    1.55208   2.96885   -2.000
 7145.00    1.77880   2.96890   -2.000
 7146.00    1.64136   2.96970   -2.000
 7147.00    1.42543   2.97070   -2.000
 7148.00    1.42776   2.97125   -2.000
 7149.00    1.46739   2.97380   -2.000
 7150.00    1.40403   2.97752   -2.000
 7151.00    1.32734   2.98063   -2.000
 7152.00    1.46021   2.98442   -2.000
 7153.00    1.61211   2.98894   -2.000
 7154.00    1.61292   2.99226   -2.000
 7155.00    1.60547   2.99419   -2.000
 7156.00    1.58562   2.99607   -2.000
 7157.00    1.56251   2.99728   -2.000
 7158.00    1.26659   2.99677   -2.000
 7159.00    1.00840   2.99564   -2.000
 7160.00    1.60683   2.99425   -2.000
 7161.00    2.18449   2.99248   -2.000
 7162.00    2.50058   2.99107   -2.000
 7163.00    2.76431   2.98969   -2.000
 7164.00    2.58136   2.98867   -2.000
 7165.00    2.32829   2.98855   -2.000
 7166.00    1.63076   2.98991   -2.000
 7167.00    1.12976   2.99206   -2.000
 7168.00    1.60458   2.99440   -2.000
 7169.00    2.04313   2.99728   -2.000
 7170.00    2.33564   3.00027   -2.000
 7171.00    2.50193   3.00306   -2.000
 7172.00    2.24652   3.00526   -2.000
 7173.00    2.01164   3.00651   -2.000
 7174.00    1.83463   3.00735   -2.000
 7175.00    1.73450   3.00773   -2.000
 7176.00    1.81978   3.00702   -2.000
 7177.00    1.79140   3.00620   -2.000
 7178.00    1.52632   3.00598   -2.000
 7179.00    1.44857   3.00558   -2.000
 7180.00    1.70998   3.00500   -2.000
 7181.00    1.83233   3.00497   -2.000
 7182.00    1.73457   3.00568   -2.000
 7183.00    1.68996   3.00628   -2.000
 7184.00    1.71921   3.00596   -2.000
 7185.00    1.62671   3.00568   -2.000
 7186.00    1.38534   3.00525   -2.000
 7187.00    1.38630   3.00410   -2.000
 7188.00    1.64846   3.00361   -2.000
 7189.00    1.67160   3.00398   -2.000
 7190.00    1.46748   3.00472   -2.000
 7191.00    1.42913   3.00666   -2.000
 7192.00    1.52973   3.00901   -2.000
 7193.00    1.58690   3.01079   -2.000
 7194.00    1.61199   3.01287   -2.000
 7195.00    1.60390   3.01533   -2.000
 7196.00    1.57429   3.01674   -2.000
 7197.00    1.41020   3.01751   -2.000
 7198.00    1.16982   3.01890   -2.000
 7199.00    1.20374   3.02021   -2.000
 7200.00    1.37312   3.02120   -2.000
 7201.00    1.68011   3.02206   -2.000
 7202.00    2.04585   3.02261   -2.000
 7203.00    2.17018   3.02279   -2.000
 7204.00    2.20619   3.02277   -2.000
 7205.00    1.71458   3.02265   -2.000
 7206.00    1.05951   3.02198   -2.000
 7207.00    1.16703   3.02125   -2.000
 7208.00    1.47137   3.02219   -2.000
 7209.00    1.38670   3.02351   -2.000
 7210.00    1.22020   3.02491   -2.000
 7211.00    1.11235   3.02805   -2.000
 7212.00    1.01424   3.03112   -2.000
 7213.00    1.30034   3.03361   -2.000
 7214.00    1.63444   3.03707   -2.000
 7215.00    1.87567   3.04063   -2.000
 7216.00    2.10885   3.04336   -2.000
 7217.00    1.92746   3.04647   -2.000
 7218.00    1.72501   3.05018   -2.000
