###################################################################
## OUTPUT of StarlightChains_v04.for    [Cid@UFSC - 01/Apr/2007] ##
###################################################################

## Some input info
KUG0210-078._38_35.txt                   [arq_obs]
Base.CB07.vall.4m                        [arq_base]
Masks.EmLines.NEW.gm                     [arq_masks]
StCv04.C11.config                        [arq_config]
   66                                    [N_base]
    0                                    [N_YAV_components = # of components with extra extinction!]
    0                                    [i_FitPowerLaw (1/0 = Yes/No)]
-9.99                                    [alpha_PowerLaw]
CCM                                      [red_law_option]
 1.458241                                [q_norm = A(l_norm)/A(V)]

## (Re)Sampling Parameters
 3741.00                                 [l_ini (A)]
 7218.00                                 [l_fin (A)]
    1.00                                 [dl    (A)]     (OBS: dl_cushion =    50.00 A)

## Normalization info
 4020.00                                 [l_norm (A) - for base]
 4010.00                                 [llow_norm (A) - window for f_obs]
 4060.00                                 [lupp_norm (A) - window for f_obs]
1.590932E-17                             [fobs_norm (in input units)]

## S/N
 3691.00                                 [llow_SN (A) - window for S/N]
 7268.00                                 [lupp_SN (A) - window for S/N]
   4.384                                 [S/N in S/N window]
   3.332                                 [S/N in norm. window]
   0.024                                 [S/N_err in S/N window]
   0.018                                 [S/N_err in norm. window]
  1.0000                                 [fscale_chi2]

## etc...
    -2007660                             [idum_orig]
  2431                                   [NOl_eff]
  2427                                   [Nl_eff]
     4    NSIGMA                         [Ntot_cliped & clip_method]
  3168130                                [Nglobal_steps]
   7                                     [N_chains]
  34                                     [NEX0s_base = N_base in EX0s-fits]
 0   1   1        6   2.0   1.593E+03    [Clip-Bug, RC-Crash & Burn-In warning-flags, n_censored_weights, wei_nsig_threshold & wei_limit]
    70     69.944     69.347      0.597  [idt_all, wdt_TotTime, wdt_UsrTime & wdt_SysTime (sec)]

## Synthesis Results - Best model ##

 2.35651E-03                             [chi2/Nl_eff]
    19.71492                             [adev (%)]

    98.32280                             [sum-of-x (%)]
 3.09914E-17                             [Flux_tot (units of input spectrum!)]
 1.40503E-12                             [Mini_tot (???)]
 7.27707E-13                             [Mcor_tot (???)]

 371.31                                  [v0_min  (km/s)]
  67.58                                  [vd_min  (km/s)]
 0.5091                                  [AV_min  (mag)]
 0.0000                                  [YAV_min (mag)]

# j     x_j(%)      Mini_j(%)     Mcor_j(%)     age_j(yr)     Z_j      (L/M)_j    YAV?  Mstars   component_j        a/Fe...       SSP_chi2r SSP_adev(%)   SSP_AV   SSP_x(%)
  1      0.0000     0.0000E+00    0.0000E+00    1.000000E+06  0.00400  1.094E-02    0   1.0000   age020_m42            0.0000     1.0727E-01    24.3477   4.0000    90.8977
  2      0.0000     0.0000E+00    0.0000E+00    3.160000E+06  0.00400  4.007E-02    0   0.9999   age045_m42            0.0000     6.7100E-02    29.4698   4.0000    72.1328
  3      0.0000     0.0000E+00    0.0000E+00    5.010000E+06  0.00400  2.539E-02    0   0.9488   age055_m42            0.0000     6.7559E-02    26.5830   4.0000    80.4677
  4      0.0000     0.0000E+00    0.0000E+00    6.610000E+06  0.00400  2.620E-02    0   0.9220   age061_m42            0.0000     6.3967E-02    30.4419   4.0000    70.0998
  5      0.1039     1.7638E-04    3.0179E-04    1.000000E+07  0.00400  1.322E-02    0   0.8862   age070_m42            0.0000     3.4534E-02    35.8672   4.0000    64.3432
  6      1.3985     3.9798E-03    6.5860E-03    1.445000E+07  0.00400  7.883E-03    0   0.8571   age078_m42            0.0000     6.3972E-02    31.7137   4.0000    71.8789
  7      0.0000     0.0000E+00    0.0000E+00    2.512000E+07  0.00400  5.251E-03    0   0.8174   age090_m42            0.0000     4.3600E-02    37.9497   4.0000    61.4384
  8      0.0000     0.0000E+00    0.0000E+00    4.000000E+07  0.00400  3.649E-03    0   0.7851   age104_m42            0.0000     3.6113E-02    40.7340   4.0000    56.0880
  9      0.0000     0.0000E+00    0.0000E+00    5.500000E+07  0.00400  3.098E-03    0   0.7629   age110_m42            0.0000     4.2090E-02    37.6249   4.0000    59.5491
 10      0.5687     5.7263E-03    7.9682E-03    1.015200E+08  0.00400  2.228E-03    0   0.7207   age116_m42            0.0000     4.9274E-02    36.8494   4.0000    60.0337
 11      0.0000     0.0000E+00    0.0000E+00    2.861200E+08  0.00400  1.093E-03    0   0.6648   age125_m42            0.0000     3.8738E-02    46.2988   4.0000    48.9766
 12      0.0000     0.0000E+00    0.0000E+00    5.088000E+08  0.00400  6.597E-04    0   0.6365   age130_m42            0.0000     2.6671E-02    45.4385   4.0000    48.8497
 13      0.0000     0.0000E+00    0.0000E+00    1.434000E+09  0.00400  2.132E-04    0   0.5798   age139_m42            0.0000     1.9426E-02    59.9973   4.0000    32.4427
 14      1.1772     4.4798E-01    4.6508E-01    4.250000E+09  0.00400  5.895E-05    0   0.5377   age158_m42            0.0000     1.2942E-02    64.9596   4.0000    25.4458
 15      5.2362     3.3467E+00    3.3678E+00    7.500000E+09  0.00400  3.510E-05    0   0.5212   age171_m42            0.0000     8.5863E-03    67.3492   4.0000    23.2136
 16      5.1175     5.7259E+00    5.5653E+00    1.300000E+10  0.00400  2.005E-05    0   0.5034   age193_m42            0.0000     6.5145E-03    69.4682   4.0000    21.4267
 17      6.1565     9.0566E+00    8.6854E+00    1.800000E+10  0.00400  1.525E-05    0   0.4967   age213_m42            0.0000     7.3408E-03    69.9569   4.0000    21.1286
 18      0.0000     0.0000E+00    0.0000E+00    1.000000E+06  0.00800  1.238E-02    0   1.0000   age020_m52            0.0000     1.0249E-01    24.3350   4.0000    90.8949
 19      0.0000     0.0000E+00    0.0000E+00    3.160000E+06  0.00800  3.074E-02    0   0.9966   age045_m52            0.0000     9.4731E-02    24.3922   4.0000    88.7384
 20      0.8844     7.4361E-04    1.3558E-03    5.010000E+06  0.00800  2.668E-02    0   0.9443   age055_m52            0.0000     8.3022E-02    25.8537   4.0000    82.2076
 21      1.1126     1.1685E-03    2.0704E-03    6.610000E+06  0.00800  2.136E-02    0   0.9177   age061_m52            0.0000     1.5899E-02    42.1663   4.0000    52.2811
 22      0.0000     0.0000E+00    0.0000E+00    1.000000E+07  0.00800  1.215E-02    0   0.8827   age070_m52            0.0000     3.8431E-02    34.3131   4.0000    69.5651
 23      0.0000     0.0000E+00    0.0000E+00    1.445000E+07  0.00800  8.717E-03    0   0.8552   age078_m52            0.0000     3.7916E-02    32.1238   4.0000    71.8183
 24      0.0000     0.0000E+00    0.0000E+00    2.512000E+07  0.00800  5.592E-03    0   0.8162   age090_m52            0.0000     2.3181E-02    37.2259   4.0000    63.8940
 25      0.0654     3.7643E-04    5.6989E-04    4.000000E+07  0.00800  3.896E-03    0   0.7841   age104_m52            0.0000     1.7951E-02    37.9491   4.0000    61.9512
 26      0.0000     0.0000E+00    0.0000E+00    1.015200E+08  0.00800  2.148E-03    0   0.7226   age116_m52            0.0000     2.0299E-02    37.8565   4.0000    59.8930
 27      0.0000     0.0000E+00    0.0000E+00    2.861200E+08  0.00800  9.925E-04    0   0.6683   age125_m52            0.0000     1.0813E-02    44.3972   4.0000    50.4809
 28      0.0000     0.0000E+00    0.0000E+00    9.047900E+08  0.00800  3.141E-04    0   0.6138   age135_m52            0.0000     1.0051E-03    55.7821   4.0000    36.9707
 29      0.8455     1.1034E-01    1.2469E-01    1.434000E+09  0.00800  1.719E-04    0   0.5853   age139_m52            0.0000     7.5053E-04    64.7317   4.0000    28.1000
 30      1.9549     5.5712E-01    6.0237E-01    2.500000E+09  0.00800  7.872E-05    0   0.5600   age150_m52            0.0000     5.9182E-04    67.1039   4.0000    24.1230
 31      0.8903     4.6061E-01    4.8255E-01    4.250000E+09  0.00800  4.336E-05    0   0.5426   age158_m52            0.0000     3.2962E-04    55.7322   3.2860    32.3391
 32      4.0254     2.8586E+00    2.9357E+00    6.250000E+09  0.00800  3.159E-05    0   0.5319   age166_m52            0.0000     1.1940E-04    32.5610   1.5891    61.3960
 33      0.4370     7.2033E-01    7.0554E-01    1.300000E+10  0.00800  1.361E-05    0   0.5073   age193_m52            0.0000     1.8290E-03    21.6834  -1.0000   151.1851
 34      0.0000     0.0000E+00    0.0000E+00    1.800000E+10  0.00800  9.886E-06    0   0.4990   age213_m52            0.0000     2.4213E-03    18.8726  -1.0000   143.0902
 35      0.0000     0.0000E+00    0.0000E+00    1.000000E+06  0.02000  1.544E-02    0   1.0000   age020_m62            0.0000     1.0131E-01    24.3754   4.0000    90.9145
 36      0.0000     0.0000E+00    0.0000E+00    3.160000E+06  0.02000  3.762E-02    0   0.9858   age045_m62            0.0000     9.6906E-02    24.3606   4.0000    89.3353
 37      0.0000     0.0000E+00    0.0000E+00    5.010000E+06  0.02000  3.296E-02    0   0.9342   age055_m62            0.0000     6.1595E-02    26.3788   4.0000    79.6367
 38      0.0000     0.0000E+00    0.0000E+00    8.710000E+06  0.02000  1.154E-02    0   0.8861   age067_m62            0.0000     3.0251E-02    46.2177   4.0000    58.2030
 39      0.0000     0.0000E+00    0.0000E+00    1.445000E+07  0.02000  7.663E-03    0   0.8472   age078_m62            0.0000     1.8788E-02    40.2295   4.0000    61.8430
 40      0.0000     0.0000E+00    0.0000E+00    2.512000E+07  0.02000  4.532E-03    0   0.8099   age090_m62            0.0000     2.4016E-02    40.6483   4.0000    61.6603
 41      0.6398     5.2521E-03    7.7018E-03    5.500000E+07  0.02000  2.733E-03    0   0.7595   age110_m62            0.0000     2.2881E-02    38.2193   4.0000    61.0159
 42      0.6642     1.0884E-02    1.4679E-02    1.609000E+08  0.02000  1.369E-03    0   0.6985   age120_m62            0.0000     2.3437E-02    39.4586   4.0000    58.2737
 43      0.5211     1.2970E-02    1.6813E-02    2.861200E+08  0.02000  9.013E-04    0   0.6714   age125_m62            0.0000     1.0675E-02    42.6896   4.0000    53.7128
 44      1.5019     6.7010E-02    8.3437E-02    5.088000E+08  0.02000  5.028E-04    0   0.6449   age130_m62            0.0000     8.3007E-04    47.1384   4.0000    46.4746
 45      0.3183     2.9414E-02    3.5091E-02    9.047900E+08  0.02000  2.428E-04    0   0.6179   age135_m62            0.0000     3.5719E-05    22.3989   1.6453    98.2760
 46      0.0000     0.0000E+00    0.0000E+00    1.434000E+09  0.02000  1.263E-04    0   0.5908   age139_m62            0.0000     2.7647E-04    31.4359  -0.2717   181.9630
 47      2.7088     1.0154E+00    1.1121E+00    2.500000E+09  0.02000  5.985E-05    0   0.5673   age150_m62            0.0000     1.2627E-03    40.0005  -0.9988   209.1434
 48      2.8142     1.9301E+00    2.0377E+00    4.250000E+09  0.02000  3.271E-05    0   0.5468   age158_m62            0.0000     1.7814E-05    17.1022   0.1596   109.5706
 49      3.4177     5.6377E+00    5.6243E+00    1.000000E+10  0.02000  1.360E-05    0   0.5167   age181_m62            0.0000     1.7067E-05    15.4253  -0.3786   118.0709
 50      3.0731     9.6774E+00    9.3666E+00    1.800000E+10  0.02000  7.124E-06    0   0.5013   age213_m62            0.0000     3.7363E-05    17.9013   0.0059    90.2191
 51      0.4844     4.1923E-04    8.0927E-04    1.000000E+06  0.05000  2.592E-02    0   0.9998   age020_m72            0.0000     9.7830E-02    24.6247   4.0000    90.6452
 52      0.0000     0.0000E+00    0.0000E+00    3.160000E+06  0.05000  4.845E-02    0   0.9577   age045_m72            0.0000     6.6497E-02    24.6059   4.0000    86.2766
 53      0.0000     0.0000E+00    0.0000E+00    5.010000E+06  0.05000  3.072E-02    0   0.9147   age055_m72            0.0000     2.9252E-02    31.5938   4.0000    75.3637
 54      0.0000     0.0000E+00    0.0000E+00    6.610000E+06  0.05000  1.455E-02    0   0.8877   age061_m72            0.0000     2.4600E-02    48.0918   4.0000    61.3939
 55      0.3584     8.8597E-04    1.4581E-03    1.000000E+07  0.05000  9.074E-03    0   0.8524   age070_m72            0.0000     4.7149E-02    30.2129   4.0000    81.7903
 56      0.0000     0.0000E+00    0.0000E+00    2.512000E+07  0.05000  4.250E-03    0   0.7902   age090_m72            0.0000     3.3301E-02    33.0206   4.0000    73.3539
 57      0.1236     8.9800E-04    1.3208E-03    4.000000E+07  0.05000  3.087E-03    0   0.7618   age104_m72            0.0000     2.4214E-02    36.0939   4.0000    67.7897
 58      0.9559     1.2615E-02    1.7283E-02    1.015200E+08  0.05000  1.700E-03    0   0.7096   age116_m72            0.0000     1.4726E-02    38.1537   4.0000    61.8907
 59      0.0000     0.0000E+00    0.0000E+00    2.861200E+08  0.05000  7.384E-04    0   0.6633   age125_m72            0.0000     1.5880E-04    38.8657   3.6594    59.2484
 60      0.0000     0.0000E+00    0.0000E+00    5.088000E+08  0.05000  3.819E-04    0   0.6372   age130_m72            0.0000     2.3670E-03    64.1348  -0.4752   287.0484
 61      1.1603     1.5531E-01    1.8322E-01    9.047900E+08  0.05000  1.676E-04    0   0.6110   age135_m72            0.0000     1.6274E-02    56.3281  -1.0000   259.2527
 62     16.9911     4.3134E+00    4.8919E+00    1.434000E+09  0.05000  8.837E-05    0   0.5874   age139_m72            0.0000     4.4953E-03    39.4544  -1.0000   211.1419
 63     14.5842     7.7292E+00    8.3541E+00    2.500000E+09  0.05000  4.233E-05    0   0.5598   age150_m72            0.0000     1.1094E-03    28.6631  -1.0000   181.9605
 64     10.2781     1.6068E+01    1.6284E+01    6.250000E+09  0.05000  1.435E-05    0   0.5249   age166_m72            0.0000     1.0450E-03    18.2200  -1.0000   146.7604
 65      5.5503     1.9118E+01    1.8589E+01    1.300000E+10  0.05000  6.513E-06    0   0.5036   age193_m72            0.0000     4.6965E-04    14.5967  -1.0000   131.1185
 66      2.2034     1.0919E+01    1.0425E+01    1.800000E+10  0.05000  4.527E-06    0   0.4945   age213_m72            0.0000     2.6330E-04    13.6856  -1.0000   121.7350


## Synthesis Results - Average & Chains ##

# j      x_j: min, <> & last-chain-values for 1 ...  7 chains
  1      0.0000      0.0486      0.1287      0.1788      0.0000      0.0000      0.0168      0.0802      0.1025
  2      0.0000      0.0252      0.0000      0.0000      0.0000      0.0000      0.0000      0.0000      0.0000
  3      0.0000      0.0392      0.1641      0.0000      0.0302      0.0000      0.0030      0.1280      0.0000
  4      0.0000      0.0525      0.0000      0.0000      0.0000      0.3070      0.0000      0.1934      0.1864
  5      0.1039      0.3371      0.1988      0.2364      0.3193      0.1649      0.1913      0.2958      0.5463
  6      1.3985      0.8608      0.7712      0.7722      1.4286      0.9831      0.8305      0.7992      0.8874
  7      0.0000      0.0398      0.0000      0.0000      0.0000      0.0000      0.0000      0.0380      0.0000
  8      0.0000      0.0432      0.0000      0.1917      0.0451      0.0000      0.0000      0.2917      0.1993
  9      0.0000      0.0395      0.0000      0.0000      0.0963      0.0000      0.0000      0.2593      0.2553
 10      0.5687      0.2245      0.4425      0.2521      0.2658      0.2828      0.5312      0.0000      0.2390
 11      0.0000      0.0602      0.0000      0.2051      0.0259      0.0000      0.0000      0.0000      0.0000
 12      0.0000      0.0811      0.1054      0.1018      0.1052      0.0870      0.0000      0.3394      0.0000
 13      0.0000      0.1277      0.0000      0.0043      0.2705      0.1048      0.2226      0.1337      0.0000
 14      1.1772      0.4110      2.1088      1.1098      0.4579      1.2827      0.7307      0.2003      0.8317
 15      5.2362      0.9836      1.2409      1.8628      1.9744      1.1653      4.2407      1.0890      0.9850
 16      5.1175      0.8297      1.2918      1.8593      0.7806      0.6077      1.2475      0.6884      0.8771
 17      6.1565      1.1368      3.3488      1.1673      1.3145      3.7169      0.8895      5.4151      1.8765
 18      0.0000      0.0357      0.1641      0.0000      0.1522      0.0000      0.0000      0.0000      0.0000
 19      0.0000      0.1102      0.2227      0.1552      0.1830      0.1372      0.0000      0.1215      0.0000
 20      0.8844      0.5315      0.5196      0.4239      0.7695      0.4793      0.5799      0.5135      0.5088
 21      1.1126      0.7141      0.6859      0.5585      0.6344      0.6225      0.6949      0.5846      0.7043
 22      0.0000      0.1043      0.2056      0.0000      0.2214      0.1936      0.1710      0.1194      0.1483
 23      0.0000      0.0431      0.0842      0.0000      0.0000      0.1799      0.0000      0.0000      0.0000
 24      0.0000      0.0901      0.0000      0.0000      0.3619      0.1247      0.0000      0.0053      0.0975
 25      0.0654      0.0649      0.0000      0.3245      0.0000      0.0000      0.0000      0.0000      0.0535
 26      0.0000      0.0491      0.0000      0.0000      0.0679      0.1531      0.0000      0.2591      0.0000
 27      0.0000      0.0474      0.0000      0.1718      0.0032      0.0000      0.0000      0.0000      0.0000
 28      0.0000      0.1128      0.0000      0.0945      0.1038      0.0000      0.2564      0.1234      0.0000
 29      0.8455      0.3863      0.0000      0.3875      0.0000      0.5957      0.3518      0.8146      0.4502
 30      1.9549      0.8019      1.4439      0.7333      0.3712      0.3855      0.0886      0.0000      0.8947
 31      0.8903      1.0980      1.2474      0.6649      0.7996      1.3618      1.1298      0.9669      1.3370
 32      4.0254      1.3750      1.6346      3.1138      1.2975      2.3044      0.3561      1.9577      1.9145
 33      0.4370      0.2502      0.2105      0.4885      0.0958      0.0000      0.0000      0.0000      0.4144
 34      0.0000      0.1494      0.1491      0.0000      0.0000      0.0000      0.0000      0.5406      0.5975
 35      0.0000      0.0476      0.1169      0.0000      0.0000      0.1352      0.0000      0.0000      0.0000
 36      0.0000      0.0234      0.0000      0.0000      0.0000      0.0000      0.0000      0.0000      0.0000
 37      0.0000      0.0460      0.0000      0.0000      0.0000      0.0000      0.1170      0.0000      0.0869
 38      0.0000      0.0468      0.0000      0.0000      0.0000      0.1657      0.1916      0.0000      0.0000
 39      0.0000      0.0838      0.0000      0.1634      0.0804      0.0000      0.1249      0.0000      0.0069
 40      0.0000      0.0720      0.2541      0.0085      0.0000      0.0000      0.0000      0.0000      0.1449
 41      0.6398      0.4903      0.6205      0.4570      0.3687      0.5959      0.0000      0.4546      0.3616
 42      0.6642      1.0191      0.8708      0.8794      0.9178      1.0161      1.0428      0.9169      1.0203
 43      0.5211      0.5796      0.5872      0.6098      0.5617      0.2346      0.4309      0.4058      0.7110
 44      1.5019      2.0245      2.1070      1.8740      1.6347      1.8092      1.8743      1.9530      2.1264
 45      0.3183      0.1337      0.0000      0.4383      0.2249      0.0000      0.0000      0.0000      0.1001
 46      0.0000      0.4136      0.2199      0.1876      0.8954      0.4023      0.8272      0.0312      0.5153
 47      2.7088      1.6253      1.8025      2.0373      1.1790      1.1417      1.8068      1.2838      0.0000
 48      2.8142      0.8956      0.7094      0.8699      0.0000      0.0000      1.9215      1.2738      2.0875
 49      3.4177      2.1183      2.1400      2.2114      2.1609      2.1284      2.7556      1.9567      1.2623
 50      3.0731      5.0469      4.4591      4.9402      5.1361      4.8214      4.7502      4.7506      5.0875
 51      0.4844      0.7386      0.7437      0.8902      0.7779      0.6395      0.6508      0.6059      0.8009
 52      0.0000      0.0260      0.0000      0.1525      0.0491      0.1093      0.0000      0.0000      0.0000
 53      0.0000      0.0721      0.0936      0.0000      0.0812      0.0000      0.0000      0.0000      0.1833
 54      0.0000      0.0600      0.0000      0.1585      0.0719      0.0000      0.1550      0.0000      0.0000
 55      0.3584      0.6644      0.5688      0.7772      0.7628      0.5704      0.5497      0.7385      0.6430
 56      0.0000      0.0230      0.0000      0.0000      0.0000      0.0000      0.0000      0.0000      0.0000
 57      0.1236      0.3105      0.3710      0.2620      0.4868      0.3477      0.3323      0.2368      0.3818
 58      0.9559      1.5405      1.3753      1.4730      1.4624      1.3500      1.5539      1.3096      1.5895
 59      0.0000      0.0705      0.0000      0.0000      0.0485      0.1849      0.0000      0.0000      0.0000
 60      0.0000      0.3034      0.5118      0.0606      0.3657      0.4771      0.2741      0.2325      0.3454
 61      1.1603      2.1238      2.0936      1.9261      2.3747      2.0268      2.4931      1.5279      1.8679
 62     16.9911     20.4910     19.5410     19.3795     20.7054     20.0089     19.6691     19.0946     20.3312
 63     14.5842     22.9127     22.0931     21.3196     23.4870     22.2083     22.1378     22.5436     21.7095
 64     10.2781     12.7628     12.2485     12.4293     12.5316     12.9084     12.2060     12.4732     12.7813
 65      5.5503      6.7446      6.2272      6.3746      7.1464      6.3628      6.7621      6.6467      6.6346
 66      2.2034      3.2327      2.6936      3.1613      2.9652      3.1617      2.7923      2.8442      3.2209

# j      m_j: min, <> & last-chain-values for 1 ...  7 chains
  1  0.0000E+00  1.8508E-04  5.0421E-04  6.8348E-04  0.0000E+00  0.0000E+00  6.5139E-05  2.9961E-04  3.8753E-04
  2  0.0000E+00  2.6247E-05  0.0000E+00  0.0000E+00  0.0000E+00  0.0000E+00  0.0000E+00  0.0000E+00  0.0000E+00
  3  0.0000E+00  6.0984E-05  2.6295E-04  0.0000E+00  4.7183E-05  0.0000E+00  4.8168E-06  1.9551E-04  0.0000E+00
  4  0.0000E+00  7.6927E-05  0.0000E+00  0.0000E+00  0.0000E+00  4.4865E-04  0.0000E+00  2.7817E-04  2.7128E-04
  5  3.0179E-04  9.4160E-04  5.7124E-04  6.6277E-04  8.9506E-04  4.5915E-04  5.4399E-04  8.1063E-04  1.5142E-03
  6  6.5860E-03  3.9001E-03  3.5951E-03  3.5110E-03  6.4958E-03  4.4389E-03  3.8314E-03  3.5522E-03  3.9893E-03
  7  0.0000E+00  2.5847E-04  0.0000E+00  0.0000E+00  0.0000E+00  0.0000E+00  0.0000E+00  2.4211E-04  0.0000E+00
  8  0.0000E+00  3.8686E-04  0.0000E+00  1.7250E-03  4.0587E-04  0.0000E+00  0.0000E+00  2.5657E-03  1.7730E-03
  9  0.0000E+00  4.0565E-04  0.0000E+00  0.0000E+00  9.9166E-04  0.0000E+00  0.0000E+00  2.6101E-03  2.5991E-03
 10  7.9682E-03  3.0254E-03  6.1370E-03  3.4105E-03  3.5955E-03  3.7995E-03  7.2900E-03  0.0000E+00  3.1960E-03
 11  0.0000E+00  1.5270E-03  0.0000E+00  5.2168E-03  6.5766E-04  0.0000E+00  0.0000E+00  0.0000E+00  0.0000E+00
 12  0.0000E+00  3.2590E-03  4.3611E-03  4.1056E-03  4.2441E-03  3.4864E-03  0.0000E+00  1.3387E-02  0.0000E+00
 13  0.0000E+00  1.4474E-02  0.0000E+00  4.9440E-04  3.0763E-02  1.1832E-02  2.5685E-02  1.4860E-02  0.0000E+00
 14  4.6508E-01  1.5623E-01  8.2472E-01  4.2332E-01  1.7464E-01  4.8587E-01  2.8278E-01  7.4667E-02  3.1369E-01
 15  3.3678E+00  6.0859E-01  7.9007E-01  1.1567E+00  1.2261E+00  7.1860E-01  2.6717E+00  6.6104E-01  6.0477E-01
 16  5.5653E+00  8.6805E-01  1.3906E+00  1.9521E+00  8.1957E-01  6.3364E-01  1.3289E+00  7.0652E-01  9.1051E-01
 17  8.6854E+00  1.5429E+00  4.6765E+00  1.5898E+00  1.7904E+00  5.0274E+00  1.2292E+00  7.2097E+00  2.5271E+00
 18  0.0000E+00  1.2027E-04  5.6847E-04  0.0000E+00  5.1408E-04  0.0000E+00  0.0000E+00  0.0000E+00  0.0000E+00
 19  0.0000E+00  1.4881E-04  3.0954E-04  2.1047E-04  2.4812E-04  1.8475E-04  0.0000E+00  1.6103E-04  0.0000E+00
 20  1.3558E-03  7.8393E-04  7.8856E-04  6.2740E-04  1.1390E-03  7.0453E-04  8.7077E-04  7.4288E-04  7.4460E-04
 21  2.0704E-03  1.2784E-03  1.2634E-03  1.0035E-03  1.1399E-03  1.1106E-03  1.2668E-03  1.0268E-03  1.2512E-03
 22  0.0000E+00  3.1567E-04  6.4029E-04  0.0000E+00  6.7267E-04  5.8422E-04  5.2704E-04  3.5466E-04  4.4548E-04
 23  0.0000E+00  1.7603E-04  3.5402E-04  0.0000E+00  0.0000E+00  7.3284E-04  0.0000E+00  0.0000E+00  0.0000E+00
 24  0.0000E+00  5.4779E-04  0.0000E+00  0.0000E+00  2.2088E-03  7.5555E-04  0.0000E+00  3.1369E-05  5.8838E-04
 25  5.6989E-04  5.4440E-04  0.0000E+00  2.7310E-03  0.0000E+00  0.0000E+00  0.0000E+00  0.0000E+00  4.4519E-04
 26  0.0000E+00  6.8847E-04  0.0000E+00  0.0000E+00  9.5537E-04  2.1382E-03  0.0000E+00  3.5632E-03  0.0000E+00
 27  0.0000E+00  1.3304E-03  0.0000E+00  4.8382E-03  9.0708E-05  0.0000E+00  0.0000E+00  0.0000E+00  0.0000E+00
 28  0.0000E+00  9.1853E-03  0.0000E+00  7.7240E-03  8.4830E-03  0.0000E+00  2.1263E-02  9.8565E-03  0.0000E+00
 29  1.2469E-01  5.4802E-02  0.0000E+00  5.5172E-02  0.0000E+00  8.4238E-02  5.0823E-02  1.1338E-01  6.3378E-02
 30  6.0237E-01  2.3772E-01  4.4040E-01  2.1814E-01  1.1042E-01  1.1387E-01  2.6754E-02  0.0000E+00  2.6316E-01
 31  4.8255E-01  5.7252E-01  6.6926E-01  3.4796E-01  4.1844E-01  7.0769E-01  5.9987E-01  4.9462E-01  6.9180E-01
 32  2.9357E+00  9.6468E-01  1.1800E+00  2.1925E+00  9.1357E-01  1.6113E+00  2.5441E-01  1.3475E+00  1.3329E+00
 33  7.0554E-01  3.8867E-01  3.3638E-01  7.6137E-01  1.4932E-01  0.0000E+00  0.0000E+00  0.0000E+00  6.3872E-01
 34  0.0000E+00  3.1425E-01  3.2274E-01  0.0000E+00  0.0000E+00  0.0000E+00  0.0000E+00  1.1154E+00  1.2471E+00
 35  0.0000E+00  1.2854E-04  3.2464E-04  0.0000E+00  0.0000E+00  3.6353E-04  0.0000E+00  0.0000E+00  0.0000E+00
 36  0.0000E+00  2.5598E-05  0.0000E+00  0.0000E+00  0.0000E+00  0.0000E+00  0.0000E+00  0.0000E+00  0.0000E+00
 37  0.0000E+00  5.4322E-05  0.0000E+00  0.0000E+00  0.0000E+00  0.0000E+00  1.4075E-04  0.0000E+00  1.0184E-04
 38  0.0000E+00  1.4979E-04  0.0000E+00  0.0000E+00  0.0000E+00  5.2834E-04  6.2423E-04  0.0000E+00  0.0000E+00
 39  0.0000E+00  3.8595E-04  0.0000E+00  7.5539E-04  3.7186E-04  0.0000E+00  5.8583E-04  0.0000E+00  3.1350E-05
 40  0.0000E+00  5.3640E-04  1.9473E-03  6.3716E-05  0.0000E+00  0.0000E+00  0.0000E+00  0.0000E+00  1.0708E-03
 41  7.7018E-03  5.6781E-03  7.3929E-03  5.3107E-03  4.2847E-03  6.8775E-03  0.0000E+00  5.1642E-03  4.1552E-03
 42  1.4679E-02  2.1666E-02  1.9050E-02  1.8763E-02  1.9584E-02  2.1531E-02  2.2575E-02  1.9123E-02  2.1525E-02
 43  1.6813E-02  1.7992E-02  1.8753E-02  1.8997E-02  1.7499E-02  7.2575E-03  1.3619E-02  1.2358E-02  2.1900E-02
 44  8.3437E-02  1.0820E-01  1.1587E-01  1.0051E-01  8.7681E-02  9.6368E-02  1.0200E-01  1.0240E-01  1.1277E-01
 45  3.5091E-02  1.4180E-02  0.0000E+00  4.6649E-02  2.3938E-02  0.0000E+00  0.0000E+00  0.0000E+00  1.0536E-02
 46  0.0000E+00  8.0625E-02  4.4094E-02  3.6692E-02  1.7516E-01  7.8142E-02  1.6418E-01  5.9629E-03  9.9665E-02
 47  1.1121E+00  6.4194E-01  7.3257E-01  8.0752E-01  4.6734E-01  4.4940E-01  7.2662E-01  4.9744E-01  0.0000E+00
 48  2.0377E+00  6.2382E-01  5.0845E-01  6.0811E-01  0.0000E+00  0.0000E+00  1.3629E+00  8.7047E-01  1.4429E+00
 49  5.6243E+00  3.3535E+00  3.4860E+00  3.5134E+00  3.4332E+00  3.3582E+00  4.4420E+00  3.0388E+00  1.9829E+00
 50  9.3666E+00  1.4798E+01  1.3454E+01  1.4537E+01  1.5114E+01  1.4089E+01  1.4182E+01  1.3665E+01  1.4802E+01
 51  8.0927E-04  1.1871E-03  1.2299E-03  1.4359E-03  1.2548E-03  1.0244E-03  1.0651E-03  9.5531E-04  1.2774E-03
 52  0.0000E+00  2.1379E-05  0.0000E+00  1.2609E-04  4.0622E-05  8.9729E-05  0.0000E+00  0.0000E+00  0.0000E+00
 53  0.0000E+00  8.9414E-05  1.1951E-04  0.0000E+00  1.0110E-04  0.0000E+00  0.0000E+00  0.0000E+00  2.2568E-04
 54  0.0000E+00  1.5263E-04  0.0000E+00  4.0434E-04  1.8335E-04  0.0000E+00  4.0124E-04  0.0000E+00  0.0000E+00
 55  1.4581E-03  2.6006E-03  2.2911E-03  3.0532E-03  2.9966E-03  2.2251E-03  2.1908E-03  2.8360E-03  2.4974E-03
 56  0.0000E+00  1.7799E-04  0.0000E+00  0.0000E+00  0.0000E+00  0.0000E+00  0.0000E+00  0.0000E+00  0.0000E+00
 57  1.3208E-03  3.1932E-03  3.9252E-03  2.7040E-03  5.0236E-03  3.5637E-03  3.4792E-03  2.3891E-03  3.8955E-03
 58  1.7283E-02  2.6795E-02  2.4613E-02  2.5711E-02  2.5527E-02  2.3402E-02  2.7520E-02  2.2346E-02  2.7433E-02
 59  0.0000E+00  2.6387E-03  0.0000E+00  0.0000E+00  1.8208E-03  6.8993E-03  0.0000E+00  0.0000E+00  0.0000E+00
 60  0.0000E+00  2.1093E-02  3.6612E-02  4.2280E-03  2.5518E-02  3.3056E-02  1.9403E-02  1.5857E-02  2.3827E-02
 61  1.8322E-01  3.2263E-01  3.2724E-01  2.9364E-01  3.6202E-01  3.0684E-01  3.8562E-01  2.2769E-01  2.8156E-01
 62  4.8919E+00  5.6756E+00  5.5692E+00  5.3868E+00  5.7555E+00  5.5232E+00  5.5471E+00  5.1883E+00  5.5879E+00
 63  8.3541E+00  1.2626E+01  1.2527E+01  1.1790E+01  1.2989E+01  1.2197E+01  1.2421E+01  1.2187E+01  1.1871E+01
 64  1.6284E+01  1.9453E+01  1.9210E+01  1.9012E+01  1.9169E+01  1.9608E+01  1.8943E+01  1.8650E+01  1.9331E+01
 65  1.8589E+01  2.1731E+01  2.0645E+01  2.0612E+01  2.3108E+01  2.0431E+01  2.2184E+01  2.1008E+01  2.1211E+01
 66  1.0425E+01  1.4714E+01  1.2615E+01  1.4440E+01  1.3545E+01  1.4342E+01  1.2941E+01  1.2700E+01  1.4548E+01

# AV, chi2 & Mass for <> & i_chain = 1 ...  7 solutions
AV       0.5091      0.5042      0.5056      0.5037      0.5063      0.5027      0.5012      0.5027      0.5043
chi2 2.3565E-03  7.8620E-04  4.6785E-04  5.4873E-04  7.1905E-04  5.4075E-04  5.8882E-04  4.7582E-04  6.3834E-04
Mass 7.2771E-13  7.5153E-13  7.3178E-13  7.4831E-13  7.5098E-13  7.5253E-13  7.3505E-13  7.6451E-13  7.5746E-13
 371.31                                  [v0_min (km/s) before EX0s...]
  67.58                                  [vd_min (km/s) before EX0s...]


## Synthetic spectrum (Best Model) ##l_obs f_obs f_syn wei
 3478    [Nl_obs]
 3741.00    0.26221   0.34102    0.000
 3742.00    0.29337   0.39183    0.000
 3743.00    0.27855   0.45854    0.000
 3744.00    0.22302   0.52222    0.000
 3745.00    0.14379   0.56018    0.035
 3746.00    0.19171   0.55887    0.035
 3747.00    0.30421   0.52526    0.035
 3748.00    0.25306   0.48282    0.035
 3749.00    0.12995   0.44703    0.035
 3750.00    0.14674   0.41817    0.035
 3751.00    0.21635   0.39345    0.034
 3752.00    0.46929   0.36444    0.035
 3753.00    0.78098   0.33119    0.036
 3754.00    0.84563   0.32405    0.036
 3755.00    0.84406   0.36732    0.035
 3756.00    0.81519   0.44092    0.035
 3757.00    0.78032   0.51055    0.035
 3758.00    0.78607   0.56793    0.035
 3759.00    0.79892   0.61323    0.034
 3760.00    0.82012   0.62570    0.044
 3761.00    0.84243   0.58440    0.064
 3762.00    0.78040   0.51036    0.046
 3763.00    0.71045   0.46008    0.034
 3764.00    0.62122   0.46320    0.033
 3765.00    0.53089   0.49523    0.033
 3766.00    0.43089   0.52046    0.033
 3767.00    0.33178   0.52685    0.033
 3768.00    0.36814   0.52484    0.033
 3769.00    0.40339   0.52742    0.033
 3770.00    0.41174   0.52475    0.032
 3771.00    0.42588   0.50599    0.031
 3772.00    0.51584   0.49188    0.032
 3773.00    0.59891   0.49645    0.032
 3774.00    0.62149   0.50203    0.032
 3775.00    0.63354   0.50638    0.031
 3776.00    0.57730   0.53068    0.031
 3777.00    0.53836   0.57020    0.031
 3778.00    0.58697   0.59656    0.031
 3779.00    0.62349   0.60179    0.031
 3780.00    0.61051   0.60269    0.032
 3781.00    0.56692   0.61149    0.032
 3782.00    0.41951   0.62543    0.032
 3783.00    0.28333   0.64395    0.033
 3784.00    0.17927   0.66962    0.032
 3785.00    0.15952   0.69166    0.032
 3786.00    0.34574   0.69939    0.033
 3787.00    0.50761   0.70152    0.033
 3788.00    0.61814   0.70581    0.033
 3789.00    0.66572   0.69440    0.033
 3790.00    0.59801   0.64859    0.033
 3791.00    0.49756   0.58870    0.033
 3792.00    0.34472   0.54815    0.032
 3793.00    0.31178   0.52995    0.032
 3794.00    0.44727   0.52635    0.033
 3795.00    0.58263   0.53811    0.033
 3796.00    0.71783   0.55300    0.033
 3797.00    0.67866   0.54723    0.033
 3798.00    0.44951   0.51834    0.033
 3799.00    0.26948   0.48647    0.033
 3800.00    0.13665   0.46351    0.033
 3801.00    0.10171   0.44006    0.033
 3802.00    0.14971   0.41185    0.033
 3803.00    0.25818   0.40269    0.034
 3804.00    0.41179   0.43480    0.034
 3805.00    0.64056   0.49463    0.034
 3806.00    0.91859   0.55388    0.033
 3807.00    0.99454   0.60230    0.033
 3808.00    0.95451   0.63742    0.032
 3809.00    0.79347   0.64907    0.032
 3810.00    0.57195   0.63309    0.032
 3811.00    0.38896   0.60579    0.032
 3812.00    0.22264   0.59729    0.032
 3813.00    0.28546   0.62124    0.032
 3814.00    0.43324   0.65784    0.032
 3815.00    0.46005   0.67792    0.032
 3816.00    0.44884   0.66647    0.031
 3817.00    0.54440   0.62476    0.032
 3818.00    0.66797   0.57029    0.032
 3819.00    0.69170   0.52605    0.032
 3820.00    0.69404   0.50706    0.031
 3821.00    0.42714   0.51853    0.031
 3822.00    0.11456   0.54217    0.031
 3823.00    0.03120   0.54009    0.030
 3824.00   -0.02273   0.50359    0.000
 3825.00    0.01625   0.47284    0.030
 3826.00    0.06357   0.48219    0.031
 3827.00    0.16535   0.50837    0.032
 3828.00    0.27006   0.50473    0.032
 3829.00    0.30740   0.46754    0.032
 3830.00    0.34328   0.43162    0.032
 3831.00    0.37006   0.41838    0.033
 3832.00    0.39442   0.42162    0.034
 3833.00    0.36500   0.42979    0.034
 3834.00    0.33257   0.43726    0.034
 3835.00    0.26279   0.43435    0.034
 3836.00    0.19839   0.40968    0.034
 3837.00    0.17948   0.37148    0.034
 3838.00    0.16274   0.34341    0.034
 3839.00    0.15968   0.33829    0.033
 3840.00    0.18404   0.35171    0.033
 3841.00    0.34367   0.36812    0.033
 3842.00    0.46200   0.37351    0.033
 3843.00    0.41498   0.37213    0.033
 3844.00    0.34725   0.37954    0.034
 3845.00    0.21067   0.40630    0.034
 3846.00    0.17506   0.45461    0.034
 3847.00    0.42294   0.51068    0.000
 3848.00    0.58197   0.55153    0.000
 3849.00    0.52758   0.56988    0.000
 3850.00    0.49265   0.57620    0.000
 3851.00    0.49809   0.58397    0.000
 3852.00    0.48033   0.59303    0.000
 3853.00    0.42074   0.58778    0.000
 3854.00    0.37412   0.56812    0.000
 3855.00    0.34794   0.56086    0.000
 3856.00    0.33782   0.57826    0.000
 3857.00    0.34991   0.59667    0.000
 3858.00    0.40675   0.59499    0.000
 3859.00    0.51813   0.57821    0.000
 3860.00    0.67425   0.55907    0.000
 3861.00    0.87842   0.54526    0.000
 3862.00    0.94701   0.53182    0.000
 3863.00    0.88712   0.50702    0.000
 3864.00    0.79274   0.48331    0.000
 3865.00    0.66954   0.49181    0.000
 3866.00    0.67842   0.53766    0.000
 3867.00    0.78444   0.59034    0.000
 3868.00    0.80620   0.61844    0.000
 3869.00    0.77355   0.61769    0.000
 3870.00    0.77914   0.60516    0.000
 3871.00    0.80635   0.59679    0.000
 3872.00    0.71394   0.59447    0.000
 3873.00    0.56269   0.59006    0.000
 3874.00    0.38283   0.57440    0.000
 3875.00    0.19081   0.54550    0.000
 3876.00    0.30312   0.51485    0.000
 3877.00    0.52630   0.50452    0.000
 3878.00    0.61590   0.52987    0.000
 3879.00    0.66431   0.57675    0.000
 3880.00    0.59851   0.60793    0.000
 3881.00    0.50338   0.59830    0.032
 3882.00    0.64053   0.55820    0.032
 3883.00    0.82625   0.52626    0.033
 3884.00    0.57110   0.52750    0.033
 3885.00    0.24325   0.53979    0.033
 3886.00    0.15926   0.53481    0.033
 3887.00    0.10547   0.52699    0.033
 3888.00    0.20281   0.53592    0.033
 3889.00    0.31308   0.53817    0.032
 3890.00    0.56718   0.50643    0.033
 3891.00    0.82844   0.46053    0.034
 3892.00    0.83818   0.43322    0.034
 3893.00    0.84105   0.42972    0.033
 3894.00    0.66532   0.45001    0.033
 3895.00    0.50265   0.49803    0.033
 3896.00    0.60692   0.55850    0.032
 3897.00    0.71168   0.60312    0.032
 3898.00    0.82214   0.61799    0.032
 3899.00    0.91627   0.61233    0.031
 3900.00    0.87743   0.60855    0.030
 3901.00    0.84346   0.62042    0.029
 3902.00    0.83924   0.63471    0.028
 3903.00    0.82560   0.63383    0.028
 3904.00    0.76655   0.62876    0.027
 3905.00    0.70308   0.63954    0.027
 3906.00    0.62222   0.65734    0.027
 3907.00    0.56316   0.65791    0.026
 3908.00    0.57513   0.64144    0.027
 3909.00    0.55482   0.62111    0.028
 3910.00    0.44549   0.60362    0.028
 3911.00    0.37755   0.60647    0.029
 3912.00    0.40734   0.64186    0.030
 3913.00    0.50777   0.68955    0.030
 3914.00    0.75237   0.72284    0.032
 3915.00    0.87341   0.73929    0.032
 3916.00    0.77498   0.74920    0.032
 3917.00    0.74187   0.75227    0.033
 3918.00    0.81026   0.74445    0.033
 3919.00    0.84019   0.73209    0.034
 3920.00    0.81763   0.71970    0.034
 3921.00    0.71081   0.70504    0.033
 3922.00    0.50278   0.68865    0.034
 3923.00    0.38776   0.66770    0.034
 3924.00    0.37125   0.63759    0.034
 3925.00    0.36098   0.60653    0.034
 3926.00    0.35656   0.59080    0.033
 3927.00    0.44340   0.59559    0.034
 3928.00    0.60542   0.60941    0.035
 3929.00    0.73057   0.61375    0.036
 3930.00    0.82899   0.59547    0.036
 3931.00    0.72964   0.55585    0.036
 3932.00    0.50443   0.50381    0.035
 3933.00    0.48420   0.44737    0.035
 3934.00    0.57805   0.39325    0.035
 3935.00    0.73035   0.34378    0.035
 3936.00    0.91095   0.29860    0.035
 3937.00    0.70935   0.26040    0.035
 3938.00    0.34796   0.23636    0.035
 3939.00    0.42547   0.23518    0.035
 3940.00    0.65996   0.26058    0.035
 3941.00    0.75150   0.30777    0.035
 3942.00    0.79983   0.36709    0.035
 3943.00    0.73133   0.42964    0.035
 3944.00    0.63349   0.48627    0.035
 3945.00    0.65559   0.52621    0.035
 3946.00    0.70215   0.54504    0.034
 3947.00    0.58717   0.54755    0.034
 3948.00    0.44633   0.54496    0.033
 3949.00    0.67710   0.55838    0.033
 3950.00    0.95224   0.60034    0.034
 3951.00    1.03350   0.64688    0.034
 3952.00    1.09897   0.66648    0.035
 3953.00    1.16650   0.66881    0.035
 3954.00    1.23413   0.68367    0.034
 3955.00    1.04686   0.70944    0.034
 3956.00    0.85983   0.71971    0.033
 3957.00    0.85433   0.71229    0.034
 3958.00    0.85475   0.71445    0.034
 3959.00    0.96717   0.72926    0.034
 3960.00    1.05449   0.72619    0.000
 3961.00    0.85910   0.70086    0.000
 3962.00    0.69247   0.68515    0.000
 3963.00    0.75194   0.69005    0.000
 3964.00    0.80618   0.68506    0.000
 3965.00    0.82936   0.63984    0.000
 3966.00    0.77667   0.56610    0.000
 3967.00    0.36773   0.50355    0.000
 3968.00    0.04953   0.46744    0.000
 3969.00    0.07908   0.43629    0.000
 3970.00    0.16149   0.38832    0.000
 3971.00    0.41284   0.32501    0.000
 3972.00    0.62325   0.26410    0.000
 3973.00    0.72281   0.22509    0.000
 3974.00    0.79690   0.22027    0.000
 3975.00    0.81184   0.25053    0.000
 3976.00    0.76612   0.30495    0.000
 3977.00    0.59856   0.36788    0.000
 3978.00    0.56730   0.43020    0.000
 3979.00    0.77446   0.49183    0.000
 3980.00    0.97639   0.55096    0.000
 3981.00    1.17031   0.60257    0.036
 3982.00    1.25792   0.64978    0.037
 3983.00    1.20255   0.69914    0.037
 3984.00    1.15216   0.74547    0.037
 3985.00    1.10766   0.77312    0.037
 3986.00    1.05038   0.77386    0.037
 3987.00    0.97977   0.76133    0.036
 3988.00    1.02914   0.75797    0.036
 3989.00    1.18903   0.77050    0.036
 3990.00    1.15800   0.78932    0.035
 3991.00    0.97198   0.80612    0.035
 3992.00    0.98386   0.82383    0.035
 3993.00    1.13712   0.84010    0.035
 3994.00    1.22101   0.84285    0.035
 3995.00    1.26140   0.83928    0.035
 3996.00    1.15527   0.84868    0.035
 3997.00    0.96883   0.86796    0.034
 3998.00    0.90520   0.87794    0.034
 3999.00    0.90005   0.86872    0.034
 4000.00    0.89283   0.84570    0.034
 4001.00    0.88475   0.81926    0.034
 4002.00    0.90590   0.80358    0.034
 4003.00    0.93732   0.81715    0.033
 4004.00    0.92349   0.85947    0.033
 4005.00    0.89626   0.90114    0.033
 4006.00    0.93467   0.92225    0.034
 4007.00    0.98921   0.92922    0.034
 4008.00    0.95213   0.91745    0.034
 4009.00    0.89683   0.87005    0.033
 4010.00    0.92950   0.80919    0.033
 4011.00    0.97583   0.78956    0.033
 4012.00    0.87893   0.82472    0.033
 4013.00    0.76557   0.87418    0.033
 4014.00    0.79665   0.90424    0.033
 4015.00    0.83890   0.91590    0.033
 4016.00    1.12130   0.92090    0.033
 4017.00    1.41382   0.92445    0.033
 4018.00    1.47174   0.92928    0.034
 4019.00    1.52449   0.93780    0.034
 4020.00    1.44477   0.94740    0.034
 4021.00    1.37156   0.94729    0.033
 4022.00    1.41317   0.93789    0.034
 4023.00    1.43388   0.94036    0.035
 4024.00    1.22971   0.95842    0.034
 4025.00    1.04989   0.96727    0.034
 4026.00    1.05492   0.95738    0.034
 4027.00    1.06054   0.94180    0.035
 4028.00    1.06955   0.92610    0.035
 4029.00    1.05277   0.91179    0.035
 4030.00    0.91781   0.91467    0.035
 4031.00    0.84115   0.94323    0.034
 4032.00    0.98320   0.97766    0.034
 4033.00    1.10292   0.98696    0.034
 4034.00    1.15262   0.94999    0.035
 4035.00    1.13895   0.87598    0.035
 4036.00    0.95668   0.80748    0.034
 4037.00    0.86840   0.77454    0.034
 4038.00    0.99475   0.77371    0.034
 4039.00    1.00484   0.79909    0.035
 4040.00    0.78507   0.85056    0.035
 4041.00    0.69646   0.91927    0.035
 4042.00    0.83380   0.98169    0.035
 4043.00    0.88863   1.01186    0.036
 4044.00    0.81900   1.00335    0.036
 4045.00    0.82968   0.97612    0.036
 4046.00    0.94680   0.95931    0.036
 4047.00    1.00695   0.95390    0.036
 4048.00    1.00060   0.92113    0.035
 4049.00    0.95204   0.83840    0.035
 4050.00    0.86000   0.75124    0.035
 4051.00    0.99780   0.73495    0.035
 4052.00    1.34430   0.80317    0.036
 4053.00    1.32039   0.89284    0.036
 4054.00    1.00000   0.95170    0.035
 4055.00    0.94552   0.97879    0.035
 4056.00    1.07827   0.98215    0.035
 4057.00    1.05329   0.96371    0.034
 4058.00    0.93088   0.93339    0.034
 4059.00    0.95264   0.90418    0.034
 4060.00    1.05221   0.88488    0.034
 4061.00    1.07064   0.87337    0.035
 4062.00    1.05105   0.86062    0.035
 4063.00    0.93373   0.85694    0.034
 4064.00    0.77693   0.88079    0.033
 4065.00    0.91947   0.91577    0.033
 4066.00    1.16523   0.91670    0.033
 4067.00    1.07853   0.86275    0.033
 4068.00    0.89528   0.79358    0.034
 4069.00    0.81439   0.77398    0.034
 4070.00    0.75809   0.81094    0.034
 4071.00    0.87170   0.85259    0.034
 4072.00    1.01822   0.87814    0.034
 4073.00    1.02033   0.90975    0.034
 4074.00    1.00067   0.93891    0.033
 4075.00    1.01466   0.92521    0.033
 4076.00    1.03238   0.87499    0.033
 4077.00    1.02997   0.85146    0.033
 4078.00    1.02608   0.88121    0.033
 4079.00    0.98119   0.91316    0.033
 4080.00    0.93472   0.89503    0.032
 4081.00    0.94171   0.83454    0.033
 4082.00    0.94870   0.78236    0.033
 4083.00    0.94455   0.78348    0.033
 4084.00    0.94693   0.84030    0.033
 4085.00    1.05703   0.91801    0.034
 4086.00    1.15415   0.97407    0.034
 4087.00    1.11762   0.98303    0.033
 4088.00    1.05662   0.95515    0.033
 4089.00    0.81601   0.92464    0.033
 4090.00    0.62345   0.91745    0.033
 4091.00    0.70050   0.94102    0.033
 4092.00    0.78441   0.98635    0.000
 4093.00    0.89902   1.02859    0.000
 4094.00    0.99994   1.04396    0.000
 4095.00    1.05058   1.03100    0.000
 4096.00    1.07106   1.00595    0.000
 4097.00    0.99878   0.98606    0.000
 4098.00    0.96925   0.97771    0.000
 4099.00    1.05142   0.96407    0.000
 4100.00    1.08022   0.92584    0.000
 4101.00    0.98916   0.87720    0.000
 4102.00    0.93295   0.84468    0.000
 4103.00    0.94452   0.82639    0.000
 4104.00    0.95519   0.79676    0.000
 4105.00    0.96432   0.74036    0.000
 4106.00    1.06246   0.68051    0.000
 4107.00    1.29291   0.66424    0.000
 4108.00    1.37442   0.70588    0.000
 4109.00    1.26131   0.77600    0.000
 4110.00    1.14336   0.84405    0.000
 4111.00    1.01984   0.89495    0.000
 4112.00    1.04274   0.92023    0.000
 4113.00    1.21428   0.92070    0.035
 4114.00    1.24786   0.90665    0.035
 4115.00    1.15793   0.89217    0.034
 4116.00    1.07684   0.89013    0.034
 4117.00    1.00271   0.90631    0.033
 4118.00    0.99412   0.93571    0.033
 4119.00    1.03101   0.96548    0.034
 4120.00    0.96629   0.98647    0.034
 4121.00    0.83974   0.99466    0.033
 4122.00    0.82354   0.98136    0.034
 4123.00    0.86596   0.94718    0.034
 4124.00    0.85341   0.91880    0.034
 4125.00    0.81550   0.91713    0.034
 4126.00    0.83224   0.92747    0.034
 4127.00    0.87068   0.93130    0.034
 4128.00    0.92722   0.93653    0.033
 4129.00    0.98988   0.95429    0.033
 4130.00    1.05442   0.97183    0.033
 4131.00    1.11950   0.96883    0.033
 4132.00    1.18887   0.94646    0.033
 4133.00    1.25925   0.92349    0.033
 4134.00    1.02978   0.91121    0.032
 4135.00    0.74371   0.90072    0.032
 4136.00    0.72342   0.87719    0.032
 4137.00    0.74195   0.84639    0.032
 4138.00    0.93127   0.83370    0.033
 4139.00    1.13873   0.85547    0.033
 4140.00    1.16027   0.90422    0.032
 4141.00    1.16894   0.95396    0.032
 4142.00    1.15524   0.98429    0.032
 4143.00    1.14078   1.00056    0.033
 4144.00    1.18147   1.01265    0.033
 4145.00    1.22070   1.01121    0.032
 4146.00    1.20825   0.97671    0.032
 4147.00    1.18860   0.90482    0.032
 4148.00    1.05778   0.83089    0.032
 4149.00    0.92966   0.80998    0.032
 4150.00    0.82820   0.85282    0.032
 4151.00    0.74820   0.91379    0.031
 4152.00    0.82054   0.94949    0.032
 4153.00    0.88610   0.95209    0.032
 4154.00    0.91465   0.93502    0.032
 4155.00    0.93219   0.91802    0.032
 4156.00    0.90158   0.91251    0.032
 4157.00    0.90481   0.91185    0.031
 4158.00    1.02974   0.90459    0.031
 4159.00    1.14198   0.89132    0.031
 4160.00    1.21588   0.88172    0.031
 4161.00    1.24410   0.88239    0.031
 4162.00    1.15499   0.89703    0.032
 4163.00    1.10798   0.92623    0.032
 4164.00    1.15396   0.95796    0.032
 4165.00    1.22009   0.97745    0.032
 4166.00    1.32482   0.98846    0.033
 4167.00    1.35956   1.00308    0.033
 4168.00    1.27732   1.01531    0.033
 4169.00    1.11694   1.01128    0.032
 4170.00    0.84209   0.99289    0.032
 4171.00    0.72005   0.96861    0.032
 4172.00    0.79482   0.94690    0.032
 4173.00    0.83272   0.94296    0.032
 4174.00    0.82878   0.95755    0.032
 4175.00    0.89278   0.96096    0.032
 4176.00    1.02476   0.92579    0.032
 4177.00    1.08452   0.86539    0.032
 4178.00    1.08054   0.82360    0.032
 4179.00    1.03316   0.82620    0.032
 4180.00    0.95204   0.85571    0.032
 4181.00    0.94563   0.87847    0.032
 4182.00    0.99031   0.88237    0.032
 4183.00    1.08402   0.88361    0.033
 4184.00    1.20711   0.89938    0.033
 4185.00    1.22986   0.92009    0.033
 4186.00    1.20013   0.92452    0.033
 4187.00    1.12494   0.91621    0.033
 4188.00    1.02914   0.91904    0.033
 4189.00    1.05166   0.94153    0.033
 4190.00    1.12036   0.96241    0.033
 4191.00    0.98532   0.95298    0.033
 4192.00    0.78261   0.91915    0.032
 4193.00    0.90237   0.90365    0.033
 4194.00    1.11202   0.92453    0.033
 4195.00    0.89110   0.95146    0.033
 4196.00    0.57140   0.96414    0.032
 4197.00    0.81910   0.98025    0.033
 4198.00    1.17107   1.00536    0.034
 4199.00    1.20657   1.00858    0.034
 4200.00    1.19732   0.97197    0.034
 4201.00    1.18030   0.91931    0.033
 4202.00    1.16249   0.87802    0.032
 4203.00    0.94766   0.85475    0.032
 4204.00    0.71999   0.85131    0.032
 4205.00    0.81262   0.86241    0.031
 4206.00    0.91499   0.86957    0.031
 4207.00    0.95946   0.87088    0.031
 4208.00    1.00208   0.88437    0.032
 4209.00    0.99076   0.91195    0.032
 4210.00    0.97842   0.94143    0.032
 4211.00    0.95123   0.97062    0.032
 4212.00    0.93966   0.99889    0.032
 4213.00    1.07579   1.01605    0.032
 4214.00    1.17644   1.01431    0.032
 4215.00    1.03312   1.00392    0.032
 4216.00    0.92332   1.00485    0.031
 4217.00    0.99163   1.01632    0.031
 4218.00    1.03178   1.01268    0.031
 4219.00    0.95167   0.97686    0.030
 4220.00    0.87912   0.92814    0.030
 4221.00    0.83318   0.91263    0.030
 4222.00    0.84715   0.95313    0.030
 4223.00    1.03853   1.01723    0.031
 4224.00    1.15920   1.06194    0.031
 4225.00    1.10140   1.08006    0.030
 4226.00    1.04184   1.07711    0.029
 4227.00    0.97845   1.04631    0.029
 4228.00    0.97327   0.98433    0.029
 4229.00    1.07785   0.89867    0.029
 4230.00    1.14123   0.79768    0.029
 4231.00    1.13679   0.70675    0.029
 4232.00    1.07079   0.68050    0.029
 4233.00    0.91590   0.75114    0.028
 4234.00    0.90333   0.87608    0.028
 4235.00    1.07143   0.98091    0.028
 4236.00    1.16176   1.02962    0.028
 4237.00    1.16508   1.02432    0.028
 4238.00    1.10340   0.98940    0.028
 4239.00    0.97756   0.95911    0.028
 4240.00    1.00364   0.94263    0.028
 4241.00    1.16191   0.93052    0.028
 4242.00    1.19830   0.92851    0.028
 4243.00    1.14123   0.94059    0.029
 4244.00    1.06558   0.95691    0.029
 4245.00    0.97740   0.97875    0.029
 4246.00    0.97982   1.00995    0.029
 4247.00    1.03572   1.03906    0.029
 4248.00    1.09259   1.06215    0.030
 4249.00    1.14997   1.08745    0.030
 4250.00    1.20812   1.10133    0.030
 4251.00    1.26660   1.07910    0.030
 4252.00    1.31410   1.02904    0.030
 4253.00    1.35739   0.98100    0.030
 4254.00    1.26942   0.94605    0.030
 4255.00    1.13868   0.92300    0.029
 4256.00    0.94064   0.92464    0.029
 4257.00    0.72424   0.95170    0.029
 4258.00    0.86842   0.96778    0.029
 4259.00    1.09340   0.95324    0.030
 4260.00    1.06974   0.94409    0.030
 4261.00    1.00161   0.97414    0.029
 4262.00    1.01562   1.01627    0.029
 4263.00    1.04086   1.01660    0.030
 4264.00    1.17344   0.96611    0.030
 4265.00    1.31651   0.90944    0.031
 4266.00    1.30939   0.89916    0.031
 4267.00    1.29308   0.95196    0.031
 4268.00    1.20994   1.03384    0.030
 4269.00    1.12544   1.09756    0.030
 4270.00    1.12910   1.12791    0.030
 4271.00    1.12846   1.13015    0.030
 4272.00    1.01391   1.10500    0.030
 4273.00    0.91385   1.05899    0.031
 4274.00    1.01286   1.00318    0.030
 4275.00    1.10109   0.93462    0.030
 4276.00    1.09136   0.85810    0.030
 4277.00    1.09896   0.80918    0.031
 4278.00    1.22195   0.81018    0.031
 4279.00    1.31896   0.83766    0.031
 4280.00    1.28149   0.87452    0.031
 4281.00    1.21427   0.93423    0.031
 4282.00    1.02289   1.01017   -2.000
 4283.00    0.89029   1.06410   -2.000
 4284.00    0.96059   1.06850   -2.000
 4285.00    0.98779   1.03512   -2.000
 4286.00    0.88967   1.00345   -2.000
 4287.00    0.84323   0.99705   -2.000
 4288.00    0.92498   1.00633   -2.000
 4289.00    1.06665   1.01064   -2.000
 4290.00    1.33639   0.99817   -2.000
 4291.00    1.46223   0.97743   -2.000
 4292.00    1.32089   0.95999   -2.000
 4293.00    1.15639   0.93219   -2.000
 4294.00    0.95433   0.88113   -2.000
 4295.00    0.89856   0.83703   -2.000
 4296.00    1.05092   0.84533   -2.000
 4297.00    1.14010   0.90358   -2.000
 4298.00    1.15019   0.96075    0.031
 4299.00    1.13542   0.97846    0.030
 4300.00    1.09321   0.96790    0.030
 4301.00    1.05578   0.95134    0.030
 4302.00    1.02298   0.92206    0.030
 4303.00    0.94242   0.86545    0.031
 4304.00    0.82089   0.79112    0.031
 4305.00    0.77845   0.73544    0.031
 4306.00    0.79580   0.72405    0.031
 4307.00    0.81298   0.74100    0.031
 4308.00    0.83005   0.76165    0.031
 4309.00    0.91862   0.78008    0.031
 4310.00    1.04876   0.78834    0.031
 4311.00    1.11407   0.77459    0.031
 4312.00    1.14654   0.73988    0.030
 4313.00    1.19426   0.70325    0.030
 4314.00    1.24867   0.69500    0.029
 4315.00    1.20472   0.72903    0.029
 4316.00    1.12371   0.78829    0.029
 4317.00    1.18130   0.84725    0.029
 4318.00    1.28321   0.89516    0.030
 4319.00    1.24696   0.94150    0.029
 4320.00    1.17378   1.01021    0.029
 4321.00    1.04044   1.10729    0.029
 4322.00    0.89393   1.19427    0.030
 4323.00    1.01468   1.23123    0.030
 4324.00    1.18192   1.22177    0.030
 4325.00    1.29399   1.19092    0.030
 4326.00    1.39876   1.15413    0.030
 4327.00    1.31692   1.11124    0.030
 4328.00    1.21765   1.04453    0.030
 4329.00    1.23800   0.94683    0.030
 4330.00    1.26519   0.85393    0.000
 4331.00    1.12949   0.82797    0.000
 4332.00    0.99196   0.89965    0.000
 4333.00    1.08007   1.02467    0.000
 4334.00    1.16298   1.12092    0.000
 4335.00    1.12116   1.15018    0.000
 4336.00    1.08285   1.14277    0.000
 4337.00    1.09035   1.14197    0.000
 4338.00    1.08487   1.15562    0.000
 4339.00    0.96603   1.17162    0.000
 4340.00    0.88027   1.17442    0.000
 4341.00    1.00824   1.13625    0.000
 4342.00    1.12470   1.04164    0.000
 4343.00    1.18306   0.92239    0.000
 4344.00    1.19410   0.82401    0.000
 4345.00    1.01199   0.76857    0.000
 4346.00    0.94863   0.77473    0.000
 4347.00    1.28706   0.84360    0.000
 4348.00    1.52168   0.93033    0.000
 4349.00    1.46012   0.99514    0.000
 4350.00    1.38615   1.04335    0.000
 4351.00    1.28193   1.08387    0.029
 4352.00    1.24682   1.11460    0.029
 4353.00    1.35708   1.14509    0.030
 4354.00    1.43068   1.17115    0.030
 4355.00    1.43725   1.15281    0.030
 4356.00    1.47994   1.07294    0.030
 4357.00    1.58033   0.99023    0.029
 4358.00    1.56274   0.97521    0.029
 4359.00    1.37972   1.02235    0.029
 4360.00    1.32372   1.08121    0.029
 4361.00    1.42441   1.12858    0.029
 4362.00    1.46180   1.15819    0.029
 4363.00    1.43034   1.15597    0.029
 4364.00    1.35041   1.13092    0.029
 4365.00    1.22400   1.12450    0.029
 4366.00    1.25635   1.15574    0.029
 4367.00    1.42301   1.19711    0.029
 4368.00    1.42577   1.22345    0.029
 4369.00    1.30643   1.24301    0.029
 4370.00    1.25327   1.25950    0.029
 4371.00    1.24340   1.24933    0.028
 4372.00    1.20454   1.20300    0.028
 4373.00    1.14907   1.15233    0.028
 4374.00    1.06390   1.13074    0.028
 4375.00    0.96392   1.13536    0.028
 4376.00    0.92710   1.14634    0.028
 4377.00    0.91752   1.14715    0.027
 4378.00    0.95203   1.12099    0.028
 4379.00    1.00284   1.06723    0.028
 4380.00    1.05316   1.02227    0.028
 4381.00    1.10332   1.03049    0.028
 4382.00    1.01363   1.09153    0.028
 4383.00    0.88735   1.15775    0.027
 4384.00    0.89302   1.18574    0.027
 4385.00    0.92688   1.17077    0.027
 4386.00    1.05504   1.12309    0.027
 4387.00    1.19914   1.03499    0.027
 4388.00    1.26808   0.91086    0.027
 4389.00    1.32742   0.81327    0.027
 4390.00    1.28525   0.81395    0.027
 4391.00    1.23402   0.90377    0.027
 4392.00    1.19190   1.00291    0.027
 4393.00    1.15026   1.05376    0.027
 4394.00    1.18357   1.06090    0.027
 4395.00    1.21844   1.05447    0.027
 4396.00    1.26032   1.05871    0.027
 4397.00    1.29310   1.08039    0.027
 4398.00    1.12586   1.10125    0.027
 4399.00    0.97287   1.10098    0.027
 4400.00    0.99597   1.09475    0.027
 4401.00    1.02695   1.11888    0.027
 4402.00    1.12435   1.17168    0.028
 4403.00    1.20558   1.20535    0.028
 4404.00    1.18554   1.18673    0.028
 4405.00    1.14412   1.13593    0.027
 4406.00    0.99757   1.10367    0.027
 4407.00    0.89307   1.10912    0.028
 4408.00    0.95640   1.10579    0.028
 4409.00    1.01865   1.05132    0.028
 4410.00    1.07729   0.98662    0.027
 4411.00    1.12193   0.97565    0.027
 4412.00    1.12735   1.00814    0.027
 4413.00    1.14189   1.03948    0.027
 4414.00    1.17828   1.07302    0.028
 4415.00    1.21044   1.13139    0.028
 4416.00    1.23382   1.20001    0.028
 4417.00    1.26519   1.24583    0.028
 4418.00    1.31094   1.24575    0.028
 4419.00    1.34180   1.19055    0.028
 4420.00    1.34923   1.10866    0.028
 4421.00    1.36461   1.06216    0.028
 4422.00    1.39098   1.08124    0.028
 4423.00    1.39641   1.14200    0.028
 4424.00    1.37638   1.20820    0.027
 4425.00    1.42208   1.24911    0.027
 4426.00    1.53827   1.24290    0.028
 4427.00    1.48574   1.19942    0.028
 4428.00    1.27365   1.16042    0.028
 4429.00    1.14135   1.15494    0.028
 4430.00    1.07560   1.16949    0.028
 4431.00    1.10704   1.17904    0.028
 4432.00    1.20985   1.18258    0.028
 4433.00    1.28546   1.18963    0.028
 4434.00    1.34352   1.19230    0.028
 4435.00    1.28905   1.17935    0.028
 4436.00    1.17111   1.16693    0.028
 4437.00    1.12771   1.17081    0.028
 4438.00    1.12091   1.16739    0.028
 4439.00    1.20136   1.13087    0.028
 4440.00    1.31884   1.08407    0.028
 4441.00    1.40571   1.07829    0.028
 4442.00    1.48147   1.13392    0.028
 4443.00    1.38959   1.21816    0.028
 4444.00    1.24616   1.27933    0.028
 4445.00    1.25739   1.28514    0.028
 4446.00    1.30822   1.23610    0.028
 4447.00    1.32189   1.16443    0.028
 4448.00    1.32781   1.11698    0.028
 4449.00    1.31869   1.12634    0.028
 4450.00    1.30709   1.18558    0.028
 4451.00    1.33829   1.24952    0.027
 4452.00    1.37476   1.27993    0.027
 4453.00    1.31759   1.28280    0.027
 4454.00    1.25245   1.27806    0.027
 4455.00    1.24024   1.26693    0.028
 4456.00    1.23065   1.25289    0.028
 4457.00    1.16595   1.24266    0.028
 4458.00    1.10380   1.22042    0.027
 4459.00    1.25693   1.16833    0.027
 4460.00    1.40039   1.10482    0.027
 4461.00    1.34786   1.07018    0.000
 4462.00    1.30206   1.07484    0.000
 4463.00    1.33518   1.08972    0.000
 4464.00    1.36609   1.09137    0.000
 4465.00    1.37903   1.08210    0.000
 4466.00    1.40092   1.07089    0.000
 4467.00    1.47733   1.07297    0.000
 4468.00    1.52547   1.10753    0.000
 4469.00    1.43795   1.16217    0.000
 4470.00    1.38944   1.19874    0.000
 4471.00    1.49323   1.20614    0.000
 4472.00    1.54914   1.20036    0.000
 4473.00    1.44936   1.18874    0.000
 4474.00    1.38577   1.17224    0.000
 4475.00    1.42173   1.16504    0.000
 4476.00    1.42316   1.18380    0.000
 4477.00    1.34324   1.22608    0.000
 4478.00    1.32628   1.27509    0.000
 4479.00    1.43757   1.31251    0.000
 4480.00    1.54123   1.32957    0.000
 4481.00    1.63139   1.33833    0.000
 4482.00    1.63924   1.35510    0.028
 4483.00    1.51943   1.36648    0.028
 4484.00    1.42400   1.33969    0.028
 4485.00    1.36179   1.26966    0.027
 4486.00    1.36175   1.19347    0.027
 4487.00    1.43627   1.15850    0.027
 4488.00    1.43028   1.18528    0.027
 4489.00    1.33916   1.25444    0.027
 4490.00    1.32424   1.32480    0.027
 4491.00    1.38037   1.36545    0.027
 4492.00    1.45128   1.36393    0.027
 4493.00    1.53433   1.32109    0.028
 4494.00    1.50375   1.25881    0.027
 4495.00    1.39093   1.21700    0.027
 4496.00    1.29051   1.22180    0.027
 4497.00    1.19796   1.25723    0.027
 4498.00    1.25261   1.27796    0.027
 4499.00    1.38902   1.25700    0.027
 4500.00    1.45913   1.21600    0.027
 4501.00    1.49722   1.19854    0.027
 4502.00    1.49262   1.22218    0.027
 4503.00    1.47022   1.27144    0.027
 4504.00    1.51689   1.31671    0.027
 4505.00    1.58822   1.33300    0.027
 4506.00    1.65976   1.32254    0.027
 4507.00    1.73138   1.32042    0.027
 4508.00    1.58486   1.35770    0.027
 4509.00    1.38372   1.41633    0.026
 4510.00    1.45283   1.45120    0.026
 4511.00    1.57689   1.44627    0.027
 4512.00    1.58637   1.41930    0.027
 4513.00    1.57759   1.39550    0.027
 4514.00    1.47586   1.39061    0.027
 4515.00    1.36309   1.40213    0.027
 4516.00    1.46280   1.41045    0.027
 4517.00    1.57970   1.39671    0.027
 4518.00    1.52078   1.36284    0.027
 4519.00    1.45387   1.32888    0.027
 4520.00    1.45195   1.31201    0.027
 4521.00    1.45013   1.31298    0.026
 4522.00    1.41222   1.31728    0.026
 4523.00    1.38085   1.31574    0.026
 4524.00    1.47227   1.32150    0.026
 4525.00    1.54434   1.34565    0.027
 4526.00    1.39960   1.37036    0.027
 4527.00    1.27364   1.36916    0.026
 4528.00    1.29466   1.33987    0.026
 4529.00    1.30748   1.30508    0.026
 4530.00    1.27183   1.27457    0.027
 4531.00    1.26450   1.23539    0.027
 4532.00    1.38976   1.18577    0.027
 4533.00    1.49047   1.14188    0.026
 4534.00    1.49734   1.12018    0.026
 4535.00    1.48640   1.12733    0.026
 4536.00    1.41867   1.15656    0.027
 4537.00    1.38767   1.18924    0.027
 4538.00    1.45593   1.20186    0.027
 4539.00    1.48821   1.18301    0.027
 4540.00    1.43713   1.15913    0.026
 4541.00    1.41951   1.17728    0.026
 4542.00    1.46897   1.24956    0.026
 4543.00    1.52097   1.33008    0.027
 4544.00    1.57739   1.36213    0.027
 4545.00    1.55755   1.34125    0.027
 4546.00    1.42117   1.30820    0.026
 4547.00    1.32105   1.29918    0.026
 4548.00    1.26961   1.31290    0.026
 4549.00    1.30268   1.31922    0.026
 4550.00    1.43564   1.30416    0.000
 4551.00    1.48746   1.28778    0.000
 4552.00    1.45470   1.28478    0.000
 4553.00    1.43383   1.27939    0.000
 4554.00    1.42388   1.25902    0.000
 4555.00    1.44236   1.24258    0.000
 4556.00    1.48387   1.25178    0.000
 4557.00    1.49585   1.27107    0.000
 4558.00    1.48678   1.27022    0.000
 4559.00    1.59952   1.24965    0.000
 4560.00    1.78850   1.23481    0.000
 4561.00    1.79055   1.25001    0.000
 4562.00    1.69034   1.29828    0.000
 4563.00    1.58299   1.35516    0.000
 4564.00    1.47224   1.39247    0.000
 4565.00    1.44684   1.40600    0.000
 4566.00    1.45644   1.40792    0.000
 4567.00    1.53167   1.40152    0.000
 4568.00    1.62989   1.37549    0.000
 4569.00    1.57383   1.32853    0.000
 4570.00    1.47217   1.28853    0.000
 4571.00    1.54716   1.28874    0.000
 4572.00    1.66542   1.33171    0.000
 4573.00    1.52301   1.38566    0.000
 4574.00    1.32894   1.41369    0.000
 4575.00    1.40203   1.40168    0.000
 4576.00    1.51647   1.36188    0.000
 4577.00    1.51364   1.32926    0.000
 4578.00    1.49739   1.33781    0.000
 4579.00    1.40076   1.37605    0.000
 4580.00    1.29796   1.40248    0.000
 4581.00    1.41678   1.40484    0.000
 4582.00    1.54484   1.39710    0.000
 4583.00    1.53804   1.38010    0.000
 4584.00    1.53010   1.34450    0.000
 4585.00    1.52347   1.29739    0.000
 4586.00    1.51622   1.26446    0.000
 4587.00    1.49789   1.26221    0.000
 4588.00    1.47734   1.27812    0.000
 4589.00    1.43307   1.28874    0.000
 4590.00    1.40633   1.28828    0.000
 4591.00    1.51212   1.28936    0.000
 4592.00    1.58056   1.30724    0.000
 4593.00    1.43438   1.34468    0.000
 4594.00    1.33051   1.38328    0.000
 4595.00    1.41997   1.39731    0.000
 4596.00    1.48953   1.37810    0.000
 4597.00    1.48463   1.34185    0.000
 4598.00    1.46797   1.31344    0.000
 4599.00    1.41455   1.30209    0.000
 4600.00    1.37785   1.29905    0.000
 4601.00    1.38555   1.29803    0.000
 4602.00    1.39194   1.30234    0.000
 4603.00    1.39534   1.31317    0.000
 4604.00    1.38782   1.32344    0.000
 4605.00    1.35876   1.32342    0.000
 4606.00    1.37405   1.31492    0.000
 4607.00    1.46558   1.31288    0.000
 4608.00    1.51078   1.32171    0.000
 4609.00    1.48621   1.32884    0.000
 4610.00    1.44668   1.32805    0.000
 4611.00    1.38736   1.33123    0.000
 4612.00    1.38962   1.35557    0.000
 4613.00    1.46363   1.40292    0.000
 4614.00    1.52063   1.45210    0.000
 4615.00    1.56015   1.47476    0.000
 4616.00    1.56573   1.46192    0.000
 4617.00    1.54055   1.43101    0.000
 4618.00    1.58537   1.40597    0.000
 4619.00    1.68613   1.40002    0.000
 4620.00    1.65374   1.41146    0.000
 4621.00    1.52777   1.42647    0.000
 4622.00    1.49592   1.43407    0.000
 4623.00    1.52212   1.43253    0.000
 4624.00    1.57858   1.42306    0.000
 4625.00    1.65135   1.41591    0.000
 4626.00    1.67017   1.42432    0.000
 4627.00    1.66375   1.44116    0.000
 4628.00    1.59774   1.44966    0.000
 4629.00    1.50771   1.44734    0.000
 4630.00    1.52496   1.43852    0.000
 4631.00    1.57912   1.42719    0.000
 4632.00    1.51837   1.42108    0.000
 4633.00    1.42435   1.42044    0.000
 4634.00    1.42336   1.41641    0.000
 4635.00    1.44465   1.41311    0.000
 4636.00    1.41878   1.42274    0.000
 4637.00    1.38380   1.43462    0.000
 4638.00    1.40810   1.42585    0.000
 4639.00    1.44131   1.40021    0.000
 4640.00    1.41789   1.38085    0.000
 4641.00    1.38825   1.37309    0.000
 4642.00    1.35466   1.36283    0.000
 4643.00    1.32078   1.34372    0.000
 4644.00    1.48331   1.32482    0.000
 4645.00    1.65327   1.31890    0.000
 4646.00    1.48597   1.33333    0.000
 4647.00    1.32258   1.36078    0.000
 4648.00    1.36741   1.37886    0.000
 4649.00    1.41477   1.37075    0.000
 4650.00    1.50357   1.33781    0.000
 4651.00    1.57993   1.28998    0.000
 4652.00    1.52891   1.24485    0.000
 4653.00    1.47847   1.22684    0.000
 4654.00    1.43225   1.24723    0.000
 4655.00    1.39305   1.29280    0.000
 4656.00    1.39307   1.34025    0.000
 4657.00    1.38978   1.37421    0.000
 4658.00    1.37171   1.38803    0.000
 4659.00    1.35912   1.37683    0.000
 4660.00    1.36657   1.34598    0.000
 4661.00    1.39615   1.31915    0.000
 4662.00    1.49363   1.32312    0.000
 4663.00    1.58622   1.36613    0.000
 4664.00    1.66610   1.43009    0.000
 4665.00    1.67737   1.48010    0.000
 4666.00    1.53487   1.48894    0.000
 4667.00    1.42910   1.45706    0.000
 4668.00    1.39465   1.40854    0.000
 4669.00    1.36533   1.36882    0.000
 4670.00    1.34468   1.33974    0.000
 4671.00    1.38281   1.29803    0.000
 4672.00    1.50814   1.23364    0.000
 4673.00    1.55682   1.17995    0.000
 4674.00    1.50550   1.18028    0.000
 4675.00    1.46410   1.23544    0.000
 4676.00    1.43408   1.30661    0.000
 4677.00    1.42825   1.35557    0.000
 4678.00    1.44694   1.37078    0.000
 4679.00    1.43899   1.36781    0.000
 4680.00    1.40725   1.37132    0.000
 4681.00    1.40421   1.39092    0.000
 4682.00    1.42376   1.41018    0.000
 4683.00    1.41604   1.40542    0.000
 4684.00    1.38942   1.37467    0.000
 4685.00    1.49437   1.33791    0.000
 4686.00    1.67922   1.31375    0.000
 4687.00    1.67085   1.31037    0.000
 4688.00    1.56004   1.32889    0.000
 4689.00    1.51691   1.35886    0.000
 4690.00    1.50493   1.38212    0.000
 4691.00    1.54043   1.38956    0.000
 4692.00    1.59473   1.38447    0.000
 4693.00    1.56057   1.37478    0.000
 4694.00    1.49654   1.36803    0.000
 4695.00    1.41241   1.36466    0.000
 4696.00    1.32257   1.35934    0.000
 4697.00    1.36522   1.35448    0.000
 4698.00    1.43888   1.35937    0.000
 4699.00    1.42015   1.37695    0.000
 4700.00    1.38403   1.40208    0.000
 4701.00    1.42020   1.42365    0.000
 4702.00    1.46688   1.42402    0.000
 4703.00    1.45079   1.39308    0.000
 4704.00    1.42807   1.34792    0.000
 4705.00    1.41730   1.31834    0.000
 4706.00    1.40734   1.30995    0.000
 4707.00    1.47459   1.30399    0.000
 4708.00    1.54447   1.29309    0.000
 4709.00    1.55999   1.29358    0.000
 4710.00    1.57615   1.31431    0.000
 4711.00    1.61605   1.33570    0.000
 4712.00    1.64253   1.33430    0.000
 4713.00    1.46304   1.31358    0.000
 4714.00    1.30693   1.29745    0.000
 4715.00    1.38009   1.30610    0.000
 4716.00    1.44031   1.34030    0.000
 4717.00    1.40898   1.37694    0.000
 4718.00    1.39181   1.38755    0.000
 4719.00    1.45169   1.36808    0.000
 4720.00    1.50448   1.34665    0.000
 4721.00    1.52636   1.35517    0.000
 4722.00    1.54520   1.39372    0.000
 4723.00    1.55310   1.43691    0.000
 4724.00    1.55458   1.46870    0.000
 4725.00    1.53671   1.48880    0.000
 4726.00    1.54159   1.49581    0.000
 4727.00    1.60480   1.48794    0.000
 4728.00    1.61783   1.47624    0.000
 4729.00    1.52025   1.47760    0.000
 4730.00    1.48429   1.49008    0.000
 4731.00    1.56614   1.48740    0.000
 4732.00    1.57030   1.44629    0.000
 4733.00    1.44483   1.37791    0.000
 4734.00    1.38768   1.32022    0.000
 4735.00    1.43042   1.29793    0.000
 4736.00    1.49089   1.30659    0.000
 4737.00    1.57413   1.33196    0.000
 4738.00    1.58648   1.36284    0.000
 4739.00    1.51850   1.38993    0.000
 4740.00    1.51208   1.40614    0.000
 4741.00    1.56715   1.40578    0.000
 4742.00    1.53741   1.39565    0.000
 4743.00    1.43293   1.39892    0.000
 4744.00    1.44739   1.42180    0.000
 4745.00    1.55418   1.44000    0.000
 4746.00    1.56823   1.43812    0.000
 4747.00    1.51896   1.43145    0.000
 4748.00    1.54472   1.43706    0.000
 4749.00    1.61538   1.44901    0.000
 4750.00    1.62721   1.45501    0.000
 4751.00    1.60833   1.45926    0.000
 4752.00    1.60625   1.47014    0.000
 4753.00    1.61178   1.48151    0.000
 4754.00    1.59757   1.48553    0.000
 4755.00    1.57568   1.48504    0.000
 4756.00    1.54550   1.48138    0.000
 4757.00    1.51258   1.46846    0.000
 4758.00    1.53104   1.44575    0.000
 4759.00    1.56378   1.42199    0.000
 4760.00    1.59158   1.40561    0.000
 4761.00    1.61825   1.39935    0.023
 4762.00    1.53094   1.40218    0.023
 4763.00    1.42275   1.41256    0.022
 4764.00    1.55158   1.42830    0.023
 4765.00    1.71379   1.44196    0.023
 4766.00    1.68548   1.43878    0.023
 4767.00    1.63785   1.41050    0.023
 4768.00    1.60274   1.37047    0.023
 4769.00    1.56844   1.33827    0.023
 4770.00    1.64898   1.31698    0.023
 4771.00    1.73274   1.30374    0.023
 4772.00    1.68700   1.30711    0.023
 4773.00    1.64193   1.33528    0.023
 4774.00    1.61645   1.37987    0.023
 4775.00    1.58811   1.41954    0.022
 4776.00    1.51846   1.43425    0.022
 4777.00    1.45397   1.42483    0.022
 4778.00    1.43808   1.41737    0.022
 4779.00    1.42999   1.43371    0.022
 4780.00    1.47535   1.46449    0.022
 4781.00    1.50089   1.48600    0.022
 4782.00    1.42150   1.49354    0.022
 4783.00    1.37601   1.49640    0.021
 4784.00    1.47488   1.49420    0.021
 4785.00    1.56377   1.48335    0.021
 4786.00    1.61757   1.46882    0.022
 4787.00    1.63115   1.45213    0.022
 4788.00    1.52588   1.42948    0.022
 4789.00    1.46472   1.40893    0.023
 4790.00    1.51462   1.40181    0.022
 4791.00    1.54612   1.39989    0.022
 4792.00    1.53770   1.39297    0.022
 4793.00    1.55096   1.38884    0.022
 4794.00    1.60501   1.39158    0.022
 4795.00    1.65355   1.39568    0.023
 4796.00    1.69305   1.40416    0.023
 4797.00    1.69065   1.42372    0.023
 4798.00    1.62790   1.45592    0.023
 4799.00    1.59580   1.49783    0.023
 4800.00    1.60256   1.53656    0.023
 4801.00    1.60653   1.55270    0.023
 4802.00    1.60740   1.53810    0.023
 4803.00    1.62330   1.50159    0.023
 4804.00    1.65400   1.46000    0.023
 4805.00    1.61663   1.43266    0.023
 4806.00    1.52013   1.43504    0.023
 4807.00    1.44882   1.46534    0.023
 4808.00    1.39679   1.49990    0.023
 4809.00    1.43536   1.51111    0.023
 4810.00    1.53488   1.49247    0.023
 4811.00    1.57420   1.46197    0.023
 4812.00    1.57805   1.43848    0.023
 4813.00    1.56232   1.42549    0.023
 4814.00    1.53653   1.42375    0.023
 4815.00    1.53948   1.43568    0.023
 4816.00    1.55523   1.45377    0.023
 4817.00    1.55832   1.46621    0.023
 4818.00    1.55658   1.47082    0.023
 4819.00    1.63659   1.47370    0.023
 4820.00    1.74318   1.48063    0.023
 4821.00    1.73990   1.49328    0.023
 4822.00    1.70672   1.51010    0.023
 4823.00    1.62722   1.52742    0.023
 4824.00    1.53738   1.54164    0.023
 4825.00    1.49354   1.54914    0.023
 4826.00    1.45791   1.54398    0.023
 4827.00    1.50869   1.51994    0.023
 4828.00    1.57125   1.47601    0.023
 4829.00    1.61874   1.42910    0.023
 4830.00    1.66477   1.41185    0.023
 4831.00    1.60619   1.43373    0.023
 4832.00    1.54127   1.46502    0.023
 4833.00    1.59117   1.47595    0.023
 4834.00    1.64366   1.46740    0.023
 4835.00    1.61366   1.45641    0.023
 4836.00    1.58233   1.44767    0.023
 4837.00    1.51638   1.43453    0.023
 4838.00    1.45493   1.42470    0.023
 4839.00    1.45494   1.43442    0.022
 4840.00    1.46140   1.45832    0.022
 4841.00    1.52613   1.47590    0.022
 4842.00    1.57829   1.47935    0.022
 4843.00    1.54705   1.47202    0.022
 4844.00    1.51288   1.45307    0.022
 4845.00    1.46363   1.42682    0.022
 4846.00    1.44935   1.40983    0.022
 4847.00    1.58070   1.40991    0.022
 4848.00    1.67050   1.41567    0.000
 4849.00    1.61722   1.42127    0.000
 4850.00    1.56435   1.43784    0.000
 4851.00    1.51269   1.46418    0.000
 4852.00    1.46431   1.47663    0.000
 4853.00    1.42405   1.46009    0.000
 4854.00    1.40383   1.43020    0.000
 4855.00    1.42636   1.41734    0.000
 4856.00    1.42476   1.42918    0.000
 4857.00    1.37847   1.44367    0.000
 4858.00    1.34609   1.44113    0.000
 4859.00    1.33626   1.41545    0.000
 4860.00    1.29243   1.36748    0.000
 4861.00    1.20034   1.31774    0.000
 4862.00    1.18880   1.29657    0.000
 4863.00    1.27792   1.29798    0.000
 4864.00    1.39291   1.27693    0.000
 4865.00    1.53639   1.20362    0.000
 4866.00    1.55810   1.10077    0.000
 4867.00    1.46154   1.03119    0.000
 4868.00    1.39567   1.04379    0.000
 4869.00    1.35607   1.12089    0.000
 4870.00    1.34821   1.20633    0.000
 4871.00    1.36429   1.27189    0.000
 4872.00    1.46666   1.31894    0.000
 4873.00    1.62622   1.34939    0.000
 4874.00    1.65554   1.36183    0.000
 4875.00    1.60927   1.35135    0.022
 4876.00    1.52815   1.31190    0.022
 4877.00    1.42940   1.26293    0.021
 4878.00    1.36760   1.24827    0.022
 4879.00    1.32197   1.28177    0.022
 4880.00    1.44095   1.32989    0.022
 4881.00    1.62180   1.36317    0.022
 4882.00    1.66726   1.38487    0.022
 4883.00    1.66955   1.40791    0.022
 4884.00    1.66074   1.43686    0.022
 4885.00    1.64897   1.46454    0.022
 4886.00    1.64147   1.47107    0.022
 4887.00    1.63490   1.45088    0.022
 4888.00    1.55373   1.42806    0.022
 4889.00    1.45962   1.41672    0.022
 4890.00    1.45611   1.40073    0.022
 4891.00    1.46453   1.37139    0.022
 4892.00    1.51950   1.34754    0.022
 4893.00    1.57880   1.34500    0.022
 4894.00    1.69388   1.35097    0.022
 4895.00    1.81212   1.33997    0.022
 4896.00    1.76297   1.30922    0.022
 4897.00    1.71035   1.29399    0.022
 4898.00    1.69514   1.33447    0.022
 4899.00    1.68245   1.42288    0.022
 4900.00    1.72974   1.51273    0.022
 4901.00    1.77052   1.57089    0.022
 4902.00    1.72709   1.59356    0.022
 4903.00    1.68260   1.59006    0.021
 4904.00    1.62892   1.56817    0.022
 4905.00    1.58300   1.53466    0.022
 4906.00    1.58703   1.50497    0.022
 4907.00    1.59328   1.49108    0.022
 4908.00    1.61068   1.48425    0.022
 4909.00    1.60303   1.47681    0.022
 4910.00    1.49344   1.48331    0.022
 4911.00    1.40974   1.51272    0.022
 4912.00    1.41341   1.54232    0.022
 4913.00    1.44881   1.54089    0.022
 4914.00    1.57457   1.50291    0.022
 4915.00    1.66214   1.44923    0.022
 4916.00    1.65684   1.40917    0.022
 4917.00    1.62004   1.40383    0.022
 4918.00    1.51714   1.43154    0.022
 4919.00    1.45389   1.47222    0.022
 4920.00    1.46297   1.50944    0.022
 4921.00    1.49813   1.53367    0.022
 4922.00    1.57491   1.52811    0.022
 4923.00    1.61602   1.47511    0.022
 4924.00    1.60723   1.38104    0.022
 4925.00    1.64437   1.28417    0.022
 4926.00    1.73806   1.23234    0.022
 4927.00    1.73785   1.24703    0.022
 4928.00    1.63569   1.30414    0.022
 4929.00    1.58187   1.35652    0.022
 4930.00    1.57433   1.38468    0.022
 4931.00    1.59131   1.41035    0.022
 4932.00    1.62902   1.45297    0.022
 4933.00    1.59124   1.50243    0.022
 4934.00    1.49735   1.54283    0.022
 4935.00    1.51169   1.57038    0.022
 4936.00    1.59672   1.58184    0.022
 4937.00    1.59368   1.56996    0.022
 4938.00    1.54029   1.53167    0.022
 4939.00    1.49689   1.48002    0.022
 4940.00    1.45846   1.44655    0.000
 4941.00    1.54255   1.44588    0.000
 4942.00    1.67940   1.44713    0.000
 4943.00    1.69533   1.41601    0.000
 4944.00    1.66663   1.36826    0.000
 4945.00    1.65845   1.35259    0.000
 4946.00    1.65670   1.39296    0.000
 4947.00    1.68483   1.46374    0.000
 4948.00    1.72077   1.52386    0.000
 4949.00    1.68395   1.55708    0.000
 4950.00    1.63163   1.56625    0.000
 4951.00    1.64200   1.55736    0.000
 4952.00    1.66293   1.54619    0.000
 4953.00    1.58977   1.55049    0.000
 4954.00    1.50464   1.56821    0.000
 4955.00    1.46538   1.58501    0.000
 4956.00    1.43019   1.59502    0.000
 4957.00    1.46992   1.59732    0.000
 4958.00    1.51359   1.58781    0.000
 4959.00    1.52630   1.56698    0.000
 4960.00    1.53909   1.53932    0.000
 4961.00    1.60529   1.49613    0.000
 4962.00    1.66708   1.42367    0.000
 4963.00    1.63319   1.34497    0.000
 4964.00    1.60090   1.32144    0.000
 4965.00    1.58819   1.37947    0.000
 4966.00    1.57345   1.46847    0.000
 4967.00    1.54175   1.52631    0.000
 4968.00    1.52217   1.54303    0.000
 4969.00    1.57825   1.53706    0.000
 4970.00    1.62272   1.51456    0.000
 4971.00    1.61022   1.47760    0.000
 4972.00    1.59268   1.44336    0.000
 4973.00    1.55507   1.42887    0.000
 4974.00    1.52679   1.43268    0.000
 4975.00    1.52939   1.44527    0.000
 4976.00    1.54192   1.46301    0.000
 4977.00    1.58225   1.48648    0.000
 4978.00    1.57915   1.51363    0.000
 4979.00    1.47221   1.53791    0.000
 4980.00    1.41542   1.55268    0.000
 4981.00    1.46226   1.55380    0.000
 4982.00    1.49234   1.53952    0.000
 4983.00    1.49232   1.51172    0.000
 4984.00    1.48059   1.47697    0.000
 4985.00    1.45046   1.44408    0.000
 4986.00    1.44302   1.41218    0.000
 4987.00    1.46686   1.36822    0.000
 4988.00    1.48183   1.31256    0.000
 4989.00    1.48601   1.27303    0.000
 4990.00    1.50913   1.27564    0.000
 4991.00    1.55253   1.31744    0.000
 4992.00    1.57992   1.37803    0.000
 4993.00    1.59219   1.43617    0.000
 4994.00    1.62361   1.47213    0.000
 4995.00    1.67098   1.47717    0.000
 4996.00    1.69587   1.46315    0.000
 4997.00    1.70427   1.45147    0.000
 4998.00    1.62145   1.45209    0.000
 4999.00    1.47992   1.45821    0.000
 5000.00    1.46139   1.46430    0.000
 5001.00    1.51210   1.47446    0.000
 5002.00    1.54529   1.48617    0.000
 5003.00    1.56988   1.48621    0.000
 5004.00    1.57276   1.46527    0.000
 5005.00    1.56643   1.42691    0.000
 5006.00    1.54377   1.38748    0.000
 5007.00    1.51517   1.36463    0.000
 5008.00    1.49629   1.36148    0.000
 5009.00    1.48040   1.36404    0.000
 5010.00    1.46630   1.35302    0.000
 5011.00    1.45266   1.32398    0.000
 5012.00    1.45011   1.30096    0.000
 5013.00    1.44986   1.31580    0.000
 5014.00    1.49648   1.36678    0.000
 5015.00    1.55078   1.41552    0.000
 5016.00    1.52456   1.42766    0.000
 5017.00    1.48846   1.39862    0.000
 5018.00    1.47562   1.34535    0.000
 5019.00    1.46476   1.29399    0.000
 5020.00    1.57222   1.26957    0.000
 5021.00    1.68546   1.27969    0.000
 5022.00    1.58614   1.30559    0.000
 5023.00    1.48525   1.32192    0.000
 5024.00    1.48870   1.32699    0.000
 5025.00    1.48912   1.33712    0.000
 5026.00    1.42881   1.35406    0.000
 5027.00    1.38537   1.36334    0.000
 5028.00    1.53909   1.36397    0.000
 5029.00    1.67714   1.37319    0.021
 5030.00    1.68869   1.39702    0.021
 5031.00    1.68948   1.41790    0.021
 5032.00    1.62497   1.41814    0.021
 5033.00    1.57151   1.40333    0.021
 5034.00    1.57092   1.39814    0.021
 5035.00    1.55505   1.41748    0.021
 5036.00    1.47962   1.45131    0.021
 5037.00    1.42924   1.48551    0.021
 5038.00    1.46007   1.51638    0.021
 5039.00    1.48684   1.53488    0.021
 5040.00    1.50243   1.52175    0.021
 5041.00    1.49024   1.47441    0.021
 5042.00    1.41273   1.42225    0.021
 5043.00    1.38429   1.39265    0.021
 5044.00    1.45560   1.37301    0.021
 5045.00    1.51860   1.33218    0.021
 5046.00    1.56691   1.27130    0.021
 5047.00    1.59448   1.23288    0.021
 5048.00    1.58993   1.25849    0.021
 5049.00    1.57710   1.34232    0.021
 5050.00    1.55302   1.43950    0.021
 5051.00    1.53164   1.51231    0.021
 5052.00    1.51350   1.54463    0.021
 5053.00    1.51980   1.52962    0.020
 5054.00    1.55189   1.47676    0.021
 5055.00    1.58399   1.41803    0.021
 5056.00    1.61609   1.38335    0.021
 5057.00    1.63842   1.37825    0.021
 5058.00    1.65273   1.39511    0.021
 5059.00    1.62639   1.42849    0.021
 5060.00    1.57069   1.46970    0.021
 5061.00    1.51959   1.50386    0.020
 5062.00    1.47140   1.52259    0.020
 5063.00    1.47844   1.53114    0.020
 5064.00    1.51611   1.53841    0.020
 5065.00    1.53336   1.54783    0.020
 5066.00    1.54077   1.55998    0.020
 5067.00    1.59009   1.57173    0.021
 5068.00    1.65687   1.56928    0.021
 5069.00    1.64548   1.53611    0.021
 5070.00    1.60624   1.47683    0.021
 5071.00    1.55207   1.42384    0.020
 5072.00    1.49340   1.40441    0.020
 5073.00    1.44645   1.41058    0.020
 5074.00    1.40242   1.42136    0.020
 5075.00    1.43307   1.43382    0.020
 5076.00    1.47884   1.44827    0.021
 5077.00    1.47230   1.45199    0.020
 5078.00    1.45745   1.44205    0.020
 5079.00    1.43748   1.43588    0.020
 5080.00    1.41692   1.44217    0.020
 5081.00    1.44634   1.45008    0.020
 5082.00    1.47977   1.45217    0.020
 5083.00    1.44500   1.44498    0.020
 5084.00    1.40716   1.41439    0.020
 5085.00    1.46747   1.35716    0.020
 5086.00    1.52783   1.30581    0.020
 5087.00    1.53334   1.29553    0.020
 5088.00    1.53770   1.32069    0.020
 5089.00    1.52063   1.35371    0.020
 5090.00    1.50481   1.38486    0.020
 5091.00    1.50299   1.41742    0.020
 5092.00    1.49613   1.44563    0.020
 5093.00    1.45001   1.46151    0.020
 5094.00    1.41258   1.46920    0.020
 5095.00    1.42634   1.47718    0.020
 5096.00    1.44497   1.48719    0.020
 5097.00    1.48634   1.49939    0.020
 5098.00    1.50760   1.51635    0.020
 5099.00    1.45220   1.53358    0.020
 5100.00    1.42365   1.53726    0.020
 5101.00    1.48051   1.51782    0.020
 5102.00    1.51020   1.47800    0.020
 5103.00    1.46662   1.42641    0.020
 5104.00    1.45950   1.37540    0.020
 5105.00    1.53665   1.34650    0.020
 5106.00    1.57807   1.35916    0.020
 5107.00    1.54800   1.40489    0.020
 5108.00    1.51328   1.44923    0.020
 5109.00    1.47047   1.46666    0.020
 5110.00    1.45687   1.45978    0.020
 5111.00    1.48782   1.44306    0.020
 5112.00    1.50002   1.42293    0.021
 5113.00    1.48707   1.40059    0.021
 5114.00    1.49471   1.38213    0.021
 5115.00    1.52664   1.37396    0.021
 5116.00    1.50925   1.37846    0.021
 5117.00    1.44056   1.39792    0.021
 5118.00    1.47107   1.42877    0.021
 5119.00    1.59263   1.45889    0.021
 5120.00    1.61362   1.48063    0.021
 5121.00    1.55323   1.49691    0.021
 5122.00    1.49667   1.51381    0.020
 5123.00    1.44282   1.53231    0.020
 5124.00    1.38990   1.54418    0.020
 5125.00    1.33755   1.53877    0.020
 5126.00    1.38019   1.51409    0.020
 5127.00    1.47467   1.47630    0.020
 5128.00    1.53288   1.43102    0.020
 5129.00    1.57389   1.38412    0.020
 5130.00    1.54775   1.34873    0.020
 5131.00    1.49413   1.33703    0.020
 5132.00    1.46269   1.34411    0.020
 5133.00    1.43901   1.35329    0.020
 5134.00    1.48137   1.35602    0.020
 5135.00    1.54321   1.35811    0.020
 5136.00    1.48909   1.36985    0.020
 5137.00    1.40666   1.39299    0.020
 5138.00    1.32957   1.41837    0.020
 5139.00    1.25353   1.43847    0.020
 5140.00    1.33361   1.45588    0.020
 5141.00    1.43777   1.46986    0.020
 5142.00    1.42347   1.46705    0.020
 5143.00    1.39567   1.43956    0.020
 5144.00    1.38260   1.40081    0.020
 5145.00    1.37066   1.37496    0.020
 5146.00    1.43668   1.37375    0.020
 5147.00    1.50592   1.38224    0.020
 5148.00    1.47788   1.37974    0.020
 5149.00    1.44881   1.37291    0.020
 5150.00    1.41045   1.37790    0.020
 5151.00    1.37805   1.38578    0.020
 5152.00    1.44894   1.38035    0.020
 5153.00    1.51170   1.36849    0.020
 5154.00    1.48795   1.36783    0.020
 5155.00    1.46486   1.37930    0.020
 5156.00    1.44672   1.38648    0.020
 5157.00    1.43390   1.37856    0.020
 5158.00    1.45151   1.36290    0.020
 5159.00    1.47596   1.35346    0.020
 5160.00    1.53158   1.35958    0.020
 5161.00    1.55431   1.38512    0.020
 5162.00    1.45430   1.42599    0.020
 5163.00    1.35938   1.46874    0.020
 5164.00    1.28034   1.49867    0.020
 5165.00    1.22223   1.51116    0.020
 5166.00    1.21956   1.51066    0.020
 5167.00    1.21291   1.49878    0.020
 5168.00    1.19722   1.47444    0.020
 5169.00    1.17358   1.44040    0.020
 5170.00    1.13429   1.39275    0.020
 5171.00    1.12692   1.31578    0.020
 5172.00    1.17434   1.20727    0.020
 5173.00    1.23140   1.10163    0.020
 5174.00    1.30293   1.05058    0.020
 5175.00    1.34403   1.07191    0.020
 5176.00    1.34493   1.11916    0.020
 5177.00    1.34869   1.12325    0.020
 5178.00    1.35578   1.07698    0.020
 5179.00    1.34837   1.05199    0.020
 5180.00    1.32610   1.10974    0.020
 5181.00    1.32169   1.22624    0.020
 5182.00    1.33344   1.33257    0.020
 5183.00    1.34232   1.39427    0.020
 5184.00    1.34891   1.41949    0.019
 5185.00    1.33256   1.41987    0.019
 5186.00    1.30009   1.39321    0.020
 5187.00    1.32105   1.32939    0.020
 5188.00    1.37489   1.22491    0.020
 5189.00    1.42155   1.11078    0.020
 5190.00    1.46437   1.05632    0.000
 5191.00    1.45752   1.10755    0.000
 5192.00    1.42750   1.22949    0.000
 5193.00    1.44658   1.34378    0.000
 5194.00    1.48543   1.40897    0.000
 5195.00    1.50595   1.43578    0.000
 5196.00    1.52019   1.43662    0.000
 5197.00    1.49905   1.40406    0.000
 5198.00    1.46769   1.35027    0.000
 5199.00    1.46545   1.31720    0.000
 5200.00    1.47015   1.32369    0.000
 5201.00    1.49149   1.34855    0.000
 5202.00    1.51604   1.37416    0.000
 5203.00    1.44778   1.40324    0.000
 5204.00    1.36564   1.43730    0.000
 5205.00    1.36995   1.46894    0.000
 5206.00    1.38374   1.48893    0.000
 5207.00    1.40767   1.49122    0.000
 5208.00    1.43233   1.47544    0.000
 5209.00    1.46937   1.44203    0.000
 5210.00    1.50687   1.38875    0.000
 5211.00    1.49957   1.32440    0.020
 5212.00    1.49132   1.27342    0.020
 5213.00    1.45557   1.24904    0.020
 5214.00    1.42387   1.24330    0.019
 5215.00    1.45778   1.25494    0.020
 5216.00    1.49156   1.29478    0.020
 5217.00    1.52403   1.36126    0.020
 5218.00    1.55373   1.43447    0.019
 5219.00    1.56332   1.48800    0.020
 5220.00    1.56822   1.50210    0.020
 5221.00    1.54692   1.47837    0.020
 5222.00    1.50976   1.44497    0.020
 5223.00    1.40205   1.43575    0.020
 5224.00    1.33137   1.46105    0.020
 5225.00    1.39596   1.50365    0.020
 5226.00    1.45948   1.54000    0.020
 5227.00    1.51975   1.55792    0.020
 5228.00    1.53294   1.55286    0.020
 5229.00    1.42362   1.52016    0.020
 5230.00    1.36356   1.45880    0.020
 5231.00    1.41367   1.37804    0.020
 5232.00    1.46907   1.30151    0.020
 5233.00    1.53471   1.26655    0.020
 5234.00    1.56860   1.30007    0.020
 5235.00    1.54882   1.38258    0.020
 5236.00    1.55857   1.46183    0.020
 5237.00    1.61204   1.50049    0.020
 5238.00    1.63460   1.49273    0.020
 5239.00    1.61689   1.45858    0.020
 5240.00    1.61517   1.43348    0.020
 5241.00    1.63179   1.44229    0.020
 5242.00    1.64577   1.48213    0.020
 5243.00    1.65707   1.53077    0.020
 5244.00    1.60591   1.56521    0.020
 5245.00    1.49902   1.57761    0.020
 5246.00    1.46535   1.57665    0.020
 5247.00    1.48926   1.57360    0.020
 5248.00    1.50959   1.57204    0.020
 5249.00    1.52745   1.57380    0.020
 5250.00    1.51915   1.58067    0.020
 5251.00    1.49501   1.58058    0.020
 5252.00    1.51469   1.55351    0.020
 5253.00    1.55755   1.50443    0.020
 5254.00    1.56193   1.46437    0.020
 5255.00    1.54865   1.44724    0.020
 5256.00    1.53506   1.43999    0.020
 5257.00    1.52136   1.43877    0.020
 5258.00    1.49065   1.45244    0.020
 5259.00    1.45422   1.47306    0.020
 5260.00    1.47647   1.48184    0.020
 5261.00    1.51534   1.48213    0.020
 5262.00    1.47854   1.49985    0.020
 5263.00    1.42408   1.54568    0.020
 5264.00    1.33558   1.59585    0.020
 5265.00    1.24069   1.61822    0.020
 5266.00    1.25945   1.59895    0.020
 5267.00    1.29467   1.54199    0.020
 5268.00    1.34515   1.46099    0.020
 5269.00    1.39724   1.37479    0.021
 5270.00    1.36729   1.30136    0.021
 5271.00    1.33176   1.25336    0.021
 5272.00    1.36958   1.23949    0.021
 5273.00    1.40987   1.25511    0.020
 5274.00    1.51134   1.26707    0.021
 5275.00    1.60902   1.24369    0.021
 5276.00    1.58305   1.21227    0.020
 5277.00    1.55678   1.23361    0.020
 5278.00    1.52606   1.31166    0.020
 5279.00    1.50017   1.38883    0.020
 5280.00    1.52132   1.42540    0.020
 5281.00    1.54433   1.43400    0.020
 5282.00    1.58037   1.45091    0.020
 5283.00    1.61638   1.49737    0.020
 5284.00    1.65231   1.55632    0.020
 5285.00    1.67378   1.58945    0.020
 5286.00    1.63240   1.57897    0.020
 5287.00    1.60377   1.53895    0.020
 5288.00    1.62075   1.49382    0.020
 5289.00    1.64467   1.46283    0.020
 5290.00    1.68944   1.46259    0.020
 5291.00    1.70835   1.50373    0.020
 5292.00    1.66115   1.57189    0.020
 5293.00    1.62626   1.62991    0.020
 5294.00    1.61844   1.65512    0.020
 5295.00    1.60096   1.65895    0.020
 5296.00    1.56506   1.66248    0.020
 5297.00    1.50408   1.66833    0.020
 5298.00    1.40132   1.66557    0.020
 5299.00    1.36536   1.65068    0.020
 5300.00    1.42691   1.62948    0.020
 5301.00    1.47810   1.60014    0.019
 5302.00    1.51601   1.55075    0.019
 5303.00    1.57104   1.48393    0.020
 5304.00    1.64545   1.43178    0.020
 5305.00    1.70475   1.42656    0.020
 5306.00    1.74901   1.46073    0.019
 5307.00    1.76519   1.49878    0.019
 5308.00    1.75670   1.52571    0.019
 5309.00    1.74911   1.55688    0.019
 5310.00    1.74221   1.60132    0.019
 5311.00    1.70397   1.64268    0.019
 5312.00    1.64436   1.66027    0.019
 5313.00    1.61106   1.65486    0.019
 5314.00    1.59348   1.64709    0.019
 5315.00    1.61005   1.65321    0.019
 5316.00    1.64441   1.66832    0.019
 5317.00    1.63811   1.67680    0.019
 5318.00    1.61346   1.67143    0.019
 5319.00    1.61144   1.65696    0.019
 5320.00    1.61820   1.64059    0.019
 5321.00    1.62729   1.62400    0.019
 5322.00    1.63715   1.60612    0.019
 5323.00    1.57923   1.59193    0.019
 5324.00    1.50251   1.58933    0.019
 5325.00    1.44057   1.59646    0.019
 5326.00    1.38200   1.60304    0.019
 5327.00    1.38798   1.60163    0.019
 5328.00    1.40574   1.58825    0.019
 5329.00    1.48779   1.56036    0.019
 5330.00    1.57885   1.52460    0.019
 5331.00    1.62888   1.49422    0.019
 5332.00    1.67476   1.46476    0.019
 5333.00    1.63257   1.41217    0.019
 5334.00    1.58475   1.34041    0.019
 5335.00    1.61015   1.30391    0.019
 5336.00    1.63757   1.34506    0.019
 5337.00    1.60069   1.43533    0.019
 5338.00    1.56696   1.51302    0.019
 5339.00    1.62330   1.55481    0.019
 5340.00    1.67255   1.57991    0.019
 5341.00    1.62009   1.60390    0.019
 5342.00    1.57185   1.61958    0.019
 5343.00    1.56308   1.61769    0.019
 5344.00    1.55770   1.59855    0.019
 5345.00    1.57539   1.56300    0.019
 5346.00    1.59695   1.51727    0.019
 5347.00    1.63890   1.48685    0.019
 5348.00    1.67281   1.49677    0.019
 5349.00    1.67258   1.53745    0.019
 5350.00    1.66339   1.57355    0.019
 5351.00    1.62286   1.58325    0.019
 5352.00    1.59129   1.57304    0.019
 5353.00    1.58615   1.55880    0.019
 5354.00    1.61292   1.54576    0.019
 5355.00    1.71986   1.53559    0.019
 5356.00    1.79185   1.54056    0.019
 5357.00    1.78819   1.56972    0.019
 5358.00    1.75365   1.61087    0.019
 5359.00    1.66113   1.64552    0.019
 5360.00    1.59673   1.67158    0.019
 5361.00    1.57843   1.69613    0.019
 5362.00    1.55910   1.71785    0.019
 5363.00    1.53829   1.73055    0.019
 5364.00    1.51994   1.73371    0.019
 5365.00    1.50470   1.72963    0.019
 5366.00    1.52407   1.71668    0.019
 5367.00    1.58201   1.69217    0.018
 5368.00    1.60904   1.66002   -2.000
 5369.00    1.60567   1.62994   -2.000
 5370.00    1.57270   1.60704   -2.000
 5371.00    1.51405   1.58979   -2.000
 5372.00    1.54203   1.57791   -2.000
 5373.00    1.63619   1.57079   -2.000
 5374.00    1.68942   1.55943   -2.000
 5375.00    1.71517   1.53013   -2.000
 5376.00    1.71268   1.48099   -2.000
 5377.00    1.69357   1.43624   -2.000
 5378.00    1.69658   1.43390   -2.000
 5379.00    1.71093   1.48737   -2.000
 5380.00    1.65783   1.56779   -2.000
 5381.00    1.57476   1.63270   -2.000
 5382.00    1.59896   1.66235   -2.000
 5383.00    1.66410   1.66509    0.018
 5384.00    1.64039   1.65984    0.018
 5385.00    1.58785   1.65620    0.019
 5386.00    1.58554   1.64994    0.018
 5387.00    1.59687   1.63641    0.018
 5388.00    1.62873   1.61930    0.018
 5389.00    1.66516   1.60681    0.018
 5390.00    1.57230   1.60672    0.018
 5391.00    1.45647   1.62023    0.018
 5392.00    1.43425   1.63678    0.018
 5393.00    1.42474   1.64262    0.018
 5394.00    1.46000   1.63246    0.018
 5395.00    1.49959   1.60922    0.018
 5396.00    1.50312   1.58029    0.018
 5397.00    1.50449   1.55537    0.018
 5398.00    1.52241   1.54054    0.018
 5399.00    1.54070   1.53451    0.018
 5400.00    1.55143   1.53119    0.018
 5401.00    1.56164   1.52161    0.018
 5402.00    1.55828   1.49815    0.018
 5403.00    1.55244   1.46919    0.018
 5404.00    1.51295   1.46112    0.018
 5405.00    1.48047   1.48728    0.018
 5406.00    1.51114   1.52820    0.018
 5407.00    1.53328   1.55807    0.018
 5408.00    1.49910   1.56732    0.018
 5409.00    1.47601   1.54999    0.018
 5410.00    1.50999   1.50116    0.018
 5411.00    1.54222   1.43786    0.018
 5412.00    1.56721   1.39762    0.018
 5413.00    1.58340   1.40296    0.018
 5414.00    1.56936   1.43637    0.018
 5415.00    1.56009   1.46212    0.018
 5416.00    1.56466   1.47070    0.018
 5417.00    1.57985   1.48549    0.018
 5418.00    1.62126   1.52293    0.018
 5419.00    1.65567   1.56746    0.018
 5420.00    1.67517   1.59588    0.018
 5421.00    1.69238   1.60812    0.018
 5422.00    1.70534   1.62100    0.018
 5423.00    1.69386   1.64050    0.018
 5424.00    1.64288   1.65398    0.018
 5425.00    1.59457   1.64939    0.018
 5426.00    1.55006   1.63138    0.018
 5427.00    1.51698   1.61522    0.018
 5428.00    1.49816   1.60804    0.018
 5429.00    1.51149   1.60105    0.018
 5430.00    1.56016   1.58798    0.018
 5431.00    1.56534   1.58337    0.018
 5432.00    1.52836   1.60266    0.018
 5433.00    1.51420   1.63009    0.018
 5434.00    1.51954   1.62866    0.018
 5435.00    1.53061   1.58542    0.018
 5436.00    1.54601   1.53354    0.018
 5437.00    1.59664   1.51344    0.018
 5438.00    1.67057   1.52150    0.018
 5439.00    1.69018   1.52314    0.018
 5440.00    1.67833   1.50546    0.018
 5441.00    1.65691   1.48817    0.018
 5442.00    1.63065   1.49442    0.018
 5443.00    1.61611   1.53037    0.018
 5444.00    1.60668   1.58597    0.018
 5445.00    1.57916   1.64352    0.018
 5446.00    1.54486   1.68709    0.018
 5447.00    1.53808   1.71058    0.017
 5448.00    1.54005   1.71711    0.017
 5449.00    1.55786   1.70930    0.017
 5450.00    1.57989   1.68166    0.018
 5451.00    1.59306   1.62731    0.018
 5452.00    1.60430   1.55567    0.018
 5453.00    1.58074   1.49968    0.018
 5454.00    1.55117   1.49329    0.018
 5455.00    1.53740   1.53628    0.018
 5456.00    1.52569   1.59302    0.018
 5457.00    1.50580   1.62904    0.018
 5458.00    1.48515   1.63438    0.017
 5459.00    1.50018   1.61351    0.017
 5460.00    1.51721   1.57159    0.017
 5461.00    1.57633   1.52106    0.017
 5462.00    1.63600   1.49084    0.017
 5463.00    1.65599   1.50690    0.017
 5464.00    1.67596   1.56050    0.017
 5465.00    1.69548   1.61310    0.017
 5466.00    1.71120   1.63386    0.017
 5467.00    1.67812   1.61998    0.017
 5468.00    1.64677   1.58677    0.017
 5469.00    1.63038   1.55485    0.017
 5470.00    1.61505   1.54342    0.017
 5471.00    1.60648   1.55755    0.018
 5472.00    1.59261   1.58251    0.018
 5473.00    1.55213   1.60192    0.017
 5474.00    1.51496   1.61231    0.017
 5475.00    1.49123   1.61446    0.017
 5476.00    1.47846   1.60747    0.017
 5477.00    1.50256   1.59505    0.017
 5478.00    1.53054   1.58250   -2.000
 5479.00    1.56957   1.56868   -2.000
 5480.00    1.60334   1.55001   -2.000
 5481.00    1.62433   1.52434   -2.000
 5482.00    1.65373   1.49114   -2.000
 5483.00    1.70073   1.46351   -2.000
 5484.00    1.64397   1.46634   -2.000
 5485.00    1.39823   1.50119   -2.000
 5486.00    1.31517   1.53410   -2.000
 5487.00    1.49105   1.53812   -2.000
 5488.00    1.62288   1.52708   -2.000
 5489.00    1.69316   1.53234   -2.000
 5490.00    1.70926   1.56333   -2.000
 5491.00    1.65876   1.60136   -2.000
 5492.00    1.59958   1.62029   -2.000
 5493.00    1.53101   1.61014   -2.000
 5494.00    1.54275   1.58644   -2.000
 5495.00    1.63129   1.57340   -2.000
 5496.00    1.69259   1.57873   -2.000
 5497.00    1.73095   1.59279   -2.000
 5498.00    1.71505   1.60388   -2.000
 5499.00    1.65888   1.60611   -2.000
 5500.00    1.60958   1.60213   -2.000
 5501.00    1.56474   1.59921   -2.000
 5502.00    1.57705   1.59733    0.017
 5503.00    1.62195   1.59187    0.017
 5504.00    1.65334   1.58914    0.017
 5505.00    1.67802   1.59859    0.017
 5506.00    1.66661   1.61050    0.017
 5507.00    1.63969   1.60535    0.017
 5508.00    1.61006   1.58403    0.017
 5509.00    1.57944   1.56639    0.017
 5510.00    1.55835   1.56208    0.017
 5511.00    1.54025   1.56063    0.017
 5512.00    1.52033   1.55183    0.017
 5513.00    1.49994   1.54380    0.017
 5514.00    1.51772   1.55115    0.017
 5515.00    1.54360   1.57032    0.017
 5516.00    1.53007   1.58148    0.017
 5517.00    1.50991   1.57167    0.017
 5518.00    1.51948   1.54530    0.017
 5519.00    1.53281   1.51854    0.017
 5520.00    1.60018   1.50774    0.017
 5521.00    1.67231   1.51791    0.017
 5522.00    1.65253   1.54255    0.017
 5523.00    1.62794   1.57392    0.017
 5524.00    1.62361   1.60772    0.017
 5525.00    1.61963   1.63796    0.017
 5526.00    1.61358   1.65605    0.017
 5527.00    1.60626   1.65948    0.017
 5528.00    1.57145   1.65507    0.017
 5529.00    1.53983   1.65001    0.017
 5530.00    1.54717   1.64409    0.017
 5531.00    1.55309   1.63128    0.017
 5532.00    1.54717   1.60615    0.017
 5533.00    1.54530   1.56991    0.017
 5534.00    1.56857   1.53505    0.017
 5535.00    1.58595   1.52234    0.017
 5536.00    1.57456   1.54249    0.017
 5537.00    1.56281   1.58057    0.017
 5538.00    1.54963   1.60956    0.017
 5539.00    1.55041   1.61671    0.017
 5540.00    1.59722   1.60780    0.017
 5541.00    1.62649   1.59507    0.020
 5542.00    1.60684   1.58907    0.048
 5543.00    1.59606   1.59375   -1.000
 5544.00    1.60644   1.60532 1593.062
 5545.00    1.62099   1.62000 1593.062
 5546.00    1.64414   1.63759   -1.000
 5547.00    1.66676   1.65378   -1.000
 5548.00    1.68846   1.65861   -1.000
 5549.00    1.68298   1.64826    0.082
 5550.00    1.63488   1.63177    0.023
 5551.00    1.60394   1.62111    0.016
 5552.00    1.59663   1.62023    0.017
 5553.00    1.57598   1.62865    0.017
 5554.00    1.53916   1.64656    0.016
 5555.00    1.50621   1.66945    0.016
 5556.00    1.47740   1.68727    0.016
 5557.00    1.46712   1.69309    0.016
 5558.00    1.47432   1.68625    0.016
 5559.00    1.47057   1.66942    0.016
 5560.00    1.45773   1.64886    0.017
 5561.00    1.47600   1.63406    0.017
 5562.00    1.51702   1.63037    0.017
 5563.00    1.54323   1.63359    0.016
 5564.00    1.55992   1.63661    0.016
 5565.00    1.56780   1.63770    0.016
 5566.00    1.57073   1.63744    0.016
 5567.00    1.56948   1.63316    0.016
 5568.00    1.56618   1.62220    0.016
 5569.00    1.55980   1.60762    0.017
 5570.00    1.55212   1.59597    0.017
 5571.00    1.54301   1.58906    0.017
 5572.00    1.53338   1.58332    0.016
 5573.00    1.53747   1.57784    0.016
 5574.00    1.54576   1.57507    0.017
 5575.00    1.53499   1.57521    0.017
 5576.00    1.51937   1.57796    0.017
 5577.00    1.57554   1.58324    0.017
 5578.00    1.64659   1.58576    0.017
 5579.00    1.61855   1.58248    0.017
 5580.00    1.57436   1.58305    0.017
 5581.00    1.56096   1.59534    0.017
 5582.00    1.55134   1.61148    0.017
 5583.00    1.56933   1.62235    0.017
 5584.00    1.58963   1.62896    0.017
 5585.00    1.53491   1.63431    0.017
 5586.00    1.47656   1.63816    0.017
 5587.00    1.44563   1.63849    0.017
 5588.00    1.41583   1.63363    0.017
 5589.00    1.42815   1.62527    0.017
 5590.00    1.43998   1.61434    0.016
 5591.00    1.44193   1.59433    0.017
 5592.00    1.44188   1.55768    0.017
 5593.00    1.41863   1.50866    0.017
 5594.00    1.40230   1.46496    0.017
 5595.00    1.44164   1.44516    0.017
 5596.00    1.47434   1.45518    0.017
 5597.00    1.46695   1.48510    0.017
 5598.00    1.46389   1.51652    0.017
 5599.00    1.48146   1.53564    0.017
 5600.00    1.50019   1.54405    0.017
 5601.00    1.52346   1.55590    0.017
 5602.00    1.54666   1.57922    0.017
 5603.00    1.56960   1.60061    0.017
 5604.00    1.57193   1.59922    0.017
 5605.00    1.51781   1.57503    0.016
 5606.00    1.48607   1.54618    0.016
 5607.00    1.50685   1.52366    0.016
 5608.00    1.52421   1.50834    0.016
 5609.00    1.53463   1.50684    0.017
 5610.00    1.55304   1.53063    0.017
 5611.00    1.58556   1.57881    0.017
 5612.00    1.60347   1.63289    0.017
 5613.00    1.59880   1.67237    0.017
 5614.00    1.57839   1.69007    0.016
 5615.00    1.53662   1.69213    0.016
 5616.00    1.49896   1.68934    0.016
 5617.00    1.46621   1.68928    0.016
 5618.00    1.45374   1.69120    0.016
 5619.00    1.46263   1.68324    0.016
 5620.00    1.47227   1.64898    0.016
 5621.00    1.48260   1.58805    0.016
 5622.00    1.48831   1.53006    0.016
 5623.00    1.49025   1.51101    0.016
 5624.00    1.51811   1.53272    0.016
 5625.00    1.56467   1.56513    0.017
 5626.00    1.54653   1.58669    0.016
 5627.00    1.48746   1.60027    0.016
 5628.00    1.48617   1.61086    0.016
 5629.00    1.51685   1.60908    0.016
 5630.00    1.53621   1.58534    0.016
 5631.00    1.55013   1.55158    0.016
 5632.00    1.56615   1.53497    0.016
 5633.00    1.58305   1.54831    0.016
 5634.00    1.55947   1.58004    0.016
 5635.00    1.52150   1.61390    0.016
 5636.00    1.48531   1.64266    0.016
 5637.00    1.44965   1.66287    0.016
 5638.00    1.46827   1.67092    0.016
 5639.00    1.50041   1.66634    0.016
 5640.00    1.49161   1.65250    0.016
 5641.00    1.47454   1.63366    0.016
 5642.00    1.48078   1.61315    0.016
 5643.00    1.49071   1.59427    0.016
 5644.00    1.51702   1.58225    0.016
 5645.00    1.54527   1.58049    0.016
 5646.00    1.51778   1.58398    0.016
 5647.00    1.48583   1.58346    0.016
 5648.00    1.48277   1.57854    0.016
 5649.00    1.48100   1.57796    0.016
 5650.00    1.50339   1.58592    0.016
 5651.00    1.52646   1.59821    0.016
 5652.00    1.56873   1.61048    0.016
 5653.00    1.60649   1.62104    0.016
 5654.00    1.56091   1.62763    0.016
 5655.00    1.51462   1.62807    0.016
 5656.00    1.46048   1.62537    0.016
 5657.00    1.41030   1.62740    0.016
 5658.00    1.39089   1.63708    0.016
 5659.00    1.38366   1.64553    0.016
 5660.00    1.44800   1.64110    0.016
 5661.00    1.49817   1.62403    0.016
 5662.00    1.48244   1.60423    0.016
 5663.00    1.47764   1.58266    0.016
 5664.00    1.51436   1.55114    0.016
 5665.00    1.53967   1.51825    0.016
 5666.00    1.52875   1.50865    0.016
 5667.00    1.52132   1.52585    0.016
 5668.00    1.52330   1.54621    0.016
 5669.00    1.51454   1.55691    0.016
 5670.00    1.48099   1.56944    0.016
 5671.00    1.46100   1.59184    0.016
 5672.00    1.46809   1.61251    0.016
 5673.00    1.49950   1.61712    0.016
 5674.00    1.57321   1.60759    0.016
 5675.00    1.62159   1.59798    0.016
 5676.00    1.63141   1.59846    0.016
 5677.00    1.62951   1.60989    0.016
 5678.00    1.61194   1.62984    0.016
 5679.00    1.59406   1.65440    0.016
 5680.00    1.57583   1.67507    0.016
 5681.00    1.55875   1.68408    0.016
 5682.00    1.54284   1.68407    0.016
 5683.00    1.51872   1.68343    0.016
 5684.00    1.48707   1.68325    0.016
 5685.00    1.47764   1.67846    0.016
 5686.00    1.48616   1.66792    0.016
 5687.00    1.50205   1.65313    0.016
 5688.00    1.52317   1.63305    0.016
 5689.00    1.52219   1.61095    0.016
 5690.00    1.50744   1.59786    0.016
 5691.00    1.51837   1.59879    0.016
 5692.00    1.54328   1.60326    0.016
 5693.00    1.55535   1.59875    0.016
 5694.00    1.56134   1.58778    0.016
 5695.00    1.53618   1.58467    0.016
 5696.00    1.49829   1.59845    0.016
 5697.00    1.51389   1.62477    0.016
 5698.00    1.54814   1.65255    0.016
 5699.00    1.54392   1.67285    0.016
 5700.00    1.52837   1.68155    0.016
 5701.00    1.53323   1.68044    0.016
 5702.00    1.54305   1.67499    0.016
 5703.00    1.52824   1.66720    0.016
 5704.00    1.50857   1.65394    0.016
 5705.00    1.51931   1.63467    0.016
 5706.00    1.53473   1.61374    0.016
 5707.00    1.53832   1.59448    0.016
 5708.00    1.54057   1.57984    0.016
 5709.00    1.52609   1.57612    0.016
 5710.00    1.51034   1.58488    0.016
 5711.00    1.50256   1.59476    0.016
 5712.00    1.49510   1.59082    0.016
 5713.00    1.52445   1.56954    0.016
 5714.00    1.55363   1.53954    0.015
 5715.00    1.56446   1.51224    0.016
 5716.00    1.57580   1.49646    0.016
 5717.00    1.59597   1.49601    0.016
 5718.00    1.61685   1.50986    0.015
 5719.00    1.64528   1.53686    0.015
 5720.00    1.66939   1.57419    0.015
 5721.00    1.66112   1.61215    0.016
 5722.00    1.64868   1.64042    0.016
 5723.00    1.61238   1.65664    0.016
 5724.00    1.59042   1.66482    0.016
 5725.00    1.63359   1.67092    0.016
 5726.00    1.66864   1.67947    0.016
 5727.00    1.67346   1.69132    0.016
 5728.00    1.67954   1.70470    0.016
 5729.00    1.68955   1.71664    0.016
 5730.00    1.69180   1.72301    0.016
 5731.00    1.67350   1.72003    0.016
 5732.00    1.65316   1.70649    0.016
 5733.00    1.62818   1.68629    0.016
 5734.00    1.61385   1.67006    0.016
 5735.00    1.62043   1.66703    0.016
 5736.00    1.63311   1.67231    0.016
 5737.00    1.65624   1.67213    0.016
 5738.00    1.67523   1.66437    0.016
 5739.00    1.68801   1.66199    0.016
 5740.00    1.68674   1.67344    0.000
 5741.00    1.66695   1.69100    0.000
 5742.00    1.63225   1.70175    0.000
 5743.00    1.58025   1.70148    0.000
 5744.00    1.53937   1.69534    0.000
 5745.00    1.50989   1.68996    0.000
 5746.00    1.50556   1.68763    0.000
 5747.00    1.52394   1.68645    0.000
 5748.00    1.55232   1.68385    0.000
 5749.00    1.58867   1.68056    0.000
 5750.00    1.63536   1.68158    0.000
 5751.00    1.68931   1.69026    0.000
 5752.00    1.72485   1.70056    0.000
 5753.00    1.74908   1.70020    0.000
 5754.00    1.72868   1.68570    0.000
 5755.00    1.68432   1.67012    0.000
 5756.00    1.63517   1.66831    0.000
 5757.00    1.58379   1.67633    0.000
 5758.00    1.59965   1.67471    0.000
 5759.00    1.64249   1.65258    0.000
 5760.00    1.64219   1.62250    0.000
 5761.00    1.62713   1.60931    0.000
 5762.00    1.59443   1.62601    0.000
 5763.00    1.55665   1.66202    0.000
 5764.00    1.54871   1.69438    0.000
 5765.00    1.54788   1.70629    0.000
 5766.00    1.55843   1.69417    0.000
 5767.00    1.57117   1.66485    0.000
 5768.00    1.56724   1.63163    0.000
 5769.00    1.56084   1.61107    0.000
 5770.00    1.58238   1.61630    0.000
 5771.00    1.60697   1.64632    0.000
 5772.00    1.62160   1.68434    0.000
 5773.00    1.63553   1.71249    0.000
 5774.00    1.64629   1.72511    0.000
 5775.00    1.65693   1.72612    0.000
 5776.00    1.66707   1.72045    0.000
 5777.00    1.67671   1.71103    0.000
 5778.00    1.66886   1.69976    0.000
 5779.00    1.66157   1.68894    0.000
 5780.00    1.66325   1.68104    0.000
 5781.00    1.66192   1.67771    0.000
 5782.00    1.63008   1.67993    0.000
 5783.00    1.60266   1.68665    0.000
 5784.00    1.60727   1.69166    0.000
 5785.00    1.61140   1.68489    0.000
 5786.00    1.61286   1.65893    0.000
 5787.00    1.61214   1.61690    0.000
 5788.00    1.60175   1.57459    0.000
 5789.00    1.58924   1.54883    0.000
 5790.00    1.56898   1.54150    0.000
 5791.00    1.54928   1.54266   -2.000
 5792.00    1.53128   1.54908   -2.000
 5793.00    1.52500   1.56772   -2.000
 5794.00    1.54919   1.59935   -2.000
 5795.00    1.58497   1.63133   -2.000
 5796.00    1.64663   1.64948   -2.000
 5797.00    1.68185   1.65154   -2.000
 5798.00    1.66593   1.64849   -2.000
 5799.00    1.64567   1.65363   -2.000
 5800.00    1.61813   1.67015   -2.000
 5801.00    1.60729   1.68993   -2.000
 5802.00    1.62114   1.70110   -2.000
 5803.00    1.62406   1.69647   -2.000
 5804.00    1.61277   1.68160   -2.000
 5805.00    1.61288   1.67408   -2.000
 5806.00    1.62605   1.68690   -2.000
 5807.00    1.63138   1.71417   -2.000
 5808.00    1.62879   1.73801   -2.000
 5809.00    1.62836   1.74474   -2.000
 5810.00    1.62985   1.73203   -2.000
 5811.00    1.64163   1.70822    0.000
 5812.00    1.66148   1.68715    0.000
 5813.00    1.66451   1.67848    0.000
 5814.00    1.65593   1.68177    0.000
 5815.00    1.64991   1.69077    0.000
 5816.00    1.64544   1.70079    0.000
 5817.00    1.65971   1.71018    0.000
 5818.00    1.68387   1.71724    0.000
 5819.00    1.67084   1.71915    0.000
 5820.00    1.64077   1.71335    0.000
 5821.00    1.63766   1.69922    0.000
 5822.00    1.64519   1.68107    0.000
 5823.00    1.68764   1.66979    0.000
 5824.00    1.74182   1.67584    0.000
 5825.00    1.74096   1.69803    0.000
 5826.00    1.72456   1.72358    0.000
 5827.00    1.67500   1.74021    0.000
 5828.00    1.61772   1.74458    0.000
 5829.00    1.61015   1.74066    0.000
 5830.00    1.61186   1.73489    0.000
 5831.00    1.61337   1.73233    0.000
 5832.00    1.61485   1.73375    0.000
 5833.00    1.60744   1.73642    0.000
 5834.00    1.59911   1.73844    0.000
 5835.00    1.60302   1.74054    0.000
 5836.00    1.60775   1.74322    0.000
 5837.00    1.62548   1.74467    0.000
 5838.00    1.64365   1.74302    0.000
 5839.00    1.63314   1.73810    0.000
 5840.00    1.62319   1.73051    0.000
 5841.00    1.63149   1.72204    0.000
 5842.00    1.63811   1.71657    0.000
 5843.00    1.61947   1.71606    0.000
 5844.00    1.60300   1.71730    0.000
 5845.00    1.60764   1.71789    0.000
 5846.00    1.60873   1.72149    0.000
 5847.00    1.58497   1.73181    0.000
 5848.00    1.56462   1.74551    0.000
 5849.00    1.56268   1.75533    0.000
 5850.00    1.56298   1.75669    0.000
 5851.00    1.57297   1.74915    0.000
 5852.00    1.58089   1.73468    0.000
 5853.00    1.58144   1.71696    0.000
 5854.00    1.57162   1.70143    0.000
 5855.00    1.53071   1.69303    0.000
 5856.00    1.49311   1.69185    0.000
 5857.00    1.46391   1.69139    0.000
 5858.00    1.44323   1.68327    0.000
 5859.00    1.44124   1.66567    0.000
 5860.00    1.44570   1.64649    0.000
 5861.00    1.46244   1.63489    0.000
 5862.00    1.48196   1.62874    0.000
 5863.00    1.50610   1.61720    0.000
 5864.00    1.53499   1.59851    0.000
 5865.00    1.57082   1.58674    0.000
 5866.00    1.58374   1.59487    0.000
 5867.00    1.56730   1.61838    0.000
 5868.00    1.55562   1.64132    0.000
 5869.00    1.54933   1.65401    0.000
 5870.00    1.56943   1.65938    0.000
 5871.00    1.61580   1.66318    0.000
 5872.00    1.63706   1.66473    0.000
 5873.00    1.63629   1.66222    0.000
 5874.00    1.60497   1.66130    0.000
 5875.00    1.55003   1.66986    0.000
 5876.00    1.53396   1.68677    0.000
 5877.00    1.54433   1.70227    0.000
 5878.00    1.55372   1.70830    0.000
 5879.00    1.56251   1.70516    0.000
 5880.00    1.53174   1.69941    0.000
 5881.00    1.48040   1.69673    0.000
 5882.00    1.46889   1.69637    0.000
 5883.00    1.47533   1.69322    0.000
 5884.00    1.47770   1.68416    0.000
 5885.00    1.47848   1.67008    0.000
 5886.00    1.44826   1.65412    0.000
 5887.00    1.40782   1.64120    0.000
 5888.00    1.35509   1.63579    0.000
 5889.00    1.29898   1.63653    0.000
 5890.00    1.27821   1.63700    0.000
 5891.00    1.26549   1.63366    0.000
 5892.00    1.27218   1.62613    0.000
 5893.00    1.28241   1.60611    0.000
 5894.00    1.30089   1.55329    0.000
 5895.00    1.32052   1.45352    0.000
 5896.00    1.33365   1.32767    0.000
 5897.00    1.34612   1.23372    0.000
 5898.00    1.34774   1.22096    0.000
 5899.00    1.34867   1.27851    0.000
 5900.00    1.35858   1.34384    0.000
 5901.00    1.36895   1.36143    0.015
 5902.00    1.45099   1.32930    0.015
 5903.00    1.53113   1.29629    0.015
 5904.00    1.55746   1.31373    0.015
 5905.00    1.57951   1.38535    0.015
 5906.00    1.54054   1.47311    0.015
 5907.00    1.50224   1.54387    0.015
 5908.00    1.47025   1.59071    0.015
 5909.00    1.44431   1.61925    0.015
 5910.00    1.45955   1.63453    0.015
 5911.00    1.47717   1.63995    0.015
 5912.00    1.50734   1.63952    0.015
 5913.00    1.52405   1.63893    0.015
 5914.00    1.48382   1.64304    0.015
 5915.00    1.45385   1.65160    0.015
 5916.00    1.45976   1.66053    0.015
 5917.00    1.46916   1.66712    0.015
 5918.00    1.48885   1.66990    0.015
 5919.00    1.50497   1.66471    0.015
 5920.00    1.51216   1.64788    0.015
 5921.00    1.51237   1.62435    0.015
 5922.00    1.49749   1.60684    0.015
 5923.00    1.49729   1.60482    0.015
 5924.00    1.52462   1.61730    0.014
 5925.00    1.55445   1.63614    0.015
 5926.00    1.58838   1.65312    0.015
 5927.00    1.61502   1.66343    0.015
 5928.00    1.63120   1.66601    0.015
 5929.00    1.62311   1.66382    0.015
 5930.00    1.58437   1.66274    0.015
 5931.00    1.54205   1.66666    0.015
 5932.00    1.49576   1.67384    0.015
 5933.00    1.47075   1.67856    0.015
 5934.00    1.46664   1.67530    0.015
 5935.00    1.48363   1.66280    0.015
 5936.00    1.51890   1.64675    0.015
 5937.00    1.54492   1.63765    0.015
 5938.00    1.56390   1.64210    0.015
 5939.00    1.58045   1.65440    0.015
 5940.00    1.59539   1.66099    0.015
 5941.00    1.57063   1.65642    0.015
 5942.00    1.52257   1.65001    0.015
 5943.00    1.49693   1.65325    0.015
 5944.00    1.48276   1.66625    0.015
 5945.00    1.49891   1.67955    0.015
 5946.00    1.52850   1.68420    0.015
 5947.00    1.52958   1.67715    0.015
 5948.00    1.51981   1.66313    0.015
 5949.00    1.51692   1.65272    0.015
 5950.00    1.51626   1.65423    0.015
 5951.00    1.50055   1.66664    0.015
 5952.00    1.48076   1.68145    0.014
 5953.00    1.46473   1.68885    0.014
 5954.00    1.44954   1.68293    0.014
 5955.00    1.47320   1.66644    0.014
 5956.00    1.50373   1.65080    0.015
 5957.00    1.52675   1.64567    0.015
 5958.00    1.54875   1.64816    0.015
 5959.00    1.53113   1.64842    0.014
 5960.00    1.50972   1.64489    0.014
 5961.00    1.48000   1.64442    0.014
 5962.00    1.44979   1.64798    0.014
 5963.00    1.46418   1.64862    0.014
 5964.00    1.47968   1.64476    0.014
 5965.00    1.49136   1.64461    0.015
 5966.00    1.50322   1.65506    0.015
 5967.00    1.51968   1.67361    0.015
 5968.00    1.53606   1.69221    0.015
 5969.00    1.55122   1.70424    0.015
 5970.00    1.56198   1.70730    0.015
 5971.00    1.53336   1.70257    0.015
 5972.00    1.50893   1.69395    0.015
 5973.00    1.51202   1.68757    0.015
 5974.00    1.51802   1.68877    0.015
 5975.00    1.53891   1.69755    0.015
 5976.00    1.55815   1.70900    0.015
 5977.00    1.57059   1.71859    0.014
 5978.00    1.58072   1.72458    0.014
 5979.00    1.58297   1.72594    0.015
 5980.00    1.58057   1.72106    0.015
 5981.00    1.56471   1.70842    0.015
 5982.00    1.54830   1.68823    0.014
 5983.00    1.53051   1.66523    0.014
 5984.00    1.51725   1.64833    0.014
 5985.00    1.51360   1.64493    0.014
 5986.00    1.52817   1.65522    0.014
 5987.00    1.57638   1.67147    0.014
 5988.00    1.61259   1.68170    0.014
 5989.00    1.62944   1.67619    0.015
 5990.00    1.62690   1.65500    0.015
 5991.00    1.59692   1.63039    0.014
 5992.00    1.56948   1.61858    0.014
 5993.00    1.54520   1.62585    0.014
 5994.00    1.52540   1.64416    0.014
 5995.00    1.51052   1.66218    0.014
 5996.00    1.50215   1.67478    0.014
 5997.00    1.50009   1.68088    0.015
 5998.00    1.49570   1.68172    0.015
 5999.00    1.48931   1.68313    0.015
 6000.00    1.46619   1.69098    0.015
 6001.00    1.43049   1.70201    0.015
 6002.00    1.41470   1.70553    0.015
 6003.00    1.41206   1.69554    0.015
 6004.00    1.42667   1.67718    0.015
 6005.00    1.45127   1.66198    0.015
 6006.00    1.46611   1.65814    0.015
 6007.00    1.47605   1.66377    0.015
 6008.00    1.48252   1.66942    0.015
 6009.00    1.48747   1.66826    0.015
 6010.00    1.49275   1.66285    0.015
 6011.00    1.49815   1.65991    0.015
 6012.00    1.48827   1.65872    0.015
 6013.00    1.47354   1.65075    0.015
 6014.00    1.46454   1.63382    0.015
 6015.00    1.45707   1.61930    0.015
 6016.00    1.43784   1.62169    0.015
 6017.00    1.41607   1.64165    0.015
 6018.00    1.41699   1.66191    0.015
 6019.00    1.42181   1.66572    0.015
 6020.00    1.43058   1.65518    0.015
 6021.00    1.43987   1.64453    0.015
 6022.00    1.44695   1.64154    0.014
 6023.00    1.45382   1.64203    0.014
 6024.00    1.48168   1.64111    0.014
 6025.00    1.51071   1.63926    0.014
 6026.00    1.51223   1.63594    0.015
 6027.00    1.51310   1.62950    0.015
 6028.00    1.50886   1.62403    0.015
 6029.00    1.50523   1.62559    0.015
 6030.00    1.51544   1.63424    0.015
 6031.00    1.52711   1.64626    0.015
 6032.00    1.55731   1.65929    0.015
 6033.00    1.58469   1.67184    0.015
 6034.00    1.58768   1.68218    0.015
 6035.00    1.58726   1.69149    0.015
 6036.00    1.56510   1.70160    0.015
 6037.00    1.54474   1.71030    0.014
 6038.00    1.53340   1.71586    0.014
 6039.00    1.52381   1.72054    0.015
 6040.00    1.52129   1.72596    0.014
 6041.00    1.52112   1.73036    0.014
 6042.00    1.52882   1.73228    0.014
 6043.00    1.53624   1.73264    0.014
 6044.00    1.54283   1.73234    0.014
 6045.00    1.53790   1.73032    0.014
 6046.00    1.50504   1.72527    0.014
 6047.00    1.47831   1.71820    0.014
 6048.00    1.46439   1.71272    0.014
 6049.00    1.47206   1.71233    0.014
 6050.00    1.51894   1.71836    0.014
 6051.00    1.55414   1.72877    0.014
 6052.00    1.57080   1.73870    0.014
 6053.00    1.57586   1.74491    0.014
 6054.00    1.56476   1.74750    0.014
 6055.00    1.55905   1.74770    0.014
 6056.00    1.55996   1.74701    0.014
 6057.00    1.55325   1.74686    0.014
 6058.00    1.53829   1.74591    0.014
 6059.00    1.51450   1.74031    0.014
 6060.00    1.48228   1.72891    0.015
 6061.00    1.45974   1.71493    0.015
 6062.00    1.44535   1.70215    0.014
 6063.00    1.45184   1.69291    0.014
 6064.00    1.47381   1.69012    0.015
 6065.00    1.49112   1.69605    0.015
 6066.00    1.50540   1.70835    0.015
 6067.00    1.51750   1.72022    0.015
 6068.00    1.52835   1.72462    0.014
 6069.00    1.54182   1.71783    0.014
 6070.00    1.55659   1.70056    0.014
 6071.00    1.55604   1.67780    0.014
 6072.00    1.54893   1.65950    0.014
 6073.00    1.53751   1.65894    0.014
 6074.00    1.52451   1.68132    0.014
 6075.00    1.52324   1.71495    0.014
 6076.00    1.52563   1.74267    0.014
 6077.00    1.53545   1.75764    0.014
 6078.00    1.54720   1.76372    0.014
 6079.00    1.55725   1.76661    0.014
 6080.00    1.56695   1.76827    0.014
 6081.00    1.57318   1.76759    0.014
 6082.00    1.57882   1.76251    0.014
 6083.00    1.55869   1.75110    0.014
 6084.00    1.53531   1.73304    0.014
 6085.00    1.49250   1.71156    0.014
 6086.00    1.44800   1.69373    0.015
 6087.00    1.43488   1.68408    0.014
 6088.00    1.42338   1.67891    0.014
 6089.00    1.47406   1.67379    0.014
 6090.00    1.52561   1.67091    0.015
 6091.00    1.55732   1.67253    0.015
 6092.00    1.58602   1.67622    0.015
 6093.00    1.55066   1.68044    0.015
 6094.00    1.51777   1.68602    0.014
 6095.00    1.51474   1.69047    0.014
 6096.00    1.51265   1.68788    0.014
 6097.00    1.51844   1.67740    0.015
 6098.00    1.52281   1.66675    0.015
 6099.00    1.51846   1.66356    0.014
 6100.00    1.50811   1.66940    0.014
 6101.00    1.46856   1.68258    0.014
 6102.00    1.43413   1.69858    0.014
 6103.00    1.41999   1.70987    0.014
 6104.00    1.41406   1.71335    0.014
 6105.00    1.43514   1.71377    0.014
 6106.00    1.45450   1.71464    0.014
 6107.00    1.46912   1.70931    0.014
 6108.00    1.48207   1.68543    0.014
 6109.00    1.49107   1.64315    0.014
 6110.00    1.49940   1.60708    0.014
 6111.00    1.50637   1.60491    0.014
 6112.00    1.50829   1.63469    0.014
 6113.00    1.50118   1.67033    0.014
 6114.00    1.48585   1.69170    0.014
 6115.00    1.45766   1.69950    0.014
 6116.00    1.44014   1.70422    0.014
 6117.00    1.43731   1.70901    0.014
 6118.00    1.44117   1.71066    0.014
 6119.00    1.45314   1.71113    0.014
 6120.00    1.45668   1.71601    0.014
 6121.00    1.45122   1.72428    0.014
 6122.00    1.44611   1.72810    0.014
 6123.00    1.44133   1.72347    0.014
 6124.00    1.44328   1.71537    0.014
 6125.00    1.45082   1.70773    0.014
 6126.00    1.45340   1.69527    0.014
 6127.00    1.45236   1.67120    0.014
 6128.00    1.44637   1.63817    0.014
 6129.00    1.43719   1.61124    0.014
 6130.00    1.42294   1.60853    0.014
 6131.00    1.40583   1.63147    0.014
 6132.00    1.39985   1.66092    0.014
 6133.00    1.39929   1.67798    0.014
 6134.00    1.40605   1.67953    0.014
 6135.00    1.41589   1.67501    0.014
 6136.00    1.42244   1.67572    0.014
 6137.00    1.42781   1.68625    0.014
 6138.00    1.42827   1.70226    0.014
 6139.00    1.42723   1.71498    0.014
 6140.00    1.43898   1.71583    0.014
 6141.00    1.45399   1.69682    0.014
 6142.00    1.45821   1.65308    0.014
 6143.00    1.46019   1.59221    0.014
 6144.00    1.44144   1.54084    0.014
 6145.00    1.41933   1.53049    0.014
 6146.00    1.43342   1.56584    0.014
 6147.00    1.45192   1.61655    0.014
 6148.00    1.47529   1.64940    0.014
 6149.00    1.49907   1.66142    0.015
 6150.00    1.49359   1.67207    0.014
 6151.00    1.48672   1.69206    0.014
 6152.00    1.47145   1.71322    0.014
 6153.00    1.45597   1.72333    0.014
 6154.00    1.43539   1.71835    0.014
 6155.00    1.41570   1.70235    0.014
 6156.00    1.41332   1.68334    0.014
 6157.00    1.41230   1.67005    0.014
 6158.00    1.42705   1.66805    0.015
 6159.00    1.43957   1.67549    0.015
 6160.00    1.43432   1.68330    0.015
 6161.00    1.42613   1.68291    0.015
 6162.00    1.40015   1.67516    0.014
 6163.00    1.37767   1.66761    0.014
 6164.00    1.37182   1.66388    0.014
 6165.00    1.36861   1.65917    0.014
 6166.00    1.37562   1.64291    0.014
 6167.00    1.38188   1.60447    0.014
 6168.00    1.38573   1.54486    0.014
 6169.00    1.39255   1.48551    0.014
 6170.00    1.40749   1.45595    0.014
 6171.00    1.41355   1.46868    0.014
 6172.00    1.39883   1.50949    0.014
 6173.00    1.39312   1.55301    0.014
 6174.00    1.40567   1.57997    0.014
 6175.00    1.41409   1.58132    0.014
 6176.00    1.41521   1.56185    0.014
 6177.00    1.40253   1.54264    0.014
 6178.00    1.36857   1.54527    0.014
 6179.00    1.34862   1.57021    0.014
 6180.00    1.34764   1.59973    0.014
 6181.00    1.35967   1.61929    0.014
 6182.00    1.38719   1.62729    0.014
 6183.00    1.40574   1.62931    0.014
 6184.00    1.41483   1.63164    0.014
 6185.00    1.41423   1.63781    0.014
 6186.00    1.40461   1.64640    0.014
 6187.00    1.40182   1.65442    0.014
 6188.00    1.40461   1.66173    0.014
 6189.00    1.40416   1.66920    0.014
 6190.00    1.40138   1.67524    0.014
 6191.00    1.40272   1.67616    0.014
 6192.00    1.40665   1.66885    0.014
 6193.00    1.41138   1.65324    0.014
 6194.00    1.41656   1.63341    0.014
 6195.00    1.38040   1.61469    0.014
 6196.00    1.32439   1.59747   -2.000
 6197.00    1.34704   1.57675   -2.000
 6198.00    1.40229   1.55386   -2.000
 6199.00    1.50957   1.54299   -2.000
 6200.00    1.63529   1.55674   -2.000
 6201.00    1.65177   1.59039   -2.000
 6202.00    1.63557   1.62681   -2.000
 6203.00    1.52246   1.65265   -2.000
 6204.00    1.38527   1.66345   -2.000
 6205.00    1.36902   1.65844   -2.000
 6206.00    1.37712   1.64089   -2.000
 6207.00    1.40163   1.62254   -2.000
 6208.00    1.42873   1.61783    0.015
 6209.00    1.42230   1.63073    0.015
 6210.00    1.41194   1.65152    0.014
 6211.00    1.40505   1.66786    0.014
 6212.00    1.39844   1.67573    0.014
 6213.00    1.38255   1.67856    0.014
 6214.00    1.36625   1.68001    0.014
 6215.00    1.35915   1.68029    0.014
 6216.00    1.35199   1.67750    0.014
 6217.00    1.33700   1.66983    0.014
 6218.00    1.32233   1.65579    0.013
 6219.00    1.31373   1.63321    0.014
 6220.00    1.30844   1.60200    0.014
 6221.00    1.33959   1.56846    0.014
 6222.00    1.37132   1.54409    0.014
 6223.00    1.40751   1.53798    0.014
 6224.00    1.44023   1.54810    0.014
 6225.00    1.45264   1.56154    0.014
 6226.00    1.46262   1.56647    0.014
 6227.00    1.46125   1.56323    0.014
 6228.00    1.45760   1.56188    0.014
 6229.00    1.44531   1.56936    0.014
 6230.00    1.43371   1.58231    0.015
 6231.00    1.42429   1.59356    0.014
 6232.00    1.41229   1.60071    0.014
 6233.00    1.39338   1.60549    0.014
 6234.00    1.38201   1.60744    0.014
 6235.00    1.38799   1.60084    0.014
 6236.00    1.39220   1.57941    0.014
 6237.00    1.39287   1.54616    0.014
 6238.00    1.38472   1.51643    0.014
 6239.00    1.36125   1.50774    0.014
 6240.00    1.34641   1.52672    0.014
 6241.00    1.34466   1.56478    0.014
 6242.00    1.34441   1.60438    0.014
 6243.00    1.34615   1.62942    0.014
 6244.00    1.34253   1.63257    0.014
 6245.00    1.33261   1.61682    0.014
 6246.00    1.33260   1.59219    0.014
 6247.00    1.34287   1.56993    0.014
 6248.00    1.34788   1.55568    0.014
 6249.00    1.34808   1.54678    0.014
 6250.00    1.33733   1.53819    0.014
 6251.00    1.31777   1.52968    0.014
 6252.00    1.31947   1.52586    0.014
 6253.00    1.33627   1.53191    0.014
 6254.00    1.33083   1.54941    0.014
 6255.00    1.31154   1.57452    0.014
 6256.00    1.28395   1.59828    0.014
 6257.00    1.25185   1.60936    0.014
 6258.00    1.26284   1.60057    0.014
 6259.00    1.29420   1.57515    0.015
 6260.00    1.38520   1.54550    0.015
 6261.00    1.50049   1.52390    0.017
 6262.00    1.55325   1.51308    0.017
 6263.00    1.58425   1.50612    0.018
 6264.00    1.51835   1.49628    0.017
 6265.00    1.42403   1.48680    0.017
 6266.00    1.35521   1.48842    0.016
 6267.00    1.29258   1.50760    0.015
 6268.00    1.33245   1.54030    0.015
 6269.00    1.39244   1.57604    0.014
 6270.00    1.45029   1.60393    0.014
 6271.00    1.50780   1.61690    0.014
 6272.00    1.49993   1.61567    0.014
 6273.00    1.48468   1.60909    0.014
 6274.00    1.44840   1.60666    0.014
 6275.00    1.41052   1.60944    0.014
 6276.00    1.41822   1.61188    0.014
 6277.00    1.42774   1.61161    0.014
 6278.00    1.42295   1.61275    0.014
 6279.00    1.41761   1.61888    0.014
 6280.00    1.39429   1.62788    0.000
 6281.00    1.37247   1.63510    0.000
 6282.00    1.37635   1.63845    0.000
 6283.00    1.38155   1.63890    0.000
 6284.00    1.40063   1.63737    0.000
 6285.00    1.41665   1.63233    0.000
 6286.00    1.40975   1.62159    0.000
 6287.00    1.40302   1.60701    0.000
 6288.00    1.39725   1.59555    0.000
 6289.00    1.39405   1.59468    0.000
 6290.00    1.40248   1.60574    0.000
 6291.00    1.40971   1.62235    0.000
 6292.00    1.41250   1.63710    0.000
 6293.00    1.41454   1.64843    0.000
 6294.00    1.41425   1.65924    0.000
 6295.00    1.41192   1.67073    0.000
 6296.00    1.40425   1.67868    0.000
 6297.00    1.40041   1.67743    0.000
 6298.00    1.40525   1.66659    0.000
 6299.00    1.41065   1.65216    0.000
 6300.00    1.41717   1.64168    0.000
 6301.00    1.41893   1.63714    0.000
 6302.00    1.41255   1.63321    0.000
 6303.00    1.41079   1.62358    0.000
 6304.00    1.41594   1.60869    0.000
 6305.00    1.41920   1.59610    0.000
 6306.00    1.41997   1.59147    0.000
 6307.00    1.40874   1.59104    0.000
 6308.00    1.38361   1.58754    0.000
 6309.00    1.37126   1.58152    0.000
 6310.00    1.37197   1.58125    0.000
 6311.00    1.38267   1.59198    0.000
 6312.00    1.40236   1.61015    0.000
 6313.00    1.38976   1.62961    0.000
 6314.00    1.35150   1.64808    0.000
 6315.00    1.32551   1.66409    0.000
 6316.00    1.30810   1.67247    0.000
 6317.00    1.30418   1.66851    0.000
 6318.00    1.30852   1.65512    0.000
 6319.00    1.31351   1.64043    0.000
 6320.00    1.31883   1.62905    0.000
 6321.00    1.35043   1.61899    0.013
 6322.00    1.39423   1.60695    0.013
 6323.00    1.42536   1.59320    0.013
 6324.00    1.45141   1.58063    0.013
 6325.00    1.45154   1.57167    0.014
 6326.00    1.44281   1.56895    0.014
 6327.00    1.43867   1.57656    0.014
 6328.00    1.43584   1.59425    0.013
 6329.00    1.42816   1.61431    0.013
 6330.00    1.41932   1.63080    0.013
 6331.00    1.42775   1.64489    0.014
 6332.00    1.43948   1.65813    0.014
 6333.00    1.44239   1.66803    0.014
 6334.00    1.44400   1.67243    0.014
 6335.00    1.41654   1.67314    0.014
 6336.00    1.38592   1.67278    0.014
 6337.00    1.38550   1.67244    0.014
 6338.00    1.38723   1.67263    0.013
 6339.00    1.38452   1.67415    0.013
 6340.00    1.38164   1.67472    0.014
 6341.00    1.35485   1.66609    0.014
 6342.00    1.32870   1.64306    0.014
 6343.00    1.32805   1.61361    0.013
 6344.00    1.32801   1.59429    0.013
 6345.00    1.33781   1.59549    0.013
 6346.00    1.34716   1.61276    0.013
 6347.00    1.35192   1.63380    0.013
 6348.00    1.36032   1.64912    0.013
 6349.00    1.39494   1.65318    0.014
 6350.00    1.42673   1.64393    0.014
 6351.00    1.44289   1.62748    0.014
 6352.00    1.45365   1.61620    0.014
 6353.00    1.44057   1.61817    0.014
 6354.00    1.42393   1.63139    0.014
 6355.00    1.39433   1.64794    0.014
 6356.00    1.36664   1.66267    0.014
 6357.00    1.34474   1.67415    0.014
 6358.00    1.32823   1.68093    0.014
 6359.00    1.32566   1.68135    0.014
 6360.00    1.31958   1.67405    0.014
 6361.00    1.30569   1.65918    0.014
 6362.00    1.30282   1.64092    0.014
 6363.00    1.32123   1.62550    0.014
 6364.00    1.34198   1.61445    0.014
 6365.00    1.36667   1.60258    0.014
 6366.00    1.38832   1.58549    0.014
 6367.00    1.40547   1.56671    0.014
 6368.00    1.41659   1.55251    0.014
 6369.00    1.41991   1.54458    0.014
 6370.00    1.42486   1.54328    0.014
 6371.00    1.43169   1.55156    0.014
 6372.00    1.43480   1.57036    0.014
 6373.00    1.43418   1.59541    0.014
 6374.00    1.43294   1.62101    0.013
 6375.00    1.43117   1.64301    0.013
 6376.00    1.41183   1.65844    0.013
 6377.00    1.37874   1.66629    0.013
 6378.00    1.35114   1.67019    0.013
 6379.00    1.32732   1.67659    0.013
 6380.00    1.32703   1.68752    0.014
 6381.00    1.34095   1.69827    0.014
 6382.00    1.36280   1.70352    0.014
 6383.00    1.38882   1.70257    0.013
 6384.00    1.42132   1.69723    0.014
 6385.00    1.45677   1.68804    0.014
 6386.00    1.46711   1.67589    0.014
 6387.00    1.46756   1.66512    0.014
 6388.00    1.43965   1.66059    0.014
 6389.00    1.40223   1.66272    0.014
 6390.00    1.37637   1.66796    0.014
 6391.00    1.35375   1.67229    0.013
 6392.00    1.34530   1.67469    0.013
 6393.00    1.34015   1.67807    0.014
 6394.00    1.35162   1.68451    0.014
 6395.00    1.36620   1.69158    0.014
 6396.00    1.37892   1.69560    0.014
 6397.00    1.39137   1.69454    0.014
 6398.00    1.37739   1.68574    0.014
 6399.00    1.36066   1.66623    0.014
 6400.00    1.36481   1.63933    0.014
 6401.00    1.37037   1.61845    0.014
 6402.00    1.37723   1.61880    0.014
 6403.00    1.38414   1.64104    0.014
 6404.00    1.36708   1.66714    0.014
 6405.00    1.35049   1.67612    0.014
 6406.00    1.34863   1.66072    0.014
 6407.00    1.34816   1.63230    0.013
 6408.00    1.36846   1.61474    0.014
 6409.00    1.38670   1.62603    0.014
 6410.00    1.38509   1.65914    0.014
 6411.00    1.38169   1.69064    0.014
 6412.00    1.36584   1.70479    0.013
 6413.00    1.35451   1.70023    0.013
 6414.00    1.36749   1.68351    0.013
 6415.00    1.38088   1.66472    0.013
 6416.00    1.39601   1.65349    0.013
 6417.00    1.40454   1.65215    0.013
 6418.00    1.38957   1.65308    0.014
 6419.00    1.36666   1.64987    0.014
 6420.00    1.32003   1.64732    0.013
 6421.00    1.28706   1.65163    0.013
 6422.00    1.28886   1.66104    0.013
 6423.00    1.29747   1.67088    0.013
 6424.00    1.32101   1.67724    0.013
 6425.00    1.33742   1.67547    0.013
 6426.00    1.34027   1.66278    0.013
 6427.00    1.33975   1.64254    0.014
 6428.00    1.33365   1.62554    0.014
 6429.00    1.32974   1.62505    0.014
 6430.00    1.32902   1.64520    0.014
 6431.00    1.33244   1.67489    0.014
 6432.00    1.34116   1.69854    0.014
 6433.00    1.34803   1.71137    0.014
 6434.00    1.35281   1.71764    0.014
 6435.00    1.35285   1.71823    0.014
 6436.00    1.34818   1.70772    0.014
 6437.00    1.34788   1.68323    0.013
 6438.00    1.35139   1.65310    0.013
 6439.00    1.35374   1.63455    0.013
 6440.00    1.35521   1.63900    0.014
 6441.00    1.36152   1.66071    0.014
 6442.00    1.37114   1.68471    0.013
 6443.00    1.36322   1.69863    0.013
 6444.00    1.34488   1.69634    0.013
 6445.00    1.32358   1.67876    0.013
 6446.00    1.30073   1.65592    0.013
 6447.00    1.30891   1.64578    0.013
 6448.00    1.33104   1.66016    0.014
 6449.00    1.36025   1.69062    0.014
 6450.00    1.39219   1.71895    0.014
 6451.00    1.38476   1.73611    0.014
 6452.00    1.36439   1.74379    0.014
 6453.00    1.35491   1.74531    0.014
 6454.00    1.34842   1.73772    0.013
 6455.00    1.37138   1.71312    0.013
 6456.00    1.40101   1.66936    0.014
 6457.00    1.40363   1.62012    0.014
 6458.00    1.40134   1.59210    0.014
 6459.00    1.38605   1.60127    0.014
 6460.00    1.36894   1.63462    0.014
 6461.00    1.37077   1.66568    0.014
 6462.00    1.37449   1.67819    0.014
 6463.00    1.36863   1.67511    0.013
 6464.00    1.36216   1.67321    0.013
 6465.00    1.36764   1.68522    0.013
 6466.00    1.37351   1.70646    0.013
 6467.00    1.39073   1.72063    0.013
 6468.00    1.40801   1.71408    0.013
 6469.00    1.42682   1.68547    0.014
 6470.00    1.44468   1.64992    0.014
 6471.00    1.44918   1.63238    0.014
 6472.00    1.45178   1.64413    0.014
 6473.00    1.43678   1.67289    0.014
 6474.00    1.42386   1.70049    0.014
 6475.00    1.42504   1.71640    0.014
 6476.00    1.42689   1.71809    0.014
 6477.00    1.43226   1.70882    0.014
 6478.00    1.43630   1.69593    0.014
 6479.00    1.43473   1.68673    0.014
 6480.00    1.43078   1.68571    0.014
 6481.00    1.41854   1.69056    0.014
 6482.00    1.40544   1.69403    0.014
 6483.00    1.38981   1.69460    0.014
 6484.00    1.37818   1.69714    0.014
 6485.00    1.37655   1.70284    0.013
 6486.00    1.37654   1.70618    0.013
 6487.00    1.38000   1.70149    0.013
 6488.00    1.38390   1.68601    0.013
 6489.00    1.38862   1.66245    0.013
 6490.00    1.37633   1.64176    0.013
 6491.00    1.33624   1.63620    0.013
 6492.00    1.29222   1.64748    0.013
 6493.00    1.24259   1.66663    0.013
 6494.00    1.21466   1.68370    0.013
 6495.00    1.21410   1.69349    0.013
 6496.00    1.22782   1.69427    0.013
 6497.00    1.25740   1.68544    0.013
 6498.00    1.29107   1.66737    0.013
 6499.00    1.32873   1.63991    0.014
 6500.00    1.35043   1.60021    0.014
 6501.00    1.35833   1.54722    0.014
 6502.00    1.36171   1.49169    0.014
 6503.00    1.36164   1.45441    0.013
 6504.00    1.37528   1.44804    0.013
 6505.00    1.39807   1.46834    0.014
 6506.00    1.40560   1.50196    0.014
 6507.00    1.40418   1.53793    0.013
 6508.00    1.39294   1.57321    0.013
 6509.00    1.37667   1.60649    0.013
 6510.00    1.38429   1.63490    0.013
 6511.00    1.40248   1.65693    0.013
 6512.00    1.41535   1.67293    0.013
 6513.00    1.42621   1.68360    0.013
 6514.00    1.40958   1.68842    0.013
 6515.00    1.38407   1.68697    0.013
 6516.00    1.39208   1.68230    0.013
 6517.00    1.40915   1.68020    0.013
 6518.00    1.41107   1.68340    0.013
 6519.00    1.40965   1.68905    0.013
 6520.00    1.39927   1.69241    0.013
 6521.00    1.38731   1.69050    0.013
 6522.00    1.38554   1.68214    0.013
 6523.00    1.38515   1.66855    0.013
 6524.00    1.36120   1.65383    0.013
 6525.00    1.33500   1.64262    0.013
 6526.00    1.31369   1.63876    0.013
 6527.00    1.29267   1.64526    0.013
 6528.00    1.30446   1.66064    0.000
 6529.00    1.31722   1.67796    0.000
 6530.00    1.35003   1.69079    0.000
 6531.00    1.38175   1.69716    0.000
 6532.00    1.38620   1.69762    0.000
 6533.00    1.38986   1.69209    0.000
 6534.00    1.38299   1.68199    0.000
 6535.00    1.37721   1.67337    0.000
 6536.00    1.38117   1.67218    0.000
 6537.00    1.38573   1.67714    0.000
 6538.00    1.39417   1.68105    0.000
 6539.00    1.40133   1.67841    0.000
 6540.00    1.40191   1.67137    0.000
 6541.00    1.39727   1.66762    0.000
 6542.00    1.37108   1.67228    0.000
 6543.00    1.34532   1.68259    0.000
 6544.00    1.32104   1.69172    0.000
 6545.00    1.31720   1.69690    0.000
 6546.00    1.37226   1.70100    0.000
 6547.00    1.41199   1.70597    0.000
 6548.00    1.41405   1.70861    0.000
 6549.00    1.40521   1.70437    0.000
 6550.00    1.37330   1.69248    0.000
 6551.00    1.35180   1.67545    0.000
 6552.00    1.34948   1.65561    0.000
 6553.00    1.34735   1.63532    0.000
 6554.00    1.34553   1.62074    0.000
 6555.00    1.34263   1.61867    0.000
 6556.00    1.33819   1.62785    0.000
 6557.00    1.32688   1.63911    0.000
 6558.00    1.30702   1.64325    0.000
 6559.00    1.29662   1.63766    0.000
 6560.00    1.29659   1.62490    0.000
 6561.00    1.31265   1.60767    0.000
 6562.00    1.34428   1.58869    0.000
 6563.00    1.35791   1.57281    0.000
 6564.00    1.35621   1.56462    0.000
 6565.00    1.34040   1.56242    0.000
 6566.00    1.31398   1.55609    0.000
 6567.00    1.28469   1.53048    0.000
 6568.00    1.25349   1.47135    0.000
 6569.00    1.23839   1.37802    0.000
 6570.00    1.23258   1.28175    0.000
 6571.00    1.24844   1.23703    0.000
 6572.00    1.27521   1.27324    0.000
 6573.00    1.28808   1.36776    0.000
 6574.00    1.29491   1.47088    0.000
 6575.00    1.30396   1.54379    0.000
 6576.00    1.31384   1.57786    0.000
 6577.00    1.30789   1.58684    0.000
 6578.00    1.29694   1.58659    0.000
 6579.00    1.33483   1.58348    0.000
 6580.00    1.38564   1.57739    0.000
 6581.00    1.42196   1.56961    0.000
 6582.00    1.45515   1.56655    0.000
 6583.00    1.45196   1.57619    0.000
 6584.00    1.44253   1.59930    0.000
 6585.00    1.41451   1.62686    0.000
 6586.00    1.38408   1.64696    0.000
 6587.00    1.35847   1.65282    0.000
 6588.00    1.33330   1.64738    0.000
 6589.00    1.30501   1.64062    0.000
 6590.00    1.27656   1.64017    0.000
 6591.00    1.27337   1.64580    0.000
 6592.00    1.27079   1.65223    0.000
 6593.00    1.27532   1.65554    0.000
 6594.00    1.28051   1.65784    0.000
 6595.00    1.30071   1.66328    0.000
 6596.00    1.31969   1.67117    0.000
 6597.00    1.32310   1.67550    0.000
 6598.00    1.32489   1.66772    0.000
 6599.00    1.31271   1.64265    0.000
 6600.00    1.30239   1.60666    0.000
 6601.00    1.30381   1.57791    0.000
 6602.00    1.30657   1.57202    0.000
 6603.00    1.31605   1.58801    0.000
 6604.00    1.32116   1.61128    0.000
 6605.00    1.30865   1.62799    0.000
 6606.00    1.29544   1.63663    0.000
 6607.00    1.27994   1.64517    0.000
 6608.00    1.26723   1.65813    0.000
 6609.00    1.26243   1.67167    0.013
 6610.00    1.27003   1.67872    0.013
 6611.00    1.30762   1.67537    0.013
 6612.00    1.33398   1.66364    0.013
 6613.00    1.33693   1.64877    0.013
 6614.00    1.33095   1.63415    0.013
 6615.00    1.30878   1.62059    0.013
 6616.00    1.30247   1.61007    0.014
 6617.00    1.32129   1.60842    0.014
 6618.00    1.33101   1.61958    0.014
 6619.00    1.32808   1.63878    0.014
 6620.00    1.32985   1.65624    0.013
 6621.00    1.33740   1.66640    0.013
 6622.00    1.35215   1.67189    0.013
 6623.00    1.37465   1.67688    0.013
 6624.00    1.38933   1.68163    0.013
 6625.00    1.39654   1.68476    0.013
 6626.00    1.39066   1.68652    0.013
 6627.00    1.37379   1.68879    0.013
 6628.00    1.35159   1.69142    0.013
 6629.00    1.32546   1.69071    0.013
 6630.00    1.30690   1.68249    0.013
 6631.00    1.29325   1.66655    0.013
 6632.00    1.29303   1.64894    0.013
 6633.00    1.30045   1.63838    0.013
 6634.00    1.30545   1.63816    0.013
 6635.00    1.30926   1.64460    0.013
 6636.00    1.32794   1.65081    0.013
 6637.00    1.35300   1.65143    0.014
 6638.00    1.36451   1.64538    0.014
 6639.00    1.37105   1.63336    0.013
 6640.00    1.34276   1.61693    0.013
 6641.00    1.30364   1.60173    0.014
 6642.00    1.26917   1.59610    0.013
 6643.00    1.23591   1.60422    0.013
 6644.00    1.25021   1.62212    0.013
 6645.00    1.27455   1.64011    0.013
 6646.00    1.29119   1.65020    0.013
 6647.00    1.30656   1.65223    0.013
 6648.00    1.32320   1.65088    0.013
 6649.00    1.34001   1.64762    0.013
 6650.00    1.34128   1.64046    0.013
 6651.00    1.34121   1.63106    0.013
 6652.00    1.33279   1.62533    0.013
 6653.00    1.32395   1.62727    0.013
 6654.00    1.32367   1.63496    0.013
 6655.00    1.32337   1.64298    0.013
 6656.00    1.31108   1.64833    0.013
 6657.00    1.29811   1.65140    0.013
 6658.00    1.27092   1.65245    0.013
 6659.00    1.24769   1.65111    0.013
 6660.00    1.27221   1.64823    0.013
 6661.00    1.29532   1.64601    0.013
 6662.00    1.30681   1.64584    0.013
 6663.00    1.31245   1.64679    0.013
 6664.00    1.28196   1.64747    0.013
 6665.00    1.25502   1.64747    0.013
 6666.00    1.24533   1.64620    0.013
 6667.00    1.24241   1.64260    0.013
 6668.00    1.26623   1.63513    0.013
 6669.00    1.27917   1.62257    0.013
 6670.00    1.25642   1.60627    0.013
 6671.00    1.23844   1.59205    0.013
 6672.00    1.23372   1.58573    0.013
 6673.00    1.23845   1.58842    0.013
 6674.00    1.26564   1.59659    0.013
 6675.00    1.28154   1.60589    0.013
 6676.00    1.27426   1.61588    0.013
 6677.00    1.26636   1.62811    0.013
 6678.00    1.25737   1.64129    0.013
 6679.00    1.25342   1.65192    0.013
 6680.00    1.25732   1.65780    0.013
 6681.00    1.27263   1.65927    0.013
 6682.00    1.30360   1.65668    0.013
 6683.00    1.32323   1.64727    0.014
 6684.00    1.32916   1.62736    0.014
 6685.00    1.32906   1.60028    0.014
 6686.00    1.32254   1.57849    0.013
 6687.00    1.31135   1.57346    0.013
 6688.00    1.29580   1.58564    0.013
 6689.00    1.29164   1.60517    0.013
 6690.00    1.29690   1.62186    0.013
 6691.00    1.31596   1.63319    0.013
 6692.00    1.34507   1.64076    0.013
 6693.00    1.35187   1.64511    0.013
 6694.00    1.34439   1.64608    0.013
 6695.00    1.32410   1.64468    0.013
 6696.00    1.29663   1.64326    0.000
 6697.00    1.27922   1.64351    0.000
 6698.00    1.26670   1.64546    0.000
 6699.00    1.26327   1.64749    0.000
 6700.00    1.26365   1.64760    0.000
 6701.00    1.27244   1.64411    0.000
 6702.00    1.28425   1.63547    0.000
 6703.00    1.27297   1.62197    0.000
 6704.00    1.25464   1.60778    0.000
 6705.00    1.26913   1.59941    0.000
 6706.00    1.29193   1.60151    0.000
 6707.00    1.29356   1.61279    0.000
 6708.00    1.29083   1.62646    0.000
 6709.00    1.27529   1.63525    0.000
 6710.00    1.25768   1.63504    0.000
 6711.00    1.25783   1.62757    0.000
 6712.00    1.26014   1.61925    0.000
 6713.00    1.27834   1.61598    0.000
 6714.00    1.29786   1.61900    0.000
 6715.00    1.30928   1.62489    0.000
 6716.00    1.32032   1.62897    0.000
 6717.00    1.32327   1.62901    0.000
 6718.00    1.32593   1.62597    0.000
 6719.00    1.31935   1.62110    0.000
 6720.00    1.31193   1.61464    0.000
 6721.00    1.28824   1.60545    0.000
 6722.00    1.26630   1.59198    0.000
 6723.00    1.26444   1.57483    0.000
 6724.00    1.26640   1.55759    0.000
 6725.00    1.29883   1.54674    0.000
 6726.00    1.32887   1.54841    0.000
 6727.00    1.34464   1.56262    0.000
 6728.00    1.35141   1.58211    0.000
 6729.00    1.31556   1.59813    0.000
 6730.00    1.28463   1.60805    0.000
 6731.00    1.27268   1.61406    0.000
 6732.00    1.26504   1.61705    0.000
 6733.00    1.27128   1.61616    0.000
 6734.00    1.27279   1.61282    0.000
 6735.00    1.26135   1.61140    0.000
 6736.00    1.25092   1.61493    0.000
 6737.00    1.24286   1.62190    0.000
 6738.00    1.24240   1.62837    0.000
 6739.00    1.25730   1.63157    0.000
 6740.00    1.26474   1.63079    0.000
 6741.00    1.25908   1.62773    0.000
 6742.00    1.25301   1.62522    0.000
 6743.00    1.24634   1.62439    0.000
 6744.00    1.23928   1.62296    0.000
 6745.00    1.23172   1.61796    0.000
 6746.00    1.21485   1.60963    0.000
 6747.00    1.18693   1.60208    0.000
 6748.00    1.17046   1.59887    0.000
 6749.00    1.16602   1.59897    0.000
 6750.00    1.16705   1.59901    0.000
 6751.00    1.17314   1.59781    0.000
 6752.00    1.18678   1.59727    0.000
 6753.00    1.20658   1.59840    0.014
 6754.00    1.21365   1.59875    0.015
 6755.00    1.21156   1.59577    0.015
 6756.00    1.20955   1.59012    0.015
 6757.00    1.20759   1.58429    0.015
 6758.00    1.19584   1.58063    0.015
 6759.00    1.17868   1.57991    0.015
 6760.00    1.23159   1.58201    0.015
 6761.00    1.31809   1.58603    0.015
 6762.00    1.38285   1.59224    0.016
 6763.00    1.43862   1.60203    0.016
 6764.00    1.46727   1.61398    0.016
 6765.00    1.48632   1.62601    0.016
 6766.00    1.51631   1.63681    0.016
 6767.00    1.54955   1.64471    0.016
 6768.00    1.53609   1.64850    0.016
 6769.00    1.51106   1.64848    0.016
 6770.00    1.48063   1.64610    0.015
 6771.00    1.44912   1.64281    0.015
 6772.00    1.43340   1.63856    0.015
 6773.00    1.42015   1.63097    0.015
 6774.00    1.39047   1.61917    0.014
 6775.00    1.35887   1.60650    0.014
 6776.00    1.31096   1.59804    0.014
 6777.00    1.26176   1.59604    0.014
 6778.00    1.26502   1.59827    0.014
 6779.00    1.27056   1.60175    0.015
 6780.00    1.28363   1.60762    0.015
 6781.00    1.29670   1.61851    0.015
 6782.00    1.30594   1.63294    0.015
 6783.00    1.31459   1.64630    0.015
 6784.00    1.31262   1.65529    0.015
 6785.00    1.31224   1.66005    0.015
 6786.00    1.32922   1.66220    0.015
 6787.00    1.34332   1.66251    0.015
 6788.00    1.33522   1.65902    0.015
 6789.00    1.32983   1.64815    0.015
 6790.00    1.34023   1.62953    0.015
 6791.00    1.35194   1.60726    0.014
 6792.00    1.36970   1.58836    0.015
 6793.00    1.38589   1.57930    0.015
 6794.00    1.39612   1.58215    0.015
 6795.00    1.39321   1.59341    0.015
 6796.00    1.34882   1.60716    0.015
 6797.00    1.32163   1.61825    0.014
 6798.00    1.34049   1.62396    0.014
 6799.00    1.35016   1.62484    0.014
 6800.00    1.33872   1.62214    0.014
 6801.00    1.32208   1.61658    0.014
 6802.00    1.29512   1.61026    0.014
 6803.00    1.28072   1.60674    0.015
 6804.00    1.28806   1.60752    0.015
 6805.00    1.28350   1.61137    0.014
 6806.00    1.26088   1.61688    0.014
 6807.00    1.25830   1.62265    0.014
 6808.00    1.28242   1.62807    0.014
 6809.00    1.30430   1.63250    0.014
 6810.00    1.32355   1.63460    0.014
 6811.00    1.32540   1.63373    0.014
 6812.00    1.30926   1.63062    0.015
 6813.00    1.30458   1.62732    0.015
 6814.00    1.31039   1.62534    0.015
 6815.00    1.30769   1.62402    0.015
 6816.00    1.29816   1.62286    0.015
 6817.00    1.28669   1.62218    0.014
 6818.00    1.27385   1.62170    0.014
 6819.00    1.28059   1.62194    0.014
 6820.00    1.29949   1.62283    0.014
 6821.00    1.29453   1.62217    0.014
 6822.00    1.27662   1.61954    0.014
 6823.00    1.26723   1.61788    0.014
 6824.00    1.26187   1.62063    0.014
 6825.00    1.25313   1.62721    0.014
 6826.00    1.24303   1.63240    0.014
 6827.00    1.23712   1.63267    0.014
 6828.00    1.23267   1.63039    0.014
 6829.00    1.27077   1.63084    0.014
 6830.00    1.32131   1.63678    0.015
 6831.00    1.33015   1.64573    0.015
 6832.00    1.32888   1.65278    0.015
 6833.00    1.32281   1.65440    0.014
 6834.00    1.31579   1.64955    0.014
 6835.00    1.32315   1.63971    0.014
 6836.00    1.33269   1.62898    0.015
 6837.00    1.33281   1.62302    0.015
 6838.00    1.33187   1.62500    0.015
 6839.00    1.31445   1.63214    0.015
 6840.00    1.29579   1.63915    0.015
 6841.00    1.26204   1.64352    0.015
 6842.00    1.22768   1.64627    0.015
 6843.00    1.20590   1.64795    0.014
 6844.00    1.18631   1.64629    0.014
 6845.00    1.25050   1.63849    0.014
 6846.00    1.31031   1.62418    0.014
 6847.00    1.29599   1.60522    0.014
 6848.00    1.28414   1.58521    0.014
 6849.00    1.29807   1.56929    0.014
 6850.00    1.30780   1.56280    0.014
 6851.00    1.28627   1.56894    0.014
 6852.00    1.26212   1.58567    0.014
 6853.00    1.22309   1.60622    0.014
 6854.00    1.19322   1.62345    0.014
 6855.00    1.20473   1.63389    0.014
 6856.00    1.21722   1.63833    0.014
 6857.00    1.23331   1.63907    0.014
 6858.00    1.23667   1.63811    0.014
 6859.00    1.20062   1.63656    0.014
 6860.00    1.18463   1.63355    0.014
 6861.00    1.22140   1.62665    0.014
 6862.00    1.24656   1.61451    0.014
 6863.00    1.24547   1.59973    0.014
 6864.00    1.25522   1.58890    0.014
 6865.00    1.28621   1.58640    0.014
 6866.00    1.30311   1.58966    0.014
 6867.00    1.29598   1.59287    0.014
 6868.00    1.27539   1.59228    0.015
 6869.00    1.23468   1.58934    0.014
 6870.00    1.20718   1.59046    0.014
 6871.00    1.19703   1.60013    0.014
 6872.00    1.18958   1.61460    0.014
 6873.00    1.18525   1.62432    0.014
 6874.00    1.18138   1.62284    0.014
 6875.00    1.17798   1.61219    0.014
 6876.00    1.16992   1.60051    0.014
 6877.00    1.15765   1.59546    0.014
 6878.00    1.14845   1.59777    0.014
 6879.00    1.14167   1.60165    0.014
 6880.00    1.15216   1.60262    0.014
 6881.00    1.17470   1.60184    0.014
 6882.00    1.21700   1.60260    0.014
 6883.00    1.27140   1.60629    0.014
 6884.00    1.28760   1.61280    0.014
 6885.00    1.28340   1.62138    0.014
 6886.00    1.26512   1.62964    0.014
 6887.00    1.24031   1.63362    0.014
 6888.00    1.22826   1.63044    0.014
 6889.00    1.22130   1.62085    0.014
 6890.00    1.22431   1.60956    0.014
 6891.00    1.23071   1.60291    0.014
 6892.00    1.21732   1.60431    0.014
 6893.00    1.19825   1.61177    0.014
 6894.00    1.19698   1.62106    0.014
 6895.00    1.19992   1.63065    0.014
 6896.00    1.20042   1.64094    0.014
 6897.00    1.20046   1.65111    0.014
 6898.00    1.22270   1.65948    0.014
 6899.00    1.24822   1.66448    0.014
 6900.00    1.25604   1.66501    0.014
 6901.00    1.26194   1.66162    0.014
 6902.00    1.25172   1.65642    0.014
 6903.00    1.24036   1.65135    0.014
 6904.00    1.23378   1.64812    0.014
 6905.00    1.22737   1.64781    0.014
 6906.00    1.23931   1.64949    0.014
 6907.00    1.25019   1.65081    0.014
 6908.00    1.22187   1.65096    0.014
 6909.00    1.19485   1.65187    0.014
 6910.00    1.18836   1.65511    0.014
 6911.00    1.18180   1.65905    0.014
 6912.00    1.17453   1.66146    0.014
 6913.00    1.17330   1.66256    0.014
 6914.00    1.21553   1.66453    0.014
 6915.00    1.24944   1.66862    0.014
 6916.00    1.23752   1.67318    0.014
 6917.00    1.22760   1.67571    0.014
 6918.00    1.22649   1.67448    0.014
 6919.00    1.22894   1.66860    0.014
 6920.00    1.24424   1.65860    0.014
 6921.00    1.26560   1.64634    0.014
 6922.00    1.30536   1.63487    0.014
 6923.00    1.32175   1.62804    0.014
 6924.00    1.27774   1.62728    0.014
 6925.00    1.22989   1.63116    0.014
 6926.00    1.17350   1.63873    0.014
 6927.00    1.14404   1.64879    0.014
 6928.00    1.16647   1.65932    0.014
 6929.00    1.19143   1.66705    0.014
 6930.00    1.22065   1.66784    0.014
 6931.00    1.24237   1.65947    0.014
 6932.00    1.25302   1.64393    0.015
 6933.00    1.24556   1.62843    0.015
 6934.00    1.21464   1.62100    0.015
 6935.00    1.19990   1.62470    0.014
 6936.00    1.20361   1.63573    0.014
 6937.00    1.19695   1.64703    0.014
 6938.00    1.17983   1.65353    0.014
 6939.00    1.17175   1.65363    0.014
 6940.00    1.17169   1.64896    0.014
 6941.00    1.18147   1.64334    0.014
 6942.00    1.19893   1.64157    0.014
 6943.00    1.22330   1.64519    0.014
 6944.00    1.25242   1.65114    0.014
 6945.00    1.24334   1.65624    0.014
 6946.00    1.21124   1.66003    0.014
 6947.00    1.20201   1.66416    0.014
 6948.00    1.20480   1.66888    0.014
 6949.00    1.22815   1.67120    0.014
 6950.00    1.26088   1.66702    0.014
 6951.00    1.25433   1.65515    0.014
 6952.00    1.23235   1.63911    0.014
 6953.00    1.21384   1.62607    0.014
 6954.00    1.19650   1.62343    0.014
 6955.00    1.20868   1.63216    0.014
 6956.00    1.22914   1.64591    0.014
 6957.00    1.21956   1.65662    0.014
 6958.00    1.20302   1.65882    0.015
 6959.00    1.20835   1.65239    0.015
 6960.00    1.21774   1.64256    0.015
 6961.00    1.20457   1.63483    0.015
 6962.00    1.18817   1.63243    0.014
 6963.00    1.18190   1.63645    0.014
 6964.00    1.17668   1.64526    0.014
 6965.00    1.18657   1.65530    0.014
 6966.00    1.19748   1.66331    0.014
 6967.00    1.23561   1.66829    0.014
 6968.00    1.27461   1.67130    0.014
 6969.00    1.28037   1.67425    0.014
 6970.00    1.28398   1.67757    0.015
 6971.00    1.22183   1.68016    0.015
 6972.00    1.16421   1.68063    0.015
 6973.00    1.17396   1.67850    0.015
 6974.00    1.18302   1.67633    0.015
 6975.00    1.18532   1.67782    0.015
 6976.00    1.19091   1.68301    0.014
 6977.00    1.21938   1.68770    0.015
 6978.00    1.23965   1.68813    0.015
 6979.00    1.21599   1.68470    0.015
 6980.00    1.18982   1.68163    0.015
 6981.00    1.15293   1.68036    0.015
 6982.00    1.13466   1.67653    0.015
 6983.00    1.18252   1.66501    0.014
 6984.00    1.22656   1.64392    0.014
 6985.00    1.25918   1.61600    0.015
 6986.00    1.28146   1.58868    0.015
 6987.00    1.27751   1.57361    0.015
 6988.00    1.26361   1.57958    0.015
 6989.00    1.22799   1.60441    0.015
 6990.00    1.20215   1.63730    0.015
 6991.00    1.19487   1.66655    0.015
 6992.00    1.20373   1.68563    0.015
 6993.00    1.23931   1.69457    0.015
 6994.00    1.24953   1.69600    0.015
 6995.00    1.22296   1.69234    0.015
 6996.00    1.22170   1.68536    0.015
 6997.00    1.25274   1.67757    0.015
 6998.00    1.26288   1.67314    0.015
 6999.00    1.24953   1.67479    0.015
 7000.00    1.22717   1.68108    0.015
 7001.00    1.19588   1.68729    0.015
 7002.00    1.18389   1.68977    0.015
 7003.00    1.18878   1.68904    0.015
 7004.00    1.17353   1.68724    0.015
 7005.00    1.14277   1.68420    0.015
 7006.00    1.15167   1.67737    0.015
 7007.00    1.18744   1.66594    0.015
 7008.00    1.21036   1.65451    0.015
 7009.00    1.22563   1.64941    0.015
 7010.00    1.22432   1.65149    0.015
 7011.00    1.21443   1.65496    0.015
 7012.00    1.18406   1.65383    0.015
 7013.00    1.14448   1.64845    0.015
 7014.00    1.14920   1.64425    0.015
 7015.00    1.17101   1.64593    0.015
 7016.00    1.18376   1.65341    0.015
 7017.00    1.19355   1.66276    0.015
 7018.00    1.20374   1.66946    0.015
 7019.00    1.21404   1.67169    0.015
 7020.00    1.23981   1.67067    0.015
 7021.00    1.26909   1.66680    0.015
 7022.00    1.24803   1.65753    0.015
 7023.00    1.21788   1.64031    0.015
 7024.00    1.19196   1.61988    0.015
 7025.00    1.16663   1.60912    0.015
 7026.00    1.16919   1.61755    0.015
 7027.00    1.17452   1.64171    0.015
 7028.00    1.18221   1.66807    0.015
 7029.00    1.19004   1.68288    0.015
 7030.00    1.17168   1.68084    0.015
 7031.00    1.15260   1.66600    0.015
 7032.00    1.14194   1.64839    0.015
 7033.00    1.13230   1.63831    0.016
 7034.00    1.15081   1.64023    0.016
 7035.00    1.16990   1.65076    0.015
 7036.00    1.19708   1.66348    0.015
 7037.00    1.22699   1.67391    0.015
 7038.00    1.28202   1.68104    0.015
 7039.00    1.32030   1.68488    0.016
 7040.00    1.24572   1.68547    0.016
 7041.00    1.18598   1.68405    0.016
 7042.00    1.20379   1.68256    0.015
 7043.00    1.21764   1.68201    0.015
 7044.00    1.21478   1.68056    0.016
 7045.00    1.21218   1.67474    0.016
 7046.00    1.21047   1.66609    0.016
 7047.00    1.21052   1.66338    0.016
 7048.00    1.21568   1.67495    0.016
 7049.00    1.20254   1.69992    0.016
 7050.00    1.14371   1.72693   -2.000
 7051.00    1.09964   1.74305   -2.000
 7052.00    1.08734   1.74445   -2.000
 7053.00    1.11718   1.73749   -2.000
 7054.00    1.22572   1.73223   -2.000
 7055.00    1.29171   1.73479   -2.000
 7056.00    1.28828   1.74389   -2.000
 7057.00    1.28560   1.75193   -2.000
 7058.00    1.28399   1.75085   -2.000
 7059.00    1.26797   1.73633   -2.000
 7060.00    1.23385   1.70890   -2.000
 7061.00    1.24216   1.67489   -2.000
 7062.00    1.29752   1.64402   -2.000
 7063.00    1.32660   1.62503   -2.000
 7064.00    1.32997   1.62064   -2.000
 7065.00    1.33127   1.62501   -2.000
 7066.00    1.33081   1.62843   -2.000
 7067.00    1.29552   1.62413   -2.000
 7068.00    1.23379   1.61317   -2.000
 7069.00    1.19290   1.60293   -2.000
 7070.00    1.16593   1.60007   -2.000
 7071.00    1.22023   1.60536   -2.000
 7072.00    1.32208   1.61369   -2.000
 7073.00    1.33024   1.61764   -2.000
 7074.00    1.29063   1.61263   -2.000
 7075.00    1.29714   1.59937   -2.000
 7076.00    1.32400   1.58474   -2.000
 7077.00    1.34532   1.57881   -2.000
 7078.00    1.36452   1.58677   -2.000
 7079.00    1.33441   1.60519   -2.000
 7080.00    1.28841   1.62528   -2.000
 7081.00    1.30183   1.63954   -2.000
 7082.00    1.33126   1.64624   -2.000
 7083.00    1.32228   1.64796   -2.000
 7084.00    1.30481   1.64790   -2.000
 7085.00    1.29294   1.64848   -2.000
 7086.00    1.28204   1.65102   -2.000
 7087.00    1.22361   1.65516   -2.000
 7088.00    1.15882   1.65879   -2.000
 7089.00    1.20352   1.65781   -2.000
 7090.00    1.25862   1.64757   -2.000
 7091.00    1.27413   1.62609   -2.000
 7092.00    1.28731   1.59732   -2.000
 7093.00    1.25311   1.57073   -2.000
 7094.00    1.21796   1.55392   -2.000
 7095.00    1.21080   1.54681   -2.000
 7096.00    1.20347   1.54369   -2.000
 7097.00    1.19206   1.53927   -2.000
 7098.00    1.18011   1.53348   -2.000
 7099.00    1.16107   1.52938   -2.000
 7100.00    1.13949   1.52843   -2.000
 7101.00    1.09543   1.53007   -2.000
 7102.00    1.05866   1.53273   -2.000
 7103.00    1.06949   1.53526   -2.000
 7104.00    1.08271   1.53844   -2.000
 7105.00    1.10810   1.54346   -2.000
 7106.00    1.13114   1.55142   -2.000
 7107.00    1.14447   1.56161   -2.000
 7108.00    1.14439   1.57071   -2.000
 7109.00    1.09862   1.57543   -2.000
 7110.00    1.06651   1.57503   -2.000
 7111.00    1.07365   1.57321   -2.000
 7112.00    1.09158   1.57390   -2.000
 7113.00    1.13595   1.57746   -2.000
 7114.00    1.17161   1.58042   -2.000
 7115.00    1.18885   1.57972   -2.000
 7116.00    1.18894   1.57560   -2.000
 7117.00    1.15749   1.56993   -2.000
 7118.00    1.13972   1.56333   -2.000
 7119.00    1.14397   1.55636   -2.000
 7120.00    1.15291   1.55175   -2.000
 7121.00    1.16849   1.55301   -2.000
 7122.00    1.19759   1.56048   -2.000
 7123.00    1.24347   1.57069   -2.000
 7124.00    1.26890   1.57945   -2.000
 7125.00    1.27198   1.58462   -2.000
 7126.00    1.30090   1.58607   -2.000
 7127.00    1.35473   1.58437   -2.000
 7128.00    1.32707   1.58043   -2.000
 7129.00    1.23011   1.57525   -2.000
 7130.00    1.15936   1.57042   -2.000
 7131.00    1.10822   1.56752   -2.000
 7132.00    1.15233   1.56595   -2.000
 7133.00    1.25911   1.56303   -2.000
 7134.00    1.24236   1.55652   -2.000
 7135.00    1.15446   1.54754   -2.000
 7136.00    1.13702   1.53861   -2.000
 7137.00    1.15494   1.52972   -2.000
 7138.00    1.15056   1.51978   -2.000
 7139.00    1.13650   1.51101   -2.000
 7140.00    1.16175   1.50893   -2.000
 7141.00    1.20164   1.51711   -2.000
 7142.00    1.17313   1.53300   -2.000
 7143.00    1.12300   1.55014   -2.000
 7144.00    1.09947   1.56348   -2.000
 7145.00    1.08296   1.57090   -2.000
 7146.00    1.10630   1.57246   -2.000
 7147.00    1.13823   1.57006   -2.000
 7148.00    1.14451   1.56716   -2.000
 7149.00    1.14641   1.56720   -2.000
 7150.00    1.15152   1.57052   -2.000
 7151.00    1.15704   1.57422   -2.000
 7152.00    1.13437   1.57540   -2.000
 7153.00    1.10915   1.57308   -2.000
 7154.00    1.10283   1.56654   -2.000
 7155.00    1.09755   1.55526   -2.000
 7156.00    1.09916   1.54186   -2.000
 7157.00    1.10091   1.53248   -2.000
 7158.00    1.10300   1.53333   -2.000
 7159.00    1.10899   1.54552   -2.000
 7160.00    1.20374   1.56394   -2.000
 7161.00    1.29204   1.58170   -2.000
 7162.00    1.29920   1.59376   -2.000
 7163.00    1.30414   1.59921   -2.000
 7164.00    1.29011   1.60141   -2.000
 7165.00    1.26571   1.60387   -2.000
 7166.00    1.17556   1.60634   -2.000
 7167.00    1.11367   1.60559   -2.000
 7168.00    1.19210   1.60068   -2.000
 7169.00    1.25341   1.59412   -2.000
 7170.00    1.24582   1.58659   -2.000
 7171.00    1.23452   1.57510   -2.000
 7172.00    1.21082   1.55753   -2.000
 7173.00    1.16688   1.53947   -2.000
 7174.00    1.06582   1.53160   -2.000
 7175.00    1.02454   1.54002   -2.000
 7176.00    1.12742   1.55983   -2.000
 7177.00    1.20748   1.58017   -2.000
 7178.00    1.23999   1.59420   -2.000
 7179.00    1.23986   1.60258   -2.000
 7180.00    1.18062   1.60893   -2.000
 7181.00    1.15742   1.61394   -2.000
 7182.00    1.19125   1.61489   -2.000
 7183.00    1.18226   1.60979   -2.000
 7184.00    1.11377   1.60118   -2.000
 7185.00    1.06919   1.59397   -2.000
 7186.00    1.05386   1.59007   -2.000
 7187.00    1.10420   1.58573   -2.000
 7188.00    1.22533   1.57613   -2.000
 7189.00    1.26658   1.56346   -2.000
 7190.00    1.23189   1.55682   -2.000
 7191.00    1.20542   1.56252   -2.000
 7192.00    1.18584   1.57667   -2.000
 7193.00    1.14532   1.58722   -2.000
 7194.00    1.08933   1.58442   -2.000
 7195.00    1.07686   1.56854   -2.000
 7196.00    1.09261   1.54822   -2.000
 7197.00    1.12569   1.53460   -2.000
 7198.00    1.16859   1.53350   -2.000
 7199.00    1.22769   1.54194   -2.000
 7200.00    1.29479   1.55272   -2.000
 7201.00    1.30003   1.56038   -2.000
 7202.00    1.27885   1.56508   -2.000
 7203.00    1.24966   1.56927   -2.000
 7204.00    1.21753   1.57332   -2.000
 7205.00    1.12294   1.57593   -2.000
 7206.00    1.00899   1.57717   -2.000
 7207.00    1.01593   1.57908   -2.000
 7208.00    1.05407   1.58169   -2.000
 7209.00    1.05575   1.58310   -2.000
 7210.00    1.04976   1.58347   -2.000
 7211.00    1.06992   1.58533   -2.000
 7212.00    1.09442   1.58964   -2.000
 7213.00    1.08057   1.59121   -2.000
 7214.00    1.06192   1.58252   -2.000
 7215.00    1.07636   1.56326   -2.000
 7216.00    1.09367   1.54297   -2.000
 7217.00    1.09062   1.53519   -2.000
 7218.00    1.08652   1.54526   -2.000
