###################################################################
## OUTPUT of StarlightChains_v04.for    [Cid@UFSC - 01/Apr/2007] ##
###################################################################

## Some input info
KUG0210-078._31_28.txt                   [arq_obs]
Base.CB07.vall.4m                        [arq_base]
Masks.EmLines.NEW.gm                     [arq_masks]
StCv04.C11.config                        [arq_config]
   66                                    [N_base]
    0                                    [N_YAV_components = # of components with extra extinction!]
    0                                    [i_FitPowerLaw (1/0 = Yes/No)]
-9.99                                    [alpha_PowerLaw]
CCM                                      [red_law_option]
 1.458241                                [q_norm = A(l_norm)/A(V)]

## (Re)Sampling Parameters
 3741.00                                 [l_ini (A)]
 7218.00                                 [l_fin (A)]
    1.00                                 [dl    (A)]     (OBS: dl_cushion =    50.00 A)

## Normalization info
 4020.00                                 [l_norm (A) - for base]
 4010.00                                 [llow_norm (A) - window for f_obs]
 4060.00                                 [lupp_norm (A) - window for f_obs]
2.400161E-17                             [fobs_norm (in input units)]

## S/N
 3691.00                                 [llow_SN (A) - window for S/N]
 7268.00                                 [lupp_SN (A) - window for S/N]
   4.175                                 [S/N in S/N window]
   3.280                                 [S/N in norm. window]
   0.053                                 [S/N_err in S/N window]
   0.042                                 [S/N_err in norm. window]
  1.0000                                 [fscale_chi2]

## etc...
    -2007453                             [idum_orig]
  2431                                   [NOl_eff]
  1992                                   [Nl_eff]
   439    NSIGMA                         [Ntot_cliped & clip_method]
 10216080                                [Nglobal_steps]
   7                                     [N_chains]
   7                                     [NEX0s_base = N_base in EX0s-fits]
 0   0   1      439   2.0   2.245E+04    [Clip-Bug, RC-Crash & Burn-In warning-flags, n_censored_weights, wei_nsig_threshold & wei_limit]
   134    132.550    131.306      1.244  [idt_all, wdt_TotTime, wdt_UsrTime & wdt_SysTime (sec)]

## Synthesis Results - Best model ##

 6.30494E-05                             [chi2/Nl_eff]
    10.04592                             [adev (%)]

   130.00000                             [sum-of-x (%)]
 8.14493E-18                             [Flux_tot (units of input spectrum!)]
 8.36015E-13                             [Mini_tot (???)]
 4.26244E-13                             [Mcor_tot (???)]

 -47.88                                  [v0_min  (km/s)]
 158.00                                  [vd_min  (km/s)]
-1.0000                                  [AV_min  (mag)]
 0.0000                                  [YAV_min (mag)]

# j     x_j(%)      Mini_j(%)     Mcor_j(%)     age_j(yr)     Z_j      (L/M)_j    YAV?  Mstars   component_j        a/Fe...       SSP_chi2r SSP_adev(%)   SSP_AV   SSP_x(%)
  1      0.0000     0.0000E+00    0.0000E+00    1.000000E+06  0.00400  1.094E-02    0   1.0000   age020_m42            0.0000     1.0321E-04    12.9054   2.8366   136.3248
  2      0.0000     0.0000E+00    0.0000E+00    3.160000E+06  0.00400  4.007E-02    0   0.9999   age045_m42            0.0000     7.5613E-05    11.8075   2.0340   150.5101
  3      0.0000     0.0000E+00    0.0000E+00    5.010000E+06  0.00400  2.539E-02    0   0.9488   age055_m42            0.0000     8.6740E-05    12.2291   2.3807   145.1960
  4      0.0000     0.0000E+00    0.0000E+00    6.610000E+06  0.00400  2.620E-02    0   0.9220   age061_m42            0.0000     7.3705E-05    11.6877   1.9468   151.7492
  5      0.0000     0.0000E+00    0.0000E+00    1.000000E+07  0.00400  1.322E-02    0   0.8862   age070_m42            0.0000     8.1836E-05    12.4037   1.6800   154.4478
  6      0.0000     0.0000E+00    0.0000E+00    1.445000E+07  0.00400  7.883E-03    0   0.8571   age078_m42            0.0000     8.8630E-05    12.6858   2.0289   149.0532
  7      0.0000     0.0000E+00    0.0000E+00    2.512000E+07  0.00400  5.251E-03    0   0.8174   age090_m42            0.0000     8.1576E-05    12.5052   1.5484   155.5268
  8      0.0000     0.0000E+00    0.0000E+00    4.000000E+07  0.00400  3.649E-03    0   0.7851   age104_m42            0.0000     7.6170E-05    12.1869   1.3090   157.5759
  9      0.0000     0.0000E+00    0.0000E+00    5.500000E+07  0.00400  3.098E-03    0   0.7629   age110_m42            0.0000     6.7235E-05    11.5737   1.4383   158.9630
 10      0.0000     0.0000E+00    0.0000E+00    1.015200E+08  0.00400  2.228E-03    0   0.7207   age116_m42            0.0000     6.0975E-05    11.1210   1.4355   160.6603
 11      0.0000     0.0000E+00    0.0000E+00    2.861200E+08  0.00400  1.093E-03    0   0.6648   age125_m42            0.0000     5.8184E-05    11.2287   0.8491   166.8073
 12      0.0000     0.0000E+00    0.0000E+00    5.088000E+08  0.00400  6.597E-04    0   0.6365   age130_m42            0.0000     5.0307E-05    10.5443   0.8203   169.3049
 13      0.0000     0.0000E+00    0.0000E+00    1.434000E+09  0.00400  2.132E-04    0   0.5798   age139_m42            0.0000     4.3990E-05     9.6902  -0.1215   170.5336
 14      0.0000     0.0000E+00    0.0000E+00    4.250000E+09  0.00400  5.895E-05    0   0.5377   age158_m42            0.0000     5.0522E-05     9.7319  -0.4970   159.1537
 15      0.0000     0.0000E+00    0.0000E+00    7.500000E+09  0.00400  3.510E-05    0   0.5212   age171_m42            0.0000     5.0001E-05     9.5602  -0.6749   157.2394
 16      0.0000     0.0000E+00    0.0000E+00    1.300000E+10  0.00400  2.005E-05    0   0.5034   age193_m42            0.0000     5.0741E-05     9.5053  -0.8324   155.7079
 17      0.0000     0.0000E+00    0.0000E+00    1.800000E+10  0.00400  1.525E-05    0   0.4967   age213_m42            0.0000     5.1758E-05     9.5803  -0.8517   154.8406
 18      0.0000     0.0000E+00    0.0000E+00    1.000000E+06  0.00800  1.238E-02    0   1.0000   age020_m52            0.0000     1.0297E-04    12.8948   2.8338   136.5612
 19      0.0000     0.0000E+00    0.0000E+00    3.160000E+06  0.00800  3.074E-02    0   0.9966   age045_m52            0.0000     9.9853E-05    12.7337   2.7480   138.3348
 20      0.0000     0.0000E+00    0.0000E+00    5.010000E+06  0.00800  2.668E-02    0   0.9443   age055_m52            0.0000     8.9966E-05    12.3517   2.4752   143.2279
 21      0.0000     0.0000E+00    0.0000E+00    6.610000E+06  0.00800  2.136E-02    0   0.9177   age061_m52            0.0000     8.4940E-05    12.3444   1.2173   153.7635
 22      0.0000     0.0000E+00    0.0000E+00    1.000000E+07  0.00800  1.215E-02    0   0.8827   age070_m52            0.0000     8.8759E-05    12.8941   1.8759   153.0898
 23      0.0000     0.0000E+00    0.0000E+00    1.445000E+07  0.00800  8.717E-03    0   0.8552   age078_m52            0.0000     8.5888E-05    12.5461   1.9874   151.6211
 24      0.0000     0.0000E+00    0.0000E+00    2.512000E+07  0.00800  5.592E-03    0   0.8162   age090_m52            0.0000     7.9937E-05    12.4609   1.6097   157.5706
 25      0.0000     0.0000E+00    0.0000E+00    4.000000E+07  0.00800  3.896E-03    0   0.7841   age104_m52            0.0000     7.2655E-05    12.0332   1.5055   159.7493
 26      0.0000     0.0000E+00    0.0000E+00    1.015200E+08  0.00800  2.148E-03    0   0.7226   age116_m52            0.0000     6.3753E-05    11.3460   1.4169   161.1249
 27      0.0000     0.0000E+00    0.0000E+00    2.861200E+08  0.00800  9.925E-04    0   0.6683   age125_m52            0.0000     4.9042E-05    10.3916   0.8847   170.9020
 28      0.0000     0.0000E+00    0.0000E+00    9.047900E+08  0.00800  3.141E-04    0   0.6138   age135_m52            0.0000     3.9400E-05     9.5764   0.1228   174.7693
 29      0.0000     0.0000E+00    0.0000E+00    1.434000E+09  0.00800  1.719E-04    0   0.5853   age139_m52            0.0000     4.3595E-05     9.6000  -0.4269   169.0612
 30      0.0000     0.0000E+00    0.0000E+00    2.500000E+09  0.00800  7.872E-05    0   0.5600   age150_m52            0.0000     4.3027E-05     9.1397  -0.6695   162.3607
 31      0.0000     0.0000E+00    0.0000E+00    4.250000E+09  0.00800  4.336E-05    0   0.5426   age158_m52            0.0000     4.4985E-05     9.2495  -0.6718   159.9538
 32      0.0000     0.0000E+00    0.0000E+00    6.250000E+09  0.00800  3.159E-05    0   0.5319   age166_m52            0.0000     4.2624E-05     8.9860  -0.8757   159.8340
 33      0.0000     0.0000E+00    0.0000E+00    1.300000E+10  0.00800  1.361E-05    0   0.5073   age193_m52            0.0000     5.2800E-05    11.5928  -1.0000   141.4800
 34      0.0000     0.0000E+00    0.0000E+00    1.800000E+10  0.00800  9.886E-06    0   0.4990   age213_m52            0.0000     5.9595E-05    12.6285  -1.0000   135.3636
 35      0.0000     0.0000E+00    0.0000E+00    1.000000E+06  0.02000  1.544E-02    0   1.0000   age020_m62            0.0000     1.0357E-04    12.9154   2.8307   136.8422
 36      0.0000     0.0000E+00    0.0000E+00    3.160000E+06  0.02000  3.762E-02    0   0.9858   age045_m62            0.0000     1.0211E-04    12.8413   2.7635   138.4098
 37      0.0000     0.0000E+00    0.0000E+00    5.010000E+06  0.02000  3.296E-02    0   0.9342   age055_m62            0.0000     7.9920E-05    11.8501   2.3172   148.4283
 38      0.0000     0.0000E+00    0.0000E+00    8.710000E+06  0.02000  1.154E-02    0   0.8861   age067_m62            0.0000     1.2711E-04    15.9088   1.3867   154.1592
 39      0.0000     0.0000E+00    0.0000E+00    1.445000E+07  0.02000  7.663E-03    0   0.8472   age078_m62            0.0000     9.7169E-05    13.7175   1.5439   155.4093
 40      0.0000     0.0000E+00    0.0000E+00    2.512000E+07  0.02000  4.532E-03    0   0.8099   age090_m62            0.0000     9.5765E-05    13.7326   1.5224   155.9303
 41      0.0000     0.0000E+00    0.0000E+00    5.500000E+07  0.02000  2.733E-03    0   0.7595   age110_m62            0.0000     7.4957E-05    12.0383   1.4922   158.3865
 42      0.0000     0.0000E+00    0.0000E+00    1.609000E+08  0.02000  1.369E-03    0   0.6985   age120_m62            0.0000     5.6455E-05    10.8105   1.2652   166.9958
 43      0.0000     0.0000E+00    0.0000E+00    2.861200E+08  0.02000  9.013E-04    0   0.6714   age125_m62            0.0000     4.6476E-05    10.1263   0.9821   173.9806
 44      0.0000     0.0000E+00    0.0000E+00    5.088000E+08  0.02000  5.028E-04    0   0.6449   age130_m62            0.0000     3.8627E-05     9.5479   0.6148   177.2477
 45      0.0000     0.0000E+00    0.0000E+00    9.047900E+08  0.02000  2.428E-04    0   0.6179   age135_m62            0.0000     3.8059E-05     9.1714   0.0872   171.6725
 46      0.0000     0.0000E+00    0.0000E+00    1.434000E+09  0.02000  1.263E-04    0   0.5908   age139_m62            0.0000     4.0211E-05     9.0064  -0.3276   166.9804
 47      0.0000     0.0000E+00    0.0000E+00    2.500000E+09  0.02000  5.985E-05    0   0.5673   age150_m62            0.0000     4.0732E-05     8.8410  -0.6721   162.8953
 48      0.0000     0.0000E+00    0.0000E+00    4.250000E+09  0.02000  3.271E-05    0   0.5468   age158_m62            0.0000     3.9798E-05     8.6158  -0.9737   160.9734
 49      0.0000     0.0000E+00    0.0000E+00    1.000000E+10  0.02000  1.360E-05    0   0.5167   age181_m62            0.0000     4.8013E-05    10.6745  -1.0000   143.8171
 50     60.6115     6.3762E+01    6.2692E+01    1.800000E+10  0.02000  7.124E-06    0   0.5013   age213_m62            0.0000     6.4020E-05    12.7952  -1.0000   132.1808
 51      0.0000     0.0000E+00    0.0000E+00    1.000000E+06  0.05000  2.592E-02    0   0.9998   age020_m72            0.0000     1.0609E-04    12.9964   2.8279   136.5650
 52      0.0000     0.0000E+00    0.0000E+00    3.160000E+06  0.05000  4.845E-02    0   0.9577   age045_m72            0.0000     9.2785E-05    12.3961   2.6164   142.0066
 53      0.0000     0.0000E+00    0.0000E+00    5.010000E+06  0.05000  3.072E-02    0   0.9147   age055_m72            0.0000     9.8981E-05    13.4824   2.1441   148.2368
 54      0.0000     0.0000E+00    0.0000E+00    6.610000E+06  0.05000  1.455E-02    0   0.8877   age061_m72            0.0000     1.5094E-04    18.5233   1.4485   154.6755
 55      0.0000     0.0000E+00    0.0000E+00    1.000000E+07  0.05000  9.074E-03    0   0.8524   age070_m72            0.0000     1.0111E-04    14.0193   2.3282   147.8156
 56      0.0000     0.0000E+00    0.0000E+00    2.512000E+07  0.05000  4.250E-03    0   0.7902   age090_m72            0.0000     8.7208E-05    13.2009   1.9815   153.5918
 57      0.0000     0.0000E+00    0.0000E+00    4.000000E+07  0.05000  3.087E-03    0   0.7618   age104_m72            0.0000     8.2750E-05    13.1135   1.7325   157.6820
 58      0.0000     0.0000E+00    0.0000E+00    1.015200E+08  0.05000  1.700E-03    0   0.7096   age116_m72            0.0000     6.1132E-05    11.2830   1.4123   166.1496
 59      0.0000     0.0000E+00    0.0000E+00    2.861200E+08  0.05000  7.384E-04    0   0.6633   age125_m72            0.0000     4.1630E-05     9.6842   0.8545   175.6260
 60      0.0000     0.0000E+00    0.0000E+00    5.088000E+08  0.05000  3.819E-04    0   0.6372   age130_m72            0.0000     3.6969E-05     9.0879   0.4037   174.9520
 61      0.0000     0.0000E+00    0.0000E+00    9.047900E+08  0.05000  1.676E-04    0   0.6110   age135_m72            0.0000     3.7741E-05     8.6772  -0.2349   167.3185
 62      0.0000     0.0000E+00    0.0000E+00    1.434000E+09  0.05000  8.837E-05    0   0.5874   age139_m72            0.0000     3.9493E-05     8.6762  -0.6733   165.2363
 63      0.0000     0.0000E+00    0.0000E+00    2.500000E+09  0.05000  4.233E-05    0   0.5598   age150_m72            0.0000     3.8709E-05     8.5598  -0.9682   161.7528
 64     69.3885     3.6238E+01    3.7308E+01    6.250000E+09  0.05000  1.435E-05    0   0.5249   age166_m72            0.0000     5.4389E-05    11.6304  -1.0000   138.3469
 65      0.0000     0.0000E+00    0.0000E+00    1.300000E+10  0.05000  6.513E-06    0   0.5036   age193_m72            0.0000     8.2004E-05    14.6714  -1.0000   125.7332
 66      0.0000     0.0000E+00    0.0000E+00    1.800000E+10  0.05000  4.527E-06    0   0.4945   age213_m72            0.0000     1.0362E-04    16.3725  -1.0000   117.7575


## Synthesis Results - Average & Chains ##

# j      x_j: min, <> & last-chain-values for 1 ...  7 chains
  1      0.0000      0.3232      0.0091      0.0122      0.0000      0.0525      0.1227      0.0429      0.0000
  2      0.0000      0.3364      0.0229      0.0426      0.0321      0.0218      0.0402      0.0375      0.0091
  3      0.0000      0.3451      0.0000      0.1171      0.0320      0.0194      0.0525      0.0000      0.0079
  4      0.0000      0.2704      0.1002      0.0109      0.0000      0.0610      0.0317      0.0000      0.0000
  5      0.0000      0.2842      0.0000      0.0883      0.0059      0.0486      0.1111      0.0125      0.0000
  6      0.0000      0.2786      0.0785      0.1301      0.0814      0.0648      0.0000      0.0182      0.0000
  7      0.0000      0.4198      0.0550      0.0161      0.0068      0.0952      0.0638      0.0000      0.0000
  8      0.0000      0.4329      0.0000      0.0273      0.0936      0.0522      0.0091      0.0537      0.0000
  9      0.0000      0.3066      0.0276      0.0000      0.0108      0.0057      0.0101      0.0102      0.0053
 10      0.0000      0.2928      0.0327      0.0669      0.0000      0.0370      0.0439      0.2033      0.0132
 11      0.0000      0.3713      0.0378      0.0609      0.0000      0.0140      0.0284      0.0222      0.0000
 12      0.0000      0.3587      0.0701      0.0000      0.0218      0.0465      0.0243      0.0688      0.0096
 13      0.0000      0.2826      0.0177      0.0662      0.0306      0.0077      0.0678      0.0622      0.0130
 14      0.0000      0.3123      0.0000      0.0335      0.0000      0.0110      0.0000      0.0692      0.0065
 15      0.0000      0.3435      0.0396      0.0502      0.0409      0.0264      0.1168      0.0000      0.0103
 16      0.0000      0.2926      0.0519      0.0394      0.0135      0.0785      0.0281      0.0441      0.0443
 17      0.0000      0.2959      0.0304      0.0890      0.0522      0.0326      0.0053      0.0138      0.0000
 18      0.0000      0.2589      0.0023      0.0349      0.0096      0.0000      0.0508      0.0155      0.0315
 19      0.0000      0.3203      0.0051      0.1202      0.0122      0.0632      0.0390      0.0491      0.0180
 20      0.0000      0.4563      0.0536      0.0543      0.0000      0.1017      0.0243      0.0615      0.0016
 21      0.0000      0.3407      0.0000      0.0351      0.0000      0.0540      0.0961      0.0021      0.0000
 22      0.0000      0.3113      0.0294      0.0783      0.0000      0.0291      0.0915      0.0190      0.0347
 23      0.0000      0.3706      0.0505      0.0217      0.0616      0.0484      0.0479      0.0101      0.0002
 24      0.0000      0.4633      0.1137      0.0616      0.1411      0.0347      0.1035      0.0000      0.0110
 25      0.0000      0.2704      0.0421      0.0346      0.0000      0.0469      0.0177      0.0000      0.0000
 26      0.0000      0.3815      0.0521      0.0723      0.0121      0.0253      0.0979      0.0000      0.0000
 27      0.0000      0.3457      0.0276      0.1311      0.0448      0.1239      0.0012      0.0027      0.0011
 28      0.0000      0.2934      0.0256      0.0000      0.0000      0.0370      0.0816      0.0000      0.0000
 29      0.0000      0.2943      0.0721      0.1166      0.0093      0.0092      0.0324      0.0421      0.0487
 30      0.0000      0.3204      0.0782      0.0855      0.0397      0.0313      0.0217      0.0209      0.0000
 31      0.0000      0.2606      0.0000      0.0451      0.0104      0.0284      0.0530      0.0685      0.0000
 32      0.0000      0.3737      0.0508      0.0000      0.0073      0.0572      0.0186      0.0070      0.0029
 33      0.0000      0.3205      0.0715      0.0170      0.0000      0.0553      0.0892      0.0138      0.0052
 34      0.0000      0.3822      0.0114      0.0675      0.0103      0.0502      0.0357      0.0229      0.0072
 35      0.0000      0.3330      0.1087      0.0163      0.0294      0.0470      0.0648      0.0082      0.0062
 36      0.0000      0.3939      0.0000      0.0000      0.0000      0.0731      0.0000      0.0753      0.0117
 37      0.0000      0.3526      0.0456      0.0426      0.0000      0.0131      0.0000      0.0366      0.0065
 38      0.0000      0.4516      0.0504      0.0396      0.0406      0.0753      0.0000      0.0199      0.0049
 39      0.0000      0.2835      0.0000      0.0539      0.0434      0.0093      0.0144      0.0026      0.0000
 40      0.0000      0.3616      0.0289      0.0315      0.0094      0.0288      0.0166      0.0064      0.0000
 41      0.0000      0.3598      0.0544      0.0000      0.0242      0.0403      0.0287      0.0553      0.0035
 42      0.0000      0.2918      0.1114      0.0130      0.1572      0.0093      0.0551      0.0000      0.0043
 43      0.0000      0.4061      0.0855      0.0039      0.0683      0.0045      0.0564      0.0296      0.0033
 44      0.0000      4.3354      4.0977      3.4734      4.8869      4.0070      3.8102      2.6092      8.2532
 45      0.0000      0.3379      0.0471      0.0000      0.0056      0.0784      0.0319      0.0924      0.0172
 46      0.0000      0.3358      0.0425      0.0000      0.0234      0.0214      0.0974      0.0471      0.0000
 47      0.0000      0.3509      0.1425      0.1251      0.0180      0.0028      0.0000      0.0239      0.0250
 48      0.0000      0.4071      0.3070      0.4254      0.1032      0.2925      0.4167      0.3447      0.0369
 49      0.0000      6.2295      6.2613      6.1415     10.5321      6.2370      6.1294      6.3585      6.0935
 50     60.6115      5.0620      4.7030      4.6736      8.1625      4.7489      4.6139      4.6294      7.4614
 51      0.0000      0.2897      0.0515      0.0174      0.0066      0.0051      0.0346      0.0223      0.0006
 52      0.0000      0.3393      0.0677      0.0270      0.0326      0.1283      0.0000      0.0117      0.0000
 53      0.0000      0.3313      0.0408      0.0841      0.0000      0.0660      0.0158      0.1651      0.0217
 54      0.0000      0.3678      0.0416      0.0460      0.0000      0.0778      0.1388      0.1444      0.0000
 55      0.0000      0.3920      0.0906      0.0049      0.0416      0.0579      0.0798      0.0327      0.0179
 56      0.0000      0.3596      0.1137      0.0000      0.0281      0.0472      0.0000      0.0540      0.0026
 57      0.0000      0.3388      0.0446      0.0229      0.0000      0.0401      0.0000      0.0332      0.0104
 58      0.0000      0.3351      0.0130      0.0061      0.0085      0.1262      0.0423      0.0528      0.0000
 59      0.0000      0.2859      0.0810      0.0707      0.0000      0.0227      0.0074      0.0304      0.0000
 60      0.0000     15.2705     13.1700     18.2329     24.2518     17.8918     18.0765     18.5378     13.5096
 61      0.0000     35.2605     52.9416     47.6584     14.6578     47.7708     47.7539     49.7785     28.5953
 62      0.0000      0.3482      0.0394      0.0324      0.0033      0.1579      0.1712      0.0373      0.0000
 63      0.0000     27.8195     29.6906     30.3847     48.2899     29.9507     30.1582     29.2642     43.9459
 64     69.3885      4.5449      4.1847      4.4756      6.2779      4.4630      4.3612      4.4956     10.3913
 65      0.0000      0.5696      0.5658      0.5694      0.6932      0.5461      0.6692      0.5127      0.3923
 66      0.0000      0.2786      0.0335      0.0141      0.0000      0.0000      0.0166      0.0176      0.0000

# j      m_j: min, <> & last-chain-values for 1 ...  7 chains
  1  0.0000E+00  2.0385E-03  5.9238E-05  7.9364E-05  0.0000E+00  3.4298E-04  8.0278E-04  2.8255E-04  0.0000E+00
  2  0.0000E+00  5.7926E-04  4.0886E-05  7.5767E-05  3.9977E-05  3.8892E-05  7.1771E-05  6.7316E-05  1.2087E-05
  3  0.0000E+00  8.8991E-04  0.0000E+00  3.1223E-04  5.9649E-05  5.1785E-05  1.4058E-04  0.0000E+00  1.5615E-05
  4  0.0000E+00  6.5667E-04  2.5218E-04  2.7420E-05  0.0000E+00  1.5344E-04  7.9825E-05  0.0000E+00  0.0000E+00
  5  0.0000E+00  1.3146E-03  0.0000E+00  4.2220E-04  1.9712E-05  2.3299E-04  5.3326E-04  6.0168E-05  0.0000E+00
  6  0.0000E+00  2.0902E-03  6.1106E-04  1.0095E-03  4.4201E-04  5.0395E-04  0.0000E+00  1.4271E-04  0.0000E+00
  7  0.0000E+00  4.5094E-03  6.1244E-04  1.7930E-04  5.2472E-05  1.0601E-03  7.1093E-04  0.0000E+00  0.0000E+00
  8  0.0000E+00  6.4263E-03  0.0000E+00  4.1861E-04  1.0058E-03  8.0397E-04  1.4071E-04  8.3194E-04  0.0000E+00
  9  0.0000E+00  5.2088E-03  4.8589E-04  0.0000E+00  1.3265E-04  1.0005E-04  1.7771E-04  1.8023E-04  6.8577E-05
 10  0.0000E+00  6.5342E-03  7.5702E-04  1.5449E-03  0.0000E+00  8.5567E-04  1.0170E-03  4.7364E-03  2.2628E-04
 11  0.0000E+00  1.5582E-02  1.6440E-03  2.6429E-03  0.0000E+00  6.0703E-04  1.2376E-03  9.7281E-04  0.0000E+00
 12  0.0000E+00  2.3882E-02  4.8368E-03  0.0000E+00  1.0497E-03  3.2111E-03  1.6774E-03  4.7837E-03  4.9267E-04
 13  0.0000E+00  5.3031E-02  3.4482E-03  1.2846E-02  4.1525E-03  1.4925E-03  1.3207E-02  1.2191E-02  1.8703E-03
 14  0.0000E+00  1.9655E-01  0.0000E+00  2.1816E-02  0.0000E+00  7.1778E-03  0.0000E+00  4.5448E-02  3.1374E-03
 15  0.0000E+00  3.5198E-01  4.2084E-02  5.3210E-02  3.0359E-02  2.8058E-02  1.2416E-01  0.0000E+00  8.0725E-03
 16  0.0000E+00  5.0696E-01  9.3225E-02  7.0614E-02  1.6889E-02  1.4087E-01  5.0522E-02  7.9667E-02  5.8932E-02
 17  0.0000E+00  6.6495E-01  7.0918E-02  2.0683E-01  8.4879E-02  7.6033E-02  1.2380E-02  3.2367E-02  0.0000E+00
 18  0.0000E+00  1.4427E-03  1.3455E-05  2.0132E-04  3.8863E-05  0.0000E+00  2.9352E-04  8.9934E-05  1.3494E-04
 19  0.0000E+00  7.1656E-04  1.1738E-05  2.7814E-04  1.9691E-05  1.4650E-04  9.0573E-05  1.1457E-04  3.0827E-05
 20  0.0000E+00  1.1144E-03  1.3563E-04  1.3724E-04  0.0000E+00  2.5738E-04  6.1561E-05  1.5690E-04  2.9246E-06
 21  0.0000E+00  1.0101E-03  0.0000E+00  1.0755E-04  0.0000E+00  1.6593E-04  2.9545E-04  6.5635E-06  0.0000E+00
 22  0.0000E+00  1.5607E-03  1.5263E-04  4.0569E-04  0.0000E+00  1.5105E-04  4.7604E-04  9.9280E-05  1.3348E-04
 23  0.0000E+00  2.5088E-03  3.5467E-04  1.5200E-04  3.0198E-04  3.3974E-04  3.3665E-04  7.1150E-05  1.0758E-06
 24  0.0000E+00  4.6660E-03  1.1871E-03  6.4150E-04  1.0286E-03  3.6247E-04  1.0819E-03  0.0000E+00  8.4957E-05
 25  0.0000E+00  3.7549E-03  6.0568E-04  4.9709E-04  0.0000E+00  6.7499E-04  2.5562E-04  0.0000E+00  0.0000E+00
 26  0.0000E+00  8.8551E-03  1.2540E-03  1.7355E-03  2.0248E-04  6.0950E-04  2.3584E-03  0.0000E+00  0.0000E+00
 27  0.0000E+00  1.6062E-02  1.3305E-03  6.2972E-03  1.5055E-03  5.9687E-03  6.0197E-05  1.3158E-04  3.8873E-05
 28  0.0000E+00  3.9557E-02  3.5735E-03  0.0000E+00  0.0000E+00  5.1752E-03  1.1418E-02  0.0000E+00  4.7259E-07
 29  0.0000E+00  6.9148E-02  1.7555E-02  2.8335E-02  1.5847E-03  2.2419E-03  7.8996E-03  1.0321E-02  8.7829E-03
 30  0.0000E+00  1.5726E-01  3.9825E-02  4.3383E-02  1.4087E-02  1.5923E-02  1.1030E-02  1.0703E-02  0.0000E+00
 31  0.0000E+00  2.2500E-01  0.0000E+00  4.0267E-02  6.5131E-03  2.5404E-02  4.7438E-02  6.1704E-02  0.0000E+00
 32  0.0000E+00  4.3419E-01  6.1182E-02  0.0000E+00  6.1367E-03  6.8914E-02  2.2376E-02  8.4341E-03  2.5737E-03
 33  0.0000E+00  8.2426E-01  1.9071E-01  4.5127E-02  0.0000E+00  1.4735E-01  2.3792E-01  3.6959E-02  1.0361E-02
 34  0.0000E+00  1.3312E+00  4.1303E-02  2.4299E-01  2.5946E-02  1.8125E-01  1.2892E-01  8.3221E-02  1.9300E-02
 35  0.0000E+00  1.4882E-03  5.0355E-04  7.5270E-05  9.5059E-05  2.1757E-04  3.0059E-04  3.8025E-05  2.1381E-05
 36  0.0000E+00  7.1215E-04  0.0000E+00  0.0000E+00  0.0000E+00  1.3702E-04  0.0000E+00  1.4206E-04  1.6184E-05
 37  0.0000E+00  6.8951E-04  9.2550E-05  8.6116E-05  0.0000E+00  2.6458E-05  0.0000E+00  7.4784E-05  9.8269E-06
 38  0.0000E+00  2.3926E-03  2.7704E-04  2.1674E-04  1.5550E-04  4.1355E-04  0.0000E+00  1.0983E-04  1.9954E-05
 39  0.0000E+00  2.1628E-03  0.0000E+00  4.2541E-04  2.3973E-04  7.3269E-05  1.1414E-04  2.0652E-05  0.0000E+00
 40  0.0000E+00  4.4587E-03  3.6892E-04  4.0124E-04  8.4269E-05  3.6757E-04  2.1223E-04  8.2444E-05  0.0000E+00
 41  0.0000E+00  6.8998E-03  1.0808E-03  0.0000E+00  3.3552E-04  8.0180E-04  5.7165E-04  1.1060E-03  5.1620E-05
 42  0.0000E+00  1.0274E-02  4.0657E-03  4.7378E-04  4.0058E-03  3.4067E-04  2.0139E-03  0.0000E+00  1.1484E-04
 43  0.0000E+00  2.0875E-02  4.5573E-03  2.0748E-04  2.5411E-03  2.4021E-04  3.0058E-03  1.5904E-03  1.3115E-04
 44  0.0000E+00  3.8369E-01  3.7606E-01  3.1787E-01  3.1298E-01  3.6755E-01  3.4986E-01  2.4104E-01  5.6051E-01
 45  0.0000E+00  5.9327E-02  8.5696E-03  0.0000E+00  7.1186E-04  1.4264E-02  5.8124E-03  1.6941E-02  2.3140E-03
 46  0.0000E+00  1.0840E-01  1.4227E-02  0.0000E+00  5.4586E-03  7.1490E-03  3.2613E-02  1.5885E-02  0.0000E+00
 47  0.0000E+00  2.2950E-01  9.6654E-02  8.4631E-02  8.5253E-03  1.8681E-03  0.0000E+00  1.6301E-02  1.2562E-02
 48  0.0000E+00  4.6951E-01  3.6717E-01  5.0741E-01  8.6137E-02  3.4964E-01  4.9866E-01  4.1497E-01  3.2651E-02
 49  0.0000E+00  1.6331E+01  1.7021E+01  1.6649E+01  1.9980E+01  1.6947E+01  1.6671E+01  1.7400E+01  1.2258E+01
 50  6.2692E+01  2.4578E+01  2.3679E+01  2.3466E+01  2.8681E+01  2.3899E+01  2.3243E+01  2.3463E+01  2.7801E+01
 51  0.0000E+00  7.7102E-04  1.4222E-04  4.7862E-05  1.2649E-05  1.4113E-05  9.5628E-05  6.2008E-05  1.1301E-06
 52  0.0000E+00  4.6273E-04  9.5756E-05  3.8126E-05  3.2181E-05  1.8131E-04  0.0000E+00  1.6595E-05  0.0000E+00
 53  0.0000E+00  6.8069E-04  8.6852E-05  1.7874E-04  0.0000E+00  1.4045E-04  3.3671E-05  3.5412E-04  3.4276E-05
 54  0.0000E+00  1.5484E-03  1.8163E-04  2.0012E-04  0.0000E+00  3.3956E-04  6.0605E-04  6.3462E-04  0.0000E+00
 55  0.0000E+00  2.5406E-03  6.0890E-04  3.3012E-05  1.9524E-04  3.8928E-04  5.3667E-04  2.2134E-04  8.8870E-05
 56  0.0000E+00  4.6132E-03  1.5121E-03  0.0000E+00  2.6102E-04  6.2729E-04  0.0000E+00  7.2292E-04  2.5830E-05
 57  0.0000E+00  5.7686E-03  7.8771E-04  4.0314E-04  0.0000E+00  7.0702E-04  0.0000E+00  5.8992E-04  1.3652E-04
 58  0.0000E+00  9.6508E-03  3.8944E-04  1.8198E-04  1.7650E-04  3.7673E-03  1.2626E-03  1.5868E-03  0.0000E+00
 59  0.0000E+00  1.7718E-02  5.2064E-03  4.5334E-03  0.0000E+00  1.4597E-03  4.7744E-04  1.9663E-03  0.0000E+00
 60  0.0000E+00  1.7580E+00  1.5723E+00  2.1706E+00  2.0205E+00  2.1350E+00  2.1592E+00  2.2278E+00  1.1935E+00
 61  0.0000E+00  8.8696E+00  1.3809E+01  1.2397E+01  2.6682E+00  1.2455E+01  1.2463E+01  1.3071E+01  5.5198E+00
 62  0.0000E+00  1.5971E-01  1.8747E-02  1.5376E-02  1.1023E-03  7.5057E-02  8.1446E-02  1.7866E-02  0.0000E+00
 63  0.0000E+00  2.5385E+01  2.8094E+01  2.8671E+01  3.1888E+01  2.8327E+01  2.8552E+01  2.7875E+01  3.0773E+01
 64  3.7308E+01  1.1471E+01  1.0952E+01  1.1681E+01  1.1466E+01  1.1675E+01  1.1420E+01  1.1844E+01  2.0126E+01
 65  0.0000E+00  3.0391E+00  3.1303E+00  3.1413E+00  2.6764E+00  3.0198E+00  3.7042E+00  2.8553E+00  1.6061E+00
 66  0.0000E+00  2.0995E+00  2.6211E-01  1.0956E-01  0.0000E+00  0.0000E+00  1.2985E-01  1.3841E-01  0.0000E+00

# AV, chi2 & Mass for <> & i_chain = 1 ...  7 solutions
AV      -1.0000      0.1207      0.1794      0.1879     -0.0258      0.1949      0.1924      0.1915     -0.0166
chi2 6.3049E-05  1.2163E-04  1.0964E-04  1.1027E-04  1.0569E-04  1.1049E-04  1.1038E-04  1.1014E-04  1.0524E-04
Mass 4.2624E-13  4.0907E-13  4.2686E-13  4.3293E-13  4.6433E-13  4.3604E-13  4.3415E-13  4.3098E-13  4.4332E-13
 -47.88                                  [v0_min (km/s) before EX0s...]
 158.00                                  [vd_min (km/s) before EX0s...]


## Synthetic spectrum (Best Model) ##l_obs f_obs f_syn wei
 3478    [Nl_obs]
 3741.00    0.45633   0.60526    0.000
 3742.00    0.59743   0.57118    0.000
 3743.00    0.74270   0.52198    0.000
 3744.00    0.71766   0.47297    0.000
 3745.00    0.59339   0.43290    0.069
 3746.00    0.61124   0.40563    0.069
 3747.00    0.70125   0.39690    0.069
 3748.00    0.67865   0.41193    0.068
 3749.00    0.60654   0.45116    0.067
 3750.00    0.63958   0.51286    0.066
 3751.00    0.71231   0.58922    0.066
 3752.00    0.68326   0.66286    0.065
 3753.00    0.62160   0.71401    0.064
 3754.00    0.73448   0.73022    0.063
 3755.00    0.89414   0.71070    0.062
 3756.00    0.90101   0.66575    0.061
 3757.00    0.87435   0.61396    0.061
 3758.00    0.81928   0.57510    0.060
 3759.00    0.75925   0.56036    0.060
 3760.00    0.76847   0.56528    0.060
 3761.00    0.78688   0.57624    0.061
 3762.00    0.83678   0.58362    0.060
 3763.00    0.88965   0.58486    0.060
 3764.00    0.93252   0.58440    0.059
 3765.00    0.97480   0.59093    0.059
 3766.00    0.87136   0.60791    0.059
 3767.00    0.76523   0.63304    0.059
 3768.00    0.75217   0.66756    0.059
 3769.00    0.74407   0.70982    0.059
 3770.00    0.85644   0.74968    0.060
 3771.00    0.95391   0.77889    0.060
 3772.00    0.85615   0.79743    0.060
 3773.00    0.77319   0.80666    0.059
 3774.00    0.82025   0.80763    0.059
 3775.00    0.85119   0.80517    0.059
 3776.00    0.77764   0.80722    0.059
 3777.00    0.71629   0.81742    0.060
 3778.00    0.71666   0.83298    0.060
 3779.00    0.68606   0.85012    0.060
 3780.00    0.52868   0.86622    0.060
 3781.00    0.44311   0.87525    0.060
 3782.00    0.60106   0.86902    0.061
 3783.00    0.67998   0.84357    0.061
 3784.00    0.53284   0.80074    0.062
 3785.00    0.41060   0.74499    0.061
 3786.00    0.34917   0.68515    0.060
 3787.00    0.29753   0.63624    0.059
 3788.00    0.26649   0.61019    0.058
 3789.00    0.27599   0.60404    0.058
 3790.00    0.35972   0.60717    0.059
 3791.00    0.41562   0.61035    0.059
 3792.00    0.42695   0.60709    0.058
 3793.00    0.44069   0.59474    0.073
 3794.00    0.45780   0.57631    0.206
 3795.00    0.47541   0.55838   -1.000
 3796.00    0.49363   0.54738   -1.000
 3797.00    0.48201   0.54778   -1.000
 3798.00    0.43787   0.56133   -1.000
 3799.00    0.35452   0.59021   -1.000
 3800.00    0.23351   0.63357   -1.000
 3801.00    0.22610   0.68151   -1.000
 3802.00    0.31496   0.71996   -1.000
 3803.00    0.51596   0.74001   -1.000
 3804.00    0.80063   0.74168   -1.000
 3805.00    0.93750   0.73192   -1.000
 3806.00    0.97749   0.72079   -1.000
 3807.00    0.83928   0.71620   -1.000
 3808.00    0.59880   0.71995   -1.000
 3809.00    0.55682   0.72471   -1.000
 3810.00    0.61405   0.71731   -1.000
 3811.00    0.63445   0.69037   -1.000
 3812.00    0.63891   0.64663   -1.000
 3813.00    0.68776   0.59658   -1.000
 3814.00    0.75306   0.55305   -1.000
 3815.00    0.60024   0.52238   -1.000
 3816.00    0.37886   0.50149   -1.000
 3817.00    0.32335   0.48523   -1.000
 3818.00    0.31135   0.47078   -1.000
 3819.00    0.30923   0.45639   -1.000
 3820.00    0.30922   0.44294   -1.000
 3821.00    0.47926   0.43265   -1.000
 3822.00    0.67815   0.42450   -1.000
 3823.00    0.75720   0.41357   -1.000
 3824.00    0.82087   0.39800   -1.000
 3825.00    0.68057   0.38359   -1.000
 3826.00    0.52195   0.37837   -1.000
 3827.00    0.38689   0.38349   -1.000
 3828.00    0.25309   0.39281   -1.000
 3829.00    0.13122   0.39898   -1.000
 3830.00    0.01182   0.39912   -1.000
 3831.00    0.08152   0.39499   -1.000
 3832.00    0.15396   0.39111   -1.000
 3833.00    0.28717   0.39169   -1.000
 3834.00    0.41511   0.39710   -1.000
 3835.00    0.47742   0.40317   -1.000
 3836.00    0.53642   0.40532   -1.000
 3837.00    0.56741   0.40271   -1.000
 3838.00    0.58125   0.40148   -1.000
 3839.00    0.48709   0.41175   -1.000
 3840.00    0.39516   0.43812   -1.000
 3841.00    0.31424   0.47646   -1.000
 3842.00    0.25820   0.51835   -1.000
 3843.00    0.30180   0.55441   -1.000
 3844.00    0.33550   0.57761   -1.000
 3845.00    0.33628   0.58664   -1.000
 3846.00    0.28067   0.58405   -1.000
 3847.00    0.06667   0.57455    0.000
 3848.00   -0.08747   0.56390    0.000
 3849.00   -0.09785   0.55489    0.000
 3850.00   -0.00555   0.54840    0.000
 3851.00    0.29974   0.54519    0.000
 3852.00    0.49302   0.54211    0.000
 3853.00    0.48429   0.53272    0.000
 3854.00    0.51287   0.51504    0.000
 3855.00    0.60026   0.49210    0.000
 3856.00    0.55889   0.46752    0.000
 3857.00    0.33927   0.44629    0.000
 3858.00    0.25312   0.43558    0.000
 3859.00    0.32961   0.44051    0.000
 3860.00    0.39087   0.46188    0.000
 3861.00    0.43575   0.49507    0.000
 3862.00    0.47360   0.52973    0.000
 3863.00    0.50479   0.55464    0.000
 3864.00    0.60476   0.56376    0.000
 3865.00    0.76219   0.55884    0.000
 3866.00    0.82571   0.54550    0.000
 3867.00    0.82016   0.52771    0.000
 3868.00    0.71553   0.50772    0.000
 3869.00    0.54691   0.48956    0.000
 3870.00    0.48062   0.48028    0.000
 3871.00    0.47216   0.48603    0.000
 3872.00    0.47947   0.50715    0.000
 3873.00    0.49452   0.53603    0.000
 3874.00    0.45405   0.56048    0.000
 3875.00    0.38996   0.57046    0.000
 3876.00    0.44832   0.56361    0.000
 3877.00    0.55129   0.54587    0.000
 3878.00    0.57810   0.52731    0.000
 3879.00    0.58145   0.51758    0.000
 3880.00    0.52071   0.52137    0.000
 3881.00    0.44352   0.53384   -1.000
 3882.00    0.53057   0.54626   -1.000
 3883.00    0.65196   0.55493   -1.000
 3884.00    0.62994   0.55946   -1.000
 3885.00    0.58428   0.55937   -1.000
 3886.00    0.48824   0.55994   -1.000
 3887.00    0.38596   0.57413   -1.000
 3888.00    0.46748   0.60907   -1.000
 3889.00    0.56474   0.65796   -1.000
 3890.00    0.62571   0.70849   -1.000
 3891.00    0.68487   0.75005   -1.000
 3892.00    0.64408   0.77534   -1.000
 3893.00    0.60207   0.78377   -1.000
 3894.00    0.58748   0.78036   -1.000
 3895.00    0.57290   0.77171   -1.000
 3896.00    0.55863   0.76348   -1.000
 3897.00    0.55953   0.75922   -1.000
 3898.00    0.73986   0.75749   -1.000
 3899.00    0.89308   0.75443   -1.000
 3900.00    0.82538   0.74999   -1.000
 3901.00    0.74471   0.74402   -1.000
 3902.00    0.58483   0.73409   -1.000
 3903.00    0.47130   0.72106   -1.000
 3904.00    0.58076   0.71360   -1.000
 3905.00    0.67570   0.72032   -1.000
 3906.00    0.71379   0.74214   -1.000
 3907.00    0.73828   0.77652   -1.000
 3908.00    0.71842   0.81725   -1.000
 3909.00    0.72506   0.85413   -1.000
 3910.00    0.80480   0.88044   -1.000
 3911.00    0.87508   0.89536   -1.000
 3912.00    0.92301   0.90010   -1.000
 3913.00    0.90705   0.89469   -1.000
 3914.00    0.76066   0.87903   -1.000
 3915.00    0.69137   0.85413   -1.000
 3916.00    0.75901   0.82086   -1.000
 3917.00    0.81174   0.78045   -1.000
 3918.00    0.84130   0.73741   -1.000
 3919.00    0.79676   0.69740   -1.000
 3920.00    0.65111   0.66566   -1.000
 3921.00    0.57013   0.64574   -1.000
 3922.00    0.56683   0.63595   -1.000
 3923.00    0.56488   0.62835   -1.000
 3924.00    0.56435   0.61262   -1.000
 3925.00    0.61172   0.58226   -1.000
 3926.00    0.70383   0.53668   -1.000
 3927.00    0.69892   0.48127   -1.000
 3928.00    0.61413   0.42398   -1.000
 3929.00    0.44594   0.37162   -1.000
 3930.00    0.21731   0.32891   -1.000
 3931.00    0.13154   0.29810   -1.000
 3932.00    0.13669   0.28064   -1.000
 3933.00    0.25310   0.27808   -1.000
 3934.00    0.43145   0.29148   -1.000
 3935.00    0.48092   0.32066   -1.000
 3936.00    0.46802   0.36316   -1.000
 3937.00    0.53373   0.41361   -1.000
 3938.00    0.63232   0.46415   -1.000
 3939.00    0.80410   0.50717   -1.000
 3940.00    1.00205   0.53874   -1.000
 3941.00    0.96287   0.56107   -1.000
 3942.00    0.85201   0.58127   -1.000
 3943.00    0.76587   0.60652   -1.000
 3944.00    0.68593   0.63968   -1.000
 3945.00    0.83217   0.68001   -1.000
 3946.00    1.02453   0.72402   -1.000
 3947.00    0.92262   0.76512   -1.000
 3948.00    0.77360   0.79824   -1.000
 3949.00    0.74207   0.82439   -1.000
 3950.00    0.72456   0.84626   -1.000
 3951.00    0.87693   0.86249   -1.000
 3952.00    1.04314   0.87043   -1.000
 3953.00    0.96666   0.87088   -1.000
 3954.00    0.87904   0.86707   -1.000
 3955.00    0.79830   0.85892   -1.000
 3956.00    0.71749   0.84207   -1.000
 3957.00    0.62848   0.81420   -1.000
 3958.00    0.54408   0.77549   -1.000
 3959.00    0.54688   0.72510   -1.000
 3960.00    0.54398   0.66379    0.000
 3961.00    0.47692   0.59716    0.000
 3962.00    0.42165   0.53354    0.000
 3963.00    0.45903   0.47858    0.000
 3964.00    0.49613   0.43123    0.000
 3965.00    0.53153   0.38826    0.000
 3966.00    0.56230   0.35143    0.000
 3967.00    0.57129   0.32722    0.000
 3968.00    0.57294   0.32202    0.000
 3969.00    0.54648   0.33832    0.000
 3970.00    0.53988   0.37449    0.000
 3971.00    0.59678   0.42659    0.000
 3972.00    0.61737   0.48945    0.000
 3973.00    0.53964   0.55843    0.000
 3974.00    0.48531   0.63026    0.000
 3975.00    0.48530   0.70260    0.000
 3976.00    0.51652   0.77283    0.000
 3977.00    0.61047   0.83680    0.000
 3978.00    0.72994   0.89046    0.000
 3979.00    0.89406   0.93064    0.000
 3980.00    0.97654   0.95598    0.000
 3981.00    0.93404   0.96935   -1.000
 3982.00    0.89684   0.97682   -1.000
 3983.00    0.86674   0.98602   -1.000
 3984.00    0.94741   1.00202   -1.000
 3985.00    1.15925   1.02321   -1.000
 3986.00    1.26526   1.04513   -1.000
 3987.00    1.26075   1.06381   -1.000
 3988.00    1.17737   1.07780   -1.000
 3989.00    1.02135   1.08804   -1.000
 3990.00    0.95367   1.09480   -1.000
 3991.00    0.95773   1.09934   -1.000
 3992.00    0.97003   1.10127   -1.000
 3993.00    0.98822   1.09717   -1.000
 3994.00    0.95596   1.08700   -1.000
 3995.00    0.89208   1.07669   -1.000
 3996.00    0.95931   1.07450   -1.000
 3997.00    1.09840   1.08600   -1.000
 3998.00    1.00045   1.11133   -1.000
 3999.00    0.78958   1.14412   -1.000
 4000.00    0.88935   1.17176   -1.000
 4001.00    1.11679   1.18101   -1.000
 4002.00    1.02485   1.16764   -1.000
 4003.00    0.82072   1.13885   -1.000
 4004.00    0.90265   1.10710   -1.000
 4005.00    1.06933   1.08560   -1.000
 4006.00    1.15580   1.08475   -1.000
 4007.00    1.22257   1.10635   -1.000
 4008.00    1.08173   1.14031   -1.000
 4009.00    0.89961   1.17290   -1.000
 4010.00    0.79522   1.19756   -1.000
 4011.00    0.70291   1.21555   -1.000
 4012.00    0.80400   1.22951   -1.000
 4013.00    0.92732   1.24018   -1.000
 4014.00    1.04937   1.24788   -1.000
 4015.00    1.17131   1.25278   -1.000
 4016.00    1.26920   1.25550   -1.000
 4017.00    1.36608   1.25679   -1.000
 4018.00    1.08600   1.25718   -1.000
 4019.00    0.80758   1.25681   -1.000
 4020.00    0.75274   1.25351   -1.000
 4021.00    0.71266   1.24566   -1.000
 4022.00    0.93265   1.23690   -1.000
 4023.00    1.13667   1.23330   -1.000
 4024.00    1.16886   1.23762   -1.000
 4025.00    1.20866   1.24636   -1.000
 4026.00    1.30631   1.25077   -1.000
 4027.00    1.35444   1.23991   -1.000
 4028.00    1.11692   1.20532   -1.000
 4029.00    0.88746   1.14835   -1.000
 4030.00    0.69489   1.08225   -1.000
 4031.00    0.59899   1.02696   -1.000
 4032.00    0.86573   1.00188   -1.000
 4033.00    1.05863   1.01547   -1.000
 4034.00    1.02011   1.06197   -1.000
 4035.00    0.99380   1.12755   -1.000
 4036.00    1.00000   1.19455   -1.000
 4037.00    1.03416   1.24645   -1.000
 4038.00    1.13215   1.27315   -1.000
 4039.00    1.17796   1.27172   -1.000
 4040.00    1.12060   1.24432   -1.000
 4041.00    1.09635   1.19495   -1.000
 4042.00    1.12917   1.12991   -1.000
 4043.00    1.11777   1.06040   -1.000
 4044.00    1.03968   1.00308   -1.000
 4045.00    0.93532   0.97719   -1.000
 4046.00    0.79612   0.99535   -1.000
 4047.00    0.76886   1.05252   -1.000
 4048.00    0.87228   1.12631   -1.000
 4049.00    0.98767   1.18930   -1.000
 4050.00    1.11538   1.22461   -1.000
 4051.00    1.10769   1.23061   -1.000
 4052.00    0.97704   1.21388   -1.000
 4053.00    0.84573   1.18334   -1.000
 4054.00    0.71391   1.14903   -1.000
 4055.00    0.68602   1.11945   -1.000
 4056.00    0.73130   1.09980   -1.000
 4057.00    0.86570   1.09113   -1.000
 4058.00    1.05514   1.08805   -1.000
 4059.00    1.02296   1.08210   -1.000
 4060.00    0.87119   1.06681   -1.000
 4061.00    0.83729   1.04063   -1.000
 4062.00    0.85864   1.01051   -1.000
 4063.00    0.82093   0.99079   -1.000
 4064.00    0.75936   0.99447   -1.000
 4065.00    0.85610   1.02329   -1.000
 4066.00    1.00743   1.06491   -1.000
 4067.00    0.99717   1.10105   -1.000
 4068.00    0.93999   1.12103   -1.000
 4069.00    0.90224   1.12519   -1.000
 4070.00    0.86916   1.11883   -1.000
 4071.00    0.83641   1.10841   -1.000
 4072.00    0.80373   1.09939   -1.000
 4073.00    0.83995   1.09293   -1.000
 4074.00    0.88655   1.08472   -1.000
 4075.00    1.00631   1.07183   -1.000
 4076.00    1.13416   1.06214   -1.000
 4077.00    1.18862   1.07007   -1.000
 4078.00    1.23770   1.10270   -1.000
 4079.00    1.11626   1.15282   -1.000
 4080.00    0.98829   1.20318   -1.000
 4081.00    0.99604   1.23821   -1.000
 4082.00    1.00803   1.25414   -1.000
 4083.00    1.15203   1.25919   -1.000
 4084.00    1.28495   1.26697   -1.000
 4085.00    1.23539   1.28702   -1.000
 4086.00    1.17474   1.31826   -1.000
 4087.00    0.99991   1.35097   -1.000
 4088.00    0.86345   1.37415   -1.000
 4089.00    1.00858   1.38114   -1.000
 4090.00    1.13456   1.37138   -1.000
 4091.00    1.15314   1.34922   -1.000
 4092.00    1.18065   1.31970    0.000
 4093.00    1.24809   1.28514    0.000
 4094.00    1.25814   1.24681    0.000
 4095.00    1.05740   1.20633    0.000
 4096.00    0.92586   1.16561    0.000
 4097.00    1.00718   1.12767    0.000
 4098.00    1.06766   1.09474    0.000
 4099.00    1.07368   1.06771    0.000
 4100.00    1.04479   1.05015    0.000
 4101.00    0.93751   1.04867    0.000
 4102.00    0.84663   1.06785    0.000
 4103.00    0.78768   1.10580    0.000
 4104.00    0.74592   1.15241    0.000
 4105.00    0.73333   1.19380    0.000
 4106.00    0.78083   1.22024    0.000
 4107.00    0.91764   1.22923    0.000
 4108.00    1.00635   1.22431    0.000
 4109.00    1.03221   1.21384    0.000
 4110.00    0.98277   1.20746    0.000
 4111.00    0.84666   1.21128    0.000
 4112.00    0.77454   1.22528    0.000
 4113.00    0.76738   1.24364   -1.000
 4114.00    0.79340   1.25823   -1.000
 4115.00    0.84914   1.26250   -1.000
 4116.00    0.88382   1.25431   -1.000
 4117.00    0.90189   1.23743   -1.000
 4118.00    1.01354   1.21893   -1.000
 4119.00    1.19013   1.20520   -1.000
 4120.00    1.27067   1.20020   -1.000
 4121.00    1.29275   1.20407   -1.000
 4122.00    1.18822   1.21276   -1.000
 4123.00    1.01643   1.22105   -1.000
 4124.00    0.90763   1.22518   -1.000
 4125.00    0.82787   1.22220   -1.000
 4126.00    0.94127   1.20971   -1.000
 4127.00    1.13137   1.18732   -1.000
 4128.00    1.14487   1.15774   -1.000
 4129.00    1.09861   1.12514   -1.000
 4130.00    0.97887   1.09467   -1.000
 4131.00    0.83822   1.07290   -1.000
 4132.00    0.95182   1.06676   -1.000
 4133.00    1.12511   1.08080   -1.000
 4134.00    1.06306   1.11358   -1.000
 4135.00    0.95660   1.15638   -1.000
 4136.00    0.87829   1.19663   -1.000
 4137.00    0.80410   1.22278   -1.000
 4138.00    1.00461   1.22668   -1.000
 4139.00    1.23432   1.20612   -1.000
 4140.00    1.14576   1.16529   -1.000
 4141.00    1.03519   1.11417   -1.000
 4142.00    0.89750   1.06816   -1.000
 4143.00    0.75886   1.04236   -1.000
 4144.00    0.84163   1.04319   -1.000
 4145.00    0.92594   1.06541   -1.000
 4146.00    1.04647   1.09456   -1.000
 4147.00    1.15145   1.11524   -1.000
 4148.00    1.01603   1.12079   -1.000
 4149.00    0.91075   1.11444   -1.000
 4150.00    1.10250   1.10275   -1.000
 4151.00    1.26399   1.09075   -1.000
 4152.00    1.21070   1.08126   -1.000
 4153.00    1.14769   1.07573   -1.000
 4154.00    1.03163   1.07580   -1.000
 4155.00    0.95275   1.08414   -1.000
 4156.00    1.03634   1.10259   -1.000
 4157.00    1.08762   1.13037   -1.000
 4158.00    1.02273   1.16354   -1.000
 4159.00    1.01610   1.19682   -1.000
 4160.00    1.18532   1.22485   -1.000
 4161.00    1.31185   1.24262   -1.000
 4162.00    1.32874   1.24742   -1.000
 4163.00    1.32460   1.23955   -1.000
 4164.00    1.27397   1.22189   -1.000
 4165.00    1.16595   1.19942   -1.000
 4166.00    0.94802   1.17857   -1.000
 4167.00    0.83990   1.16276   -1.000
 4168.00    0.91529   1.14928   -1.000
 4169.00    1.01195   1.13242   -1.000
 4170.00    1.13976   1.10883   -1.000
 4171.00    1.17817   1.08001   -1.000
 4172.00    1.10142   1.05275   -1.000
 4173.00    1.03355   1.03530   -1.000
 4174.00    0.97577   1.03160   -1.000
 4175.00    0.97770   1.03959   -1.000
 4176.00    1.03940   1.05316   -1.000
 4177.00    1.00346   1.06711   -1.000
 4178.00    0.88131   1.07956   -1.000
 4179.00    0.86316   1.09083   -1.000
 4180.00    0.92589   1.10212   -1.000
 4181.00    0.99018   1.11426   -1.000
 4182.00    1.05554   1.12681   -1.000
 4183.00    0.98504   1.13790   -1.000
 4184.00    0.83310   1.14444   -1.000
 4185.00    0.83946   1.14423   -1.000
 4186.00    0.92859   1.13934   -1.000
 4187.00    1.01327   1.13576   -1.000
 4188.00    1.09593   1.13905   -1.000
 4189.00    1.09529   1.15118   -1.000
 4190.00    1.06214   1.16847   -1.000
 4191.00    0.99904   1.18211   -1.000
 4192.00    0.92599   1.18361   -1.000
 4193.00    0.93432   1.16929   -1.000
 4194.00    0.96533   1.14039   -1.000
 4195.00    0.95354   1.10190   -1.000
 4196.00    0.93193   1.06241   -1.000
 4197.00    0.87153   1.03179   -1.000
 4198.00    0.80399   1.01554   -1.000
 4199.00    0.99107   1.01327   -1.000
 4200.00    1.21416   1.02260   -1.000
 4201.00    1.14355   1.04240   -1.000
 4202.00    1.04300   1.07179   -1.000
 4203.00    0.95230   1.10873   -1.000
 4204.00    0.86224   1.15009   -1.000
 4205.00    0.92609   1.19029   -1.000
 4206.00    0.99454   1.22253   -1.000
 4207.00    0.98659   1.24310   -1.000
 4208.00    0.98084   1.25207   -1.000
 4209.00    1.03973   1.25099   -1.000
 4210.00    1.09467   1.24184   -1.000
 4211.00    1.09210   1.22586   -1.000
 4212.00    1.12776   1.20526   -1.000
 4213.00    1.52503   1.18558   -1.000
 4214.00    1.90307   1.17538   -1.000
 4215.00    2.14894   1.18327   -1.000
 4216.00    2.35597   1.21201   -1.000
 4217.00    2.35658   1.25395   -1.000
 4218.00    2.34091   1.29359   -1.000
 4219.00    2.25578   1.31275   -1.000
 4220.00    2.20211   1.29777   -1.000
 4221.00    2.25930   1.24557   -1.000
 4222.00    2.23509   1.16281   -1.000
 4223.00    1.96982   1.06367   -1.000
 4224.00    1.72820   0.96950   -1.000
 4225.00    1.54630   0.90530   -1.000
 4226.00    1.47079   0.88966   -1.000
 4227.00    1.62648   0.92562   -1.000
 4228.00    1.73570   0.99888   -1.000
 4229.00    1.75732   1.08397   -1.000
 4230.00    1.83611   1.15423   -1.000
 4231.00    2.00901   1.19280   -1.000
 4232.00    1.97495   1.19977    0.263
 4233.00    1.64216   1.18706    0.076
 4234.00    1.47037   1.16842    0.054
 4235.00    1.50300   1.15545    0.054
 4236.00    1.51773   1.15498    0.053
 4237.00    1.51242   1.16759    0.053
 4238.00    1.47962   1.19197    0.053
 4239.00    1.41969   1.22631    0.053
 4240.00    1.44979   1.26604    0.053
 4241.00    1.55825   1.30597    0.053
 4242.00    1.53858   1.34069    0.053
 4243.00    1.42068   1.36281    0.053
 4244.00    1.43605   1.36469    0.053
 4245.00    1.54123   1.34347    0.055
 4246.00    1.57756   1.30267    0.055
 4247.00    1.57324   1.25045    0.055
 4248.00    1.56601   1.19900    0.056
 4249.00    1.55730   1.15968    0.056
 4250.00    1.43947   1.13737    0.055
 4251.00    1.27296   1.12986    0.055
 4252.00    1.22546   1.13236    0.054
 4253.00    1.22358   1.14202    0.054
 4254.00    1.49549   1.15606    0.055
 4255.00    1.85662   1.16960    0.055
 4256.00    1.87503   1.17745    0.055
 4257.00    1.79988   1.17653    0.055
 4258.00    1.70530   1.16913    0.055
 4259.00    1.60636   1.16514    0.055
 4260.00    1.57735   1.17793    0.055
 4261.00    1.56085   1.21495    0.055
 4262.00    1.53823   1.27013    0.055
 4263.00    1.51477   1.32650    0.056
 4264.00    1.42212   1.36507    0.056
 4265.00    1.32271   1.37227    0.055
 4266.00    1.41629   1.34438    0.055
 4267.00    1.52167   1.28640    0.054
 4268.00    1.60484   1.20836    0.054
 4269.00    1.68711   1.12369    0.054
 4270.00    1.71131   1.04871    0.054
 4271.00    1.72863   0.99833    0.055
 4272.00    1.56389   0.98146    0.055
 4273.00    1.40448   1.00005    0.054
 4274.00    1.31823   1.04877    0.053
 4275.00    1.24253   1.11448    0.053
 4276.00    1.26258   1.17971    0.054
 4277.00    1.28075   1.23035    0.054
 4278.00    1.28635   1.25895    0.054
 4279.00    1.29779   1.26565    0.054
 4280.00    1.33946   1.25821    0.055
 4281.00    1.37181   1.24589    0.055
 4282.00    1.36523   1.23390   -2.000
 4283.00    1.38339   1.22204   -2.000
 4284.00    1.48692   1.20615   -2.000
 4285.00    1.53701   1.18275   -2.000
 4286.00    1.43175   1.15191   -2.000
 4287.00    1.33543   1.11744   -2.000
 4288.00    1.26128   1.08738   -2.000
 4289.00    1.21339   1.07063   -2.000
 4290.00    1.22161   1.07179   -2.000
 4291.00    1.24970   1.08864   -2.000
 4292.00    1.31469   1.11209   -2.000
 4293.00    1.41884   1.12921   -2.000
 4294.00    1.58649   1.12860   -2.000
 4295.00    1.61576   1.10521   -2.000
 4296.00    1.44813   1.06128   -2.000
 4297.00    1.30641   1.00553   -2.000
 4298.00    1.19709   0.94925    0.055
 4299.00    1.14304   0.90320    0.055
 4300.00    1.14995   0.87434    0.054
 4301.00    1.18194   0.86234    0.054
 4302.00    1.23835   0.86027    0.055
 4303.00    1.21178   0.85838    0.055
 4304.00    1.11404   0.84896    0.054
 4305.00    1.08415   0.83155    0.054
 4306.00    1.10556   0.81302    0.055
 4307.00    1.18568   0.80396    0.055
 4308.00    1.30480   0.81475    0.055
 4309.00    1.27229   0.85139    0.054
 4310.00    1.15160   0.91352    0.054
 4311.00    1.17972   0.99652    0.053
 4312.00    1.28326   1.09409    0.053
 4313.00    1.37196   1.20000    0.053
 4314.00    1.45415   1.30720    0.053
 4315.00    1.47892   1.40573    0.053
 4316.00    1.48207   1.48324    0.054
 4317.00    1.42545   1.52917    0.053
 4318.00    1.34973   1.53810    0.052
 4319.00    1.42326   1.51018    0.053
 4320.00    1.53668   1.45082    0.054
 4321.00    1.57311   1.36942    0.053
 4322.00    1.59270   1.27911    0.053
 4323.00    1.54875   1.19845    0.053
 4324.00    1.49375   1.14888    0.054
 4325.00    1.42070   1.14604    0.053
 4326.00    1.34525   1.19131    0.053
 4327.00    1.47152   1.26962    0.053
 4328.00    1.61664   1.35708    0.053
 4329.00    1.48093   1.43281    0.053
 4330.00    1.32916   1.48691    0.000
 4331.00    1.39889   1.51970    0.000
 4332.00    1.47437   1.53458    0.000
 4333.00    1.61861   1.53122    0.000
 4334.00    1.75418   1.50464    0.000
 4335.00    1.68173   1.45124    0.000
 4336.00    1.61385   1.37628    0.000
 4337.00    1.60552   1.29527    0.000
 4338.00    1.61169   1.22846    0.000
 4339.00    1.74456   1.19274    0.000
 4340.00    1.83163   1.19519    0.000
 4341.00    1.62294   1.23061    0.000
 4342.00    1.44998   1.28525    0.000
 4343.00    1.45729   1.34493    0.000
 4344.00    1.48610   1.39956    0.000
 4345.00    1.60271   1.44304    0.000
 4346.00    1.65762   1.47180    0.000
 4347.00    1.50378   1.48252    0.000
 4348.00    1.44210   1.47160    0.000
 4349.00    1.64342   1.43983    0.000
 4350.00    1.74782   1.39689    0.000
 4351.00    1.61593   1.35888    0.052
 4352.00    1.55575   1.34013    0.052
 4353.00    1.64640   1.34629    0.051
 4354.00    1.69126   1.37220    0.051
 4355.00    1.65240   1.40546    0.052
 4356.00    1.62846   1.43397    0.052
 4357.00    1.62838   1.45314    0.051
 4358.00    1.61973   1.46706    0.051
 4359.00    1.59905   1.48302    0.051
 4360.00    1.65469   1.50513    0.051
 4361.00    1.80451   1.53209    0.052
 4362.00    1.91049   1.55816    0.052
 4363.00    1.96880   1.57535    0.052
 4364.00    1.91350   1.57703    0.052
 4365.00    1.74923   1.56180    0.051
 4366.00    1.68146   1.53437    0.051
 4367.00    1.69532   1.50274    0.052
 4368.00    1.64559   1.47340    0.051
 4369.00    1.54850   1.44835    0.051
 4370.00    1.50331   1.42505    0.051
 4371.00    1.49210   1.39959    0.051
 4372.00    1.50713   1.37156    0.051
 4373.00    1.53721   1.34681    0.051
 4374.00    1.60346   1.33440    0.052
 4375.00    1.68776   1.33909    0.052
 4376.00    1.67837   1.35585    0.051
 4377.00    1.62855   1.37052    0.051
 4378.00    1.63605   1.36583    0.051
 4379.00    1.66476   1.32991    0.052
 4380.00    1.57806   1.26277    0.052
 4381.00    1.45517   1.17878    0.051
 4382.00    1.43893   1.10200    0.051
 4383.00    1.45059   1.05615    0.051
 4384.00    1.50012   1.05316    0.051
 4385.00    1.55775   1.08759    0.051
 4386.00    1.51537   1.14174    0.051
 4387.00    1.45608   1.19628    0.051
 4388.00    1.31549   1.23925    0.050
 4389.00    1.16451   1.26897    0.049
 4390.00    1.39863   1.29069    0.050
 4391.00    1.66712   1.31088    0.051
 4392.00    1.65945   1.33337    0.051
 4393.00    1.63708   1.35930    0.052
 4394.00    1.46725   1.38819    0.051
 4395.00    1.29879   1.41684    0.050
 4396.00    1.47703   1.43888    0.051
 4397.00    1.64887   1.44729    0.051
 4398.00    1.68031   1.43843    0.052
 4399.00    1.70855   1.41315    0.053
 4400.00    1.69732   1.37513    0.052
 4401.00    1.66657   1.32858    0.051
 4402.00    1.47158   1.27859    0.051
 4403.00    1.31005   1.23252    0.051
 4404.00    1.35822   1.20066    0.051
 4405.00    1.41540   1.19261    0.051
 4406.00    1.51696   1.21259    0.051
 4407.00    1.60538   1.25803    0.051
 4408.00    1.64131   1.32012    0.052
 4409.00    1.66034   1.38461    0.052
 4410.00    1.62336   1.43564    0.052
 4411.00    1.61509   1.46154    0.052
 4412.00    1.68726   1.45958    0.052
 4413.00    1.73345   1.43778    0.052
 4414.00    1.71736   1.41276    0.051
 4415.00    1.70654   1.40183    0.051
 4416.00    1.70661   1.41306    0.051
 4417.00    1.71423   1.44105    0.051
 4418.00    1.73545   1.47174    0.051
 4419.00    1.70530   1.49103    0.051
 4420.00    1.59428   1.49223    0.051
 4421.00    1.50894   1.47907    0.051
 4422.00    1.45907   1.46158    0.051
 4423.00    1.50814   1.44880    0.051
 4424.00    1.67755   1.44440    0.051
 4425.00    1.75565   1.44667    0.051
 4426.00    1.73586   1.45125    0.051
 4427.00    1.81774   1.45370    0.052
 4428.00    1.99579   1.45142    0.052
 4429.00    1.97521   1.44379    0.052
 4430.00    1.78900   1.43113    0.051
 4431.00    1.67727   1.41408    0.051
 4432.00    1.62024   1.39505    0.051
 4433.00    1.67156   1.38010    0.052
 4434.00    1.79275   1.37790    0.052
 4435.00    1.87661   1.39426    0.052
 4436.00    1.93942   1.42667    0.052
 4437.00    1.93107   1.46373    0.053
 4438.00    1.88779   1.49059    0.054
 4439.00    1.87647   1.49773    0.053
 4440.00    1.87872   1.48714    0.052
 4441.00    1.89453   1.47106    0.053
 4442.00    1.91527   1.46447    0.053
 4443.00    1.78162   1.47579    0.053
 4444.00    1.60050   1.50297    0.052
 4445.00    1.58632   1.53614    0.051
 4446.00    1.61488   1.56422    0.051
 4447.00    1.64919   1.57994    0.051
 4448.00    1.68471   1.58101    0.051
 4449.00    1.73501   1.56802    0.051
 4450.00    1.78775   1.54215    0.051
 4451.00    1.72126   1.50476    0.051
 4452.00    1.64007   1.45839    0.050
 4453.00    1.63960   1.40823    0.050
 4454.00    1.64599   1.36164    0.049
 4455.00    1.63968   1.32501    0.049
 4456.00    1.63274   1.30063    0.048
 4457.00    1.50482   1.28707    0.049
 4458.00    1.38071   1.28199    0.049
 4459.00    1.61732   1.28499    0.050
 4460.00    1.83906   1.29778    0.050
 4461.00    1.75955   1.32171    0.000
 4462.00    1.68444   1.35476    0.000
 4463.00    1.66110   1.39085    0.000
 4464.00    1.65174   1.42226    0.000
 4465.00    1.75573   1.44397    0.000
 4466.00    1.83798   1.45596    0.000
 4467.00    1.78797   1.46277    0.000
 4468.00    1.74720   1.47099    0.000
 4469.00    1.75078   1.48666    0.000
 4470.00    1.78063   1.51248    0.000
 4471.00    1.91305   1.54672    0.000
 4472.00    1.99926   1.58433    0.000
 4473.00    1.93523   1.61939    0.000
 4474.00    1.89187   1.64676    0.000
 4475.00    1.90539   1.66204    0.000
 4476.00    1.91579   1.66147    0.000
 4477.00    1.91889   1.64323    0.000
 4478.00    1.90576   1.61018    0.000
 4479.00    1.85959   1.57191    0.000
 4480.00    1.83231   1.54241    0.000
 4481.00    1.83850   1.53353    0.000
 4482.00    1.84908   1.54839    0.047
 4483.00    1.86647   1.57921    0.048
 4484.00    1.87105   1.61115    0.049
 4485.00    1.85819   1.62957    0.048
 4486.00    1.82308   1.62741    0.047
 4487.00    1.76129   1.60766    0.048
 4488.00    1.77363   1.58038    0.048
 4489.00    1.86436   1.55598    0.048
 4490.00    1.92311   1.53933    0.048
 4491.00    1.95206   1.52854    0.048
 4492.00    1.95095   1.51932    0.047
 4493.00    1.92512   1.51069    0.047
 4494.00    1.79392   1.50686    0.047
 4495.00    1.58645   1.51379    0.047
 4496.00    1.54912   1.53410    0.047
 4497.00    1.61988   1.56463    0.048
 4498.00    1.76573   1.59912    0.048
 4499.00    1.95329   1.63291    0.048
 4500.00    1.89849   1.66524    0.047
 4501.00    1.72661   1.69756    0.048
 4502.00    1.69812   1.72961    0.048
 4503.00    1.72945   1.75753    0.047
 4504.00    1.83724   1.77609    0.047
 4505.00    1.97232   1.78263    0.047
 4506.00    2.00881   1.77902    0.046
 4507.00    2.01558   1.76963    0.045
 4508.00    2.00510   1.75768    0.046
 4509.00    1.99030   1.74345    0.046
 4510.00    1.90975   1.72536    0.046
 4511.00    1.81584   1.70283    0.046
 4512.00    1.75792   1.67814    0.046
 4513.00    1.70575   1.65575    0.045
 4514.00    1.78163   1.63992    0.046
 4515.00    1.87273   1.63287    0.047
 4516.00    1.85147   1.63451    0.046
 4517.00    1.82112   1.64297    0.045
 4518.00    1.77620   1.65462    0.045
 4519.00    1.73062   1.66397    0.045
 4520.00    1.78759   1.66455    0.046
 4521.00    1.84543   1.65107    0.046
 4522.00    1.88335   1.62154    0.046
 4523.00    1.92076   1.57791    0.046
 4524.00    1.94872   1.52522    0.046
 4525.00    1.96869   1.47055    0.046
 4526.00    1.89917   1.42190    0.046
 4527.00    1.82907   1.38659    0.046
 4528.00    1.75440   1.36885    0.046
 4529.00    1.67791   1.36801    0.045
 4530.00    1.59062   1.37874    0.046
 4531.00    1.53025   1.39439    0.046
 4532.00    1.59583   1.41112    0.046
 4533.00    1.65873   1.43003    0.046
 4534.00    1.71135   1.45522    0.045
 4535.00    1.73972   1.48876    0.045
 4536.00    1.69071   1.52692    0.045
 4537.00    1.64815   1.56132    0.045
 4538.00    1.62297   1.58444    0.045
 4539.00    1.62948   1.59419    0.045
 4540.00    1.70940   1.59424    0.045
 4541.00    1.75952   1.58983    0.045
 4542.00    1.74992   1.58413    0.044
 4543.00    1.74806   1.57758    0.044
 4544.00    1.75971   1.56973    0.045
 4545.00    1.75552   1.56078    0.046
 4546.00    1.72713   1.55175    0.045
 4547.00    1.67960   1.54386    0.045
 4548.00    1.60638   1.53787    0.044
 4549.00    1.58091   1.53385    0.044
 4550.00    1.61190   1.53123    0.000
 4551.00    1.64311   1.52967    0.000
 4552.00    1.67455   1.53051    0.000
 4553.00    1.68243   1.53719    0.000
 4554.00    1.66865   1.55366    0.000
 4555.00    1.62902   1.58122    0.000
 4556.00    1.56844   1.61635    0.000
 4557.00    1.58541   1.65170    0.000
 4558.00    1.65768   1.67895    0.000
 4559.00    1.77052   1.69212    0.000
 4560.00    1.90874   1.68939    0.000
 4561.00    1.94541   1.67336    0.000
 4562.00    1.92654   1.65058    0.000
 4563.00    1.93035   1.63005    0.000
 4564.00    1.94494   1.61996    0.000
 4565.00    1.91013   1.62374    0.000
 4566.00    1.85506   1.63791    0.000
 4567.00    1.86325   1.65416    0.000
 4568.00    1.89361   1.66462    0.000
 4569.00    1.93286   1.66689    0.000
 4570.00    1.97473   1.66463    0.000
 4571.00    1.99327   1.66381    0.000
 4572.00    2.00611   1.66760    0.000
 4573.00    1.98715   1.67397    0.000
 4574.00    1.96189   1.67714    0.000
 4575.00    1.85586   1.67130    0.000
 4576.00    1.73732   1.65370    0.000
 4577.00    1.78682   1.62615    0.000
 4578.00    1.85554   1.59435    0.000
 4579.00    1.87056   1.56571    0.000
 4580.00    1.88145   1.54615    0.000
 4581.00    1.80987   1.53771    0.000
 4582.00    1.73484   1.53884    0.000
 4583.00    1.70259   1.54680    0.000
 4584.00    1.67196   1.56015    0.000
 4585.00    1.69498   1.57859    0.000
 4586.00    1.71836   1.60080    0.000
 4587.00    1.74791   1.62239    0.000
 4588.00    1.78401   1.63680    0.000
 4589.00    1.89004   1.63869    0.000
 4590.00    1.98670   1.62711    0.000
 4591.00    2.01252   1.60605    0.000
 4592.00    2.01671   1.58214    0.000
 4593.00    1.89658   1.56149    0.000
 4594.00    1.79700   1.54772    0.000
 4595.00    1.79132   1.54154    0.000
 4596.00    1.78323   1.54156    0.000
 4597.00    1.76611   1.54520    0.000
 4598.00    1.74395   1.54997    0.000
 4599.00    1.70606   1.55431    0.000
 4600.00    1.67921   1.55804    0.000
 4601.00    1.68165   1.56213    0.000
 4602.00    1.67785   1.56840    0.000
 4603.00    1.65985   1.57933    0.000
 4604.00    1.67278   1.59754    0.000
 4605.00    1.74670   1.62425    0.000
 4606.00    1.82511   1.65722    0.000
 4607.00    1.91123   1.69043    0.000
 4608.00    1.89636   1.71613    0.000
 4609.00    1.72944   1.72898    0.000
 4610.00    1.66349   1.72905    0.000
 4611.00    1.73114   1.72158    0.000
 4612.00    1.79561   1.71375    0.000
 4613.00    1.85638   1.71059    0.000
 4614.00    1.86233   1.71304    0.000
 4615.00    1.81195   1.71865    0.000
 4616.00    1.78484   1.72410    0.000
 4617.00    1.77884   1.72753    0.000
 4618.00    1.79838   1.72905    0.000
 4619.00    1.83833   1.72971    0.000
 4620.00    1.88916   1.73007    0.000
 4621.00    1.94764   1.72967    0.000
 4622.00    1.94292   1.72757    0.000
 4623.00    1.89924   1.72346    0.000
 4624.00    1.88490   1.71807    0.000
 4625.00    1.88635   1.71280    0.000
 4626.00    1.88340   1.70891    0.000
 4627.00    1.87840   1.70683    0.000
 4628.00    1.80789   1.70585    0.000
 4629.00    1.71096   1.70424    0.000
 4630.00    1.73836   1.69969    0.000
 4631.00    1.80853   1.69030    0.000
 4632.00    1.85719   1.67543    0.000
 4633.00    1.89962   1.65599    0.000
 4634.00    1.93586   1.63380    0.000
 4635.00    1.97063   1.61098    0.000
 4636.00    1.87864   1.58979    0.000
 4637.00    1.76217   1.57286    0.000
 4638.00    1.76648   1.56250    0.000
 4639.00    1.78891   1.55903    0.000
 4640.00    1.77023   1.55945    0.000
 4641.00    1.74703   1.55789    0.000
 4642.00    1.63394   1.54847    0.000
 4643.00    1.51431   1.52884    0.000
 4644.00    1.47767   1.50229    0.000
 4645.00    1.44417   1.47698    0.000
 4646.00    1.50765   1.46221    0.000
 4647.00    1.57194   1.46409    0.000
 4648.00    1.64755   1.48256    0.000
 4649.00    1.71930   1.51152    0.000
 4650.00    1.72801   1.54159    0.000
 4651.00    1.73805   1.56455    0.000
 4652.00    1.76181   1.57693    0.000
 4653.00    1.78346   1.58149    0.000
 4654.00    1.78966   1.58547    0.000
 4655.00    1.79731   1.59655    0.000
 4656.00    1.81307   1.61799    0.000
 4657.00    1.81684   1.64612    0.000
 4658.00    1.76704   1.67165    0.000
 4659.00    1.71636   1.68422    0.000
 4660.00    1.66247   1.67725    0.000
 4661.00    1.64799   1.65024    0.000
 4662.00    1.75442   1.60758    0.000
 4663.00    1.80850   1.55604    0.000
 4664.00    1.72610   1.50319    0.000
 4665.00    1.66466   1.45724    0.000
 4666.00    1.65018   1.42678    0.000
 4667.00    1.61636   1.41828    0.000
 4668.00    1.54497   1.43268    0.000
 4669.00    1.49552   1.46403    0.000
 4670.00    1.48322   1.50203    0.000
 4671.00    1.48216   1.53703    0.000
 4672.00    1.49778   1.56388    0.000
 4673.00    1.54968   1.58199    0.000
 4674.00    1.64890   1.59249    0.000
 4675.00    1.67524   1.59570    0.000
 4676.00    1.61785   1.59091    0.000
 4677.00    1.57755   1.57845    0.000
 4678.00    1.55459   1.56151    0.000
 4679.00    1.56034   1.54572    0.000
 4680.00    1.59174   1.53669    0.000
 4681.00    1.60801   1.53712    0.000
 4682.00    1.61234   1.54552    0.000
 4683.00    1.57790   1.55728    0.000
 4684.00    1.51659   1.56721    0.000
 4685.00    1.57155   1.57203    0.000
 4686.00    1.69714   1.57133    0.000
 4687.00    1.77901   1.56699    0.000
 4688.00    1.83770   1.56187    0.000
 4689.00    1.75515   1.55868    0.000
 4690.00    1.60761   1.55941    0.000
 4691.00    1.62749   1.56492    0.000
 4692.00    1.71370   1.57431    0.000
 4693.00    1.66444   1.58439    0.000
 4694.00    1.56944   1.59029    0.000
 4695.00    1.60933   1.58741    0.000
 4696.00    1.68751   1.57386    0.000
 4697.00    1.69635   1.55176    0.000
 4698.00    1.68897   1.52624    0.000
 4699.00    1.63587   1.50312    0.000
 4700.00    1.57417   1.48651    0.000
 4701.00    1.60833   1.47801    0.000
 4702.00    1.65642   1.47674    0.000
 4703.00    1.62304   1.48015    0.000
 4704.00    1.58105   1.48503    0.000
 4705.00    1.63480   1.48903    0.000
 4706.00    1.69512   1.49205    0.000
 4707.00    1.70985   1.49610    0.000
 4708.00    1.72303   1.50347    0.000
 4709.00    1.69450   1.51456    0.000
 4710.00    1.66560   1.52724    0.000
 4711.00    1.62663   1.53879    0.000
 4712.00    1.59063   1.54868    0.000
 4713.00    1.60017   1.55954    0.000
 4714.00    1.61166   1.57552    0.000
 4715.00    1.64229   1.59899    0.000
 4716.00    1.66384   1.62855    0.000
 4717.00    1.62123   1.65946    0.000
 4718.00    1.58969   1.68612    0.000
 4719.00    1.61845   1.70463    0.000
 4720.00    1.65379   1.71386    0.000
 4721.00    1.71779   1.71460    0.000
 4722.00    1.76902   1.70760    0.000
 4723.00    1.77446   1.69218    0.000
 4724.00    1.75664   1.66671    0.000
 4725.00    1.66879   1.63113    0.000
 4726.00    1.61097   1.58936    0.000
 4727.00    1.63014   1.54922    0.000
 4728.00    1.65299   1.51950    0.000
 4729.00    1.68393   1.50600    0.000
 4730.00    1.70381   1.50897    0.000
 4731.00    1.70250   1.52380    0.000
 4732.00    1.71594   1.54374    0.000
 4733.00    1.75399   1.56295    0.000
 4734.00    1.75974   1.57855    0.000
 4735.00    1.71827   1.59065    0.000
 4736.00    1.69819   1.60084    0.000
 4737.00    1.70560   1.61034    0.000
 4738.00    1.71038   1.61927    0.000
 4739.00    1.71218   1.62714    0.000
 4740.00    1.69678   1.63390    0.000
 4741.00    1.66418   1.64032    0.000
 4742.00    1.66387   1.64740    0.000
 4743.00    1.69201   1.65572    0.000
 4744.00    1.72790   1.66505    0.000
 4745.00    1.76980   1.67441    0.000
 4746.00    1.82628   1.68214    0.000
 4747.00    1.89271   1.68631    0.000
 4748.00    1.89250   1.68514    0.000
 4749.00    1.85241   1.67771    0.000
 4750.00    1.74248   1.66440    0.000
 4751.00    1.59611   1.64708    0.000
 4752.00    1.60883   1.62880    0.000
 4753.00    1.69357   1.61300    0.000
 4754.00    1.71413   1.60238    0.000
 4755.00    1.70971   1.59788    0.000
 4756.00    1.69123   1.59822    0.000
 4757.00    1.66810   1.60011    0.000
 4758.00    1.72595   1.59922    0.000
 4759.00    1.80632   1.59179    0.000
 4760.00    1.83328   1.57621    0.000
 4761.00    1.84802   1.55383    0.040
 4762.00    1.77610   1.52883    0.040
 4763.00    1.68831   1.50691    0.040
 4764.00    1.54192   1.49365    0.040
 4765.00    1.38729   1.49271    0.039
 4766.00    1.44377   1.50449    0.040
 4767.00    1.52166   1.52573    0.040
 4768.00    1.53126   1.55094    0.040
 4769.00    1.53645   1.57499    0.040
 4770.00    1.68391   1.59550    0.040
 4771.00    1.83542   1.61314    0.041
 4772.00    1.85239   1.62985    0.041
 4773.00    1.86656   1.64663    0.041
 4774.00    1.79974   1.66248    0.040
 4775.00    1.74118   1.67504    0.040
 4776.00    1.80222   1.68189    0.040
 4777.00    1.85672   1.68150    0.041
 4778.00    1.84978   1.67354    0.040
 4779.00    1.83581   1.65882    0.039
 4780.00    1.77379   1.63929    0.039
 4781.00    1.72317   1.61771    0.039
 4782.00    1.73297   1.59705    0.039
 4783.00    1.76046   1.57968    0.039
 4784.00    1.86333   1.56691    0.039
 4785.00    1.91664   1.55909    0.039
 4786.00    1.79582   1.55624    0.039
 4787.00    1.67921   1.55870    0.039
 4788.00    1.57506   1.56732    0.040
 4789.00    1.50683   1.58301    0.040
 4790.00    1.52903   1.60589    0.040
 4791.00    1.55592   1.63403    0.040
 4792.00    1.59300   1.66300    0.040
 4793.00    1.64148   1.68670    0.039
 4794.00    1.71144   1.69945    0.039
 4795.00    1.75141   1.69876    0.039
 4796.00    1.74212   1.68682    0.039
 4797.00    1.70387   1.66991    0.039
 4798.00    1.62391   1.65557    0.040
 4799.00    1.62586   1.64897    0.040
 4800.00    1.73162   1.65049    0.040
 4801.00    1.79622   1.65584    0.040
 4802.00    1.81484   1.65895    0.040
 4803.00    1.77608   1.65540    0.040
 4804.00    1.68081   1.64482    0.040
 4805.00    1.69526   1.63057    0.040
 4806.00    1.80505   1.61771    0.040
 4807.00    1.78116   1.61036    0.040
 4808.00    1.65496   1.61011    0.040
 4809.00    1.62062   1.61592    0.040
 4810.00    1.64806   1.62537    0.040
 4811.00    1.66183   1.63627    0.040
 4812.00    1.66754   1.64775    0.040
 4813.00    1.66484   1.66007    0.040
 4814.00    1.65782   1.67369    0.040
 4815.00    1.69416   1.68816    0.040
 4816.00    1.74981   1.70148    0.041
 4817.00    1.71354   1.71051    0.040
 4818.00    1.64210   1.71192    0.040
 4819.00    1.60398   1.70372    0.040
 4820.00    1.57668   1.68665    0.039
 4821.00    1.55745   1.66457    0.040
 4822.00    1.54042   1.64319    0.040
 4823.00    1.63569   1.62757    0.040
 4824.00    1.75606   1.61968    0.040
 4825.00    1.68656   1.61774    0.040
 4826.00    1.58323   1.61783    0.040
 4827.00    1.53304   1.61638    0.040
 4828.00    1.49008   1.61207    0.041
 4829.00    1.55326   1.60606    0.040
 4830.00    1.62675   1.60107    0.040
 4831.00    1.62194   1.59965    0.040
 4832.00    1.61237   1.60273    0.040
 4833.00    1.65429   1.60887    0.041
 4834.00    1.69749   1.61472    0.041
 4835.00    1.72670   1.61665    0.041
 4836.00    1.75330   1.61258    0.041
 4837.00    1.71194   1.60300    0.041
 4838.00    1.67646   1.59079    0.040
 4839.00    1.72117   1.57985    0.041
 4840.00    1.75890   1.57367    0.041
 4841.00    1.73354   1.57404    0.041
 4842.00    1.70630   1.58061    0.041
 4843.00    1.66663   1.59091    0.040
 4844.00    1.63192   1.60134    0.040
 4845.00    1.62276   1.60855    0.040
 4846.00    1.61552   1.61099    0.040
 4847.00    1.61629   1.60935    0.040
 4848.00    1.62486   1.60540    0.000
 4849.00    1.66030   1.59999    0.000
 4850.00    1.68011   1.59207    0.000
 4851.00    1.65458   1.57946    0.000
 4852.00    1.62712   1.56072    0.000
 4853.00    1.59487   1.53646    0.000
 4854.00    1.58047   1.50856    0.000
 4855.00    1.60413   1.47837    0.000
 4856.00    1.60653   1.44558    0.000
 4857.00    1.56952   1.40950    0.000
 4858.00    1.52808   1.37188    0.000
 4859.00    1.47946   1.33852    0.000
 4860.00    1.44762   1.31755    0.000
 4861.00    1.43961   1.31539    0.000
 4862.00    1.42774   1.33285    0.000
 4863.00    1.41106   1.36451    0.000
 4864.00    1.42263   1.40102    0.000
 4865.00    1.46529   1.43268    0.000
 4866.00    1.45732   1.45243    0.000
 4867.00    1.40018   1.45728    0.000
 4868.00    1.41778   1.44898    0.000
 4869.00    1.49941   1.43345    0.000
 4870.00    1.52877   1.41902    0.000
 4871.00    1.51871   1.41330    0.000
 4872.00    1.47224   1.42042    0.000
 4873.00    1.40164   1.43987    0.000
 4874.00    1.39355   1.46777    0.000
 4875.00    1.42175   1.49891    0.040
 4876.00    1.51816   1.52839    0.041
 4877.00    1.64908   1.55219    0.042
 4878.00    1.61707   1.56732    0.041
 4879.00    1.51372   1.57223    0.040
 4880.00    1.47892   1.56704    0.040
 4881.00    1.46989   1.55333    0.040
 4882.00    1.45400   1.53360    0.041
 4883.00    1.43591   1.51059    0.041
 4884.00    1.45926   1.48694    0.041
 4885.00    1.49364   1.46488    0.040
 4886.00    1.47540   1.44607    0.040
 4887.00    1.44567   1.43206    0.040
 4888.00    1.51288   1.42532    0.040
 4889.00    1.59688   1.42982    0.040
 4890.00    1.57162   1.44978    0.040
 4891.00    1.53197   1.48675    0.039
 4892.00    1.54750   1.53716    0.040
 4893.00    1.56816   1.59240    0.040
 4894.00    1.64472   1.64182    0.041
 4895.00    1.72446   1.67678    0.041
 4896.00    1.62476   1.69344    0.041
 4897.00    1.52307   1.69315    0.040
 4898.00    1.65078   1.68104    0.040
 4899.00    1.77158   1.66362    0.041
 4900.00    1.72823   1.64689    0.040
 4901.00    1.68674   1.63500    0.039
 4902.00    1.66908   1.62961    0.040
 4903.00    1.64931   1.62944    0.040
 4904.00    1.61112   1.63056    0.039
 4905.00    1.58719   1.62796    0.039
 4906.00    1.65504   1.61807    0.039
 4907.00    1.70184   1.60108    0.039
 4908.00    1.64278   1.58148    0.040
 4909.00    1.59617   1.56589    0.040
 4910.00    1.60024   1.55964    0.040
 4911.00    1.59881   1.56366    0.040
 4912.00    1.57880   1.57353    0.039
 4913.00    1.56129   1.58078    0.039
 4914.00    1.55090   1.57624    0.038
 4915.00    1.55897   1.55388    0.037
 4916.00    1.61198   1.51416    0.038
 4917.00    1.62859   1.46480    0.039
 4918.00    1.56878   1.41827    0.039
 4919.00    1.50771   1.38690    0.038
 4920.00    1.44435   1.37779    0.038
 4921.00    1.41524   1.39098    0.038
 4922.00    1.44077   1.42111    0.038
 4923.00    1.46980   1.46126    0.038
 4924.00    1.50374   1.50563    0.038
 4925.00    1.51556   1.55009    0.038
 4926.00    1.50015   1.59126    0.037
 4927.00    1.53907   1.62533    0.037
 4928.00    1.63699   1.64839    0.038
 4929.00    1.68356   1.65761    0.038
 4930.00    1.68096   1.65241    0.038
 4931.00    1.66748   1.63501    0.038
 4932.00    1.64483   1.60958    0.037
 4933.00    1.64840   1.58054    0.037
 4934.00    1.67148   1.55140    0.037
 4935.00    1.64078   1.52498    0.037
 4936.00    1.57496   1.50467    0.036
 4937.00    1.52238   1.49497    0.036
 4938.00    1.47739   1.49977    0.037
 4939.00    1.49215   1.51970    0.037
 4940.00    1.53666   1.55085    0.000
 4941.00    1.56768   1.58614    0.000
 4942.00    1.59289   1.61833    0.000
 4943.00    1.58761   1.64304    0.000
 4944.00    1.57107   1.65992    0.000
 4945.00    1.61167   1.67143    0.000
 4946.00    1.67015   1.68052    0.000
 4947.00    1.71562   1.68858    0.000
 4948.00    1.75770   1.69485    0.000
 4949.00    1.75093   1.69684    0.000
 4950.00    1.73375   1.69135    0.000
 4951.00    1.78041   1.67547    0.000
 4952.00    1.83781   1.64780    0.000
 4953.00    1.77628   1.60987    0.000
 4954.00    1.69963   1.56677    0.000
 4955.00    1.65890   1.52673    0.000
 4956.00    1.62136   1.49926    0.000
 4957.00    1.66209   1.49108    0.000
 4958.00    1.70695   1.50274    0.000
 4959.00    1.59027   1.52747    0.000
 4960.00    1.47193   1.55452    0.000
 4961.00    1.46630   1.57395    0.000
 4962.00    1.46217   1.58037    0.000
 4963.00    1.49061   1.57403    0.000
 4964.00    1.52155   1.55969    0.000
 4965.00    1.58313   1.54411    0.000
 4966.00    1.63040   1.53332    0.000
 4967.00    1.55783   1.53104    0.000
 4968.00    1.50680   1.53805    0.000
 4969.00    1.59025   1.55271    0.000
 4970.00    1.65925   1.57171    0.000
 4971.00    1.65738   1.59080    0.000
 4972.00    1.64869   1.60563    0.000
 4973.00    1.61284   1.61238    0.000
 4974.00    1.57487   1.60872    0.000
 4975.00    1.52984   1.59419    0.000
 4976.00    1.51017   1.56964    0.000
 4977.00    1.56136   1.53694    0.000
 4978.00    1.57418   1.49888    0.000
 4979.00    1.49522   1.45905    0.000
 4980.00    1.45606   1.42190    0.000
 4981.00    1.49910   1.39294    0.000
 4982.00    1.52705   1.37765    0.000
 4983.00    1.52790   1.37904    0.000
 4984.00    1.52522   1.39611    0.000
 4985.00    1.51699   1.42378    0.000
 4986.00    1.51020   1.45471    0.000
 4987.00    1.50540   1.48225    0.000
 4988.00    1.51835   1.50240    0.000
 4989.00    1.55287   1.51456    0.000
 4990.00    1.56563   1.52097    0.000
 4991.00    1.55510   1.52448    0.000
 4992.00    1.55627   1.52691    0.000
 4993.00    1.56851   1.52843    0.000
 4994.00    1.55772   1.52751    0.000
 4995.00    1.52777   1.52188    0.000
 4996.00    1.53233   1.50998    0.000
 4997.00    1.56220   1.49182    0.000
 4998.00    1.52552   1.46925    0.000
 4999.00    1.44602   1.44513    0.000
 5000.00    1.42710   1.42191    0.000
 5001.00    1.44228   1.40096    0.000
 5002.00    1.46429   1.38327    0.000
 5003.00    1.48964   1.37034    0.000
 5004.00    1.53533   1.36402    0.000
 5005.00    1.58963   1.36552    0.000
 5006.00    1.53682   1.37390    0.000
 5007.00    1.44518   1.38510    0.000
 5008.00    1.43053   1.39282    0.000
 5009.00    1.43950   1.39182    0.000
 5010.00    1.44940   1.38073    0.000
 5011.00    1.45953   1.36285    0.000
 5012.00    1.45586   1.34418    0.000
 5013.00    1.44933   1.33035    0.000
 5014.00    1.38126   1.32476    0.000
 5015.00    1.30313   1.32760    0.000
 5016.00    1.26520   1.33633    0.000
 5017.00    1.23221   1.34754    0.000
 5018.00    1.24069   1.35877    0.000
 5019.00    1.25269   1.36931    0.000
 5020.00    1.36813   1.37953    0.000
 5021.00    1.48862   1.38990    0.000
 5022.00    1.50210   1.40052    0.000
 5023.00    1.51330   1.41077    0.000
 5024.00    1.48667   1.42045    0.000
 5025.00    1.45933   1.43033    0.000
 5026.00    1.41765   1.44164    0.000
 5027.00    1.38285   1.45621    0.000
 5028.00    1.42835   1.47500    0.000
 5029.00    1.46148   1.49652    0.037
 5030.00    1.39475   1.51638    0.037
 5031.00    1.33853   1.52880    0.037
 5032.00    1.34603   1.52944    0.036
 5033.00    1.36528   1.51708    0.036
 5034.00    1.44076   1.49264    0.036
 5035.00    1.50130   1.45881    0.037
 5036.00    1.50364   1.41969    0.037
 5037.00    1.48923   1.38054    0.037
 5038.00    1.42045   1.34843    0.036
 5039.00    1.37273   1.33060    0.036
 5040.00    1.38278   1.33207    0.036
 5041.00    1.38347   1.35413    0.036
 5042.00    1.36212   1.39217    0.036
 5043.00    1.34796   1.43562    0.036
 5044.00    1.34843   1.47223    0.036
 5045.00    1.35801   1.49331    0.036
 5046.00    1.38369   1.49645    0.035
 5047.00    1.42275   1.48525    0.035
 5048.00    1.48252   1.46780    0.036
 5049.00    1.50147   1.45331    0.036
 5050.00    1.46493   1.44846    0.036
 5051.00    1.42444   1.45551    0.036
 5052.00    1.37924   1.47261    0.035
 5053.00    1.38032   1.49571    0.035
 5054.00    1.43026   1.52041    0.035
 5055.00    1.46851   1.54311    0.036
 5056.00    1.49588   1.56198    0.036
 5057.00    1.51406   1.57646    0.036
 5058.00    1.52469   1.58574    0.036
 5059.00    1.53348   1.58798    0.036
 5060.00    1.54093   1.58077    0.036
 5061.00    1.52985   1.56338    0.036
 5062.00    1.50704   1.53826    0.036
 5063.00    1.45358   1.50961    0.036
 5064.00    1.38314   1.48242    0.035
 5065.00    1.38082   1.46152    0.036
 5066.00    1.41134   1.44959    0.037
 5067.00    1.43261   1.44568    0.037
 5068.00    1.45003   1.44664    0.036
 5069.00    1.47047   1.44975    0.036
 5070.00    1.49198   1.45322    0.037
 5071.00    1.45746   1.45551    0.037
 5072.00    1.40610   1.45579    0.036
 5073.00    1.41613   1.45362    0.037
 5074.00    1.44151   1.44738    0.038
 5075.00    1.46385   1.43442    0.038
 5076.00    1.48557   1.41416    0.037
 5077.00    1.46171   1.38973    0.037
 5078.00    1.43061   1.36624    0.037
 5079.00    1.44850   1.34881    0.037
 5080.00    1.47218   1.34163    0.038
 5081.00    1.42355   1.34661    0.037
 5082.00    1.36909   1.36228    0.037
 5083.00    1.40694   1.38469    0.037
 5084.00    1.44893   1.40958    0.036
 5085.00    1.45622   1.43377    0.036
 5086.00    1.46339   1.45543    0.036
 5087.00    1.48524   1.47395    0.037
 5088.00    1.50645   1.48982    0.037
 5089.00    1.51569   1.50363    0.037
 5090.00    1.51830   1.51469    0.036
 5091.00    1.44699   1.52089    0.036
 5092.00    1.38043   1.51970    0.036
 5093.00    1.35080   1.50927    0.036
 5094.00    1.33756   1.48941    0.037
 5095.00    1.42079   1.46279    0.037
 5096.00    1.48441   1.43528    0.037
 5097.00    1.45652   1.41392    0.037
 5098.00    1.44908   1.40302    0.036
 5099.00    1.51958   1.40259    0.037
 5100.00    1.55976   1.40931    0.037
 5101.00    1.50350   1.41806    0.036
 5102.00    1.43868   1.42401    0.036
 5103.00    1.35080   1.42399    0.035
 5104.00    1.29370   1.41758    0.035
 5105.00    1.30776   1.40720    0.035
 5106.00    1.33449   1.39630    0.036
 5107.00    1.38653   1.38843    0.036
 5108.00    1.43648   1.38701    0.037
 5109.00    1.48275   1.39344    0.037
 5110.00    1.47905   1.40695    0.037
 5111.00    1.39913   1.42597    0.037
 5112.00    1.35474   1.44798    0.036
 5113.00    1.35795   1.47038    0.037
 5114.00    1.38598   1.49083    0.037
 5115.00    1.44328   1.50648    0.037
 5116.00    1.47538   1.51449    0.038
 5117.00    1.48126   1.51264    0.038
 5118.00    1.50675   1.49994    0.038
 5119.00    1.55022   1.47697    0.037
 5120.00    1.56990   1.44612    0.037
 5121.00    1.57032   1.41216    0.037
 5122.00    1.53407   1.38063    0.036
 5123.00    1.47171   1.35540    0.035
 5124.00    1.40737   1.33833    0.035
 5125.00    1.34178   1.32976    0.035
 5126.00    1.31988   1.32895    0.035
 5127.00    1.32183   1.33488    0.035
 5128.00    1.31034   1.34646    0.035
 5129.00    1.29248   1.36196    0.035
 5130.00    1.27990   1.37935    0.035
 5131.00    1.26946   1.39676    0.035
 5132.00    1.33473   1.41180    0.035
 5133.00    1.42646   1.42088    0.035
 5134.00    1.38146   1.42176    0.035
 5135.00    1.29614   1.41476    0.035
 5136.00    1.25524   1.40202    0.035
 5137.00    1.22519   1.38775    0.035
 5138.00    1.25751   1.37455    0.034
 5139.00    1.30215   1.36277    0.034
 5140.00    1.31852   1.35408    0.034
 5141.00    1.33052   1.34913    0.035
 5142.00    1.31023   1.34578    0.035
 5143.00    1.28625   1.34255    0.035
 5144.00    1.32924   1.33944    0.035
 5145.00    1.37735   1.33706    0.035
 5146.00    1.41263   1.33584    0.036
 5147.00    1.44739   1.33508    0.036
 5148.00    1.39441   1.33411    0.036
 5149.00    1.34185   1.33341    0.036
 5150.00    1.33689   1.33399    0.035
 5151.00    1.33144   1.33757    0.035
 5152.00    1.31768   1.34645    0.035
 5153.00    1.30557   1.36174    0.036
 5154.00    1.31102   1.38267    0.036
 5155.00    1.31454   1.40612    0.036
 5156.00    1.30347   1.42780    0.036
 5157.00    1.30939   1.44393    0.037
 5158.00    1.41254   1.45055    0.037
 5159.00    1.47166   1.44407    0.037
 5160.00    1.33017   1.42347    0.037
 5161.00    1.21965   1.38822    0.037
 5162.00    1.22465   1.33783    0.037
 5163.00    1.23507   1.27480    0.036
 5164.00    1.26242   1.20553    0.036
 5165.00    1.26673   1.14001    0.036
 5166.00    1.21002   1.08743    0.037
 5167.00    1.15147   1.05133    0.037
 5168.00    1.08874   1.02874    0.037
 5169.00    1.06998   1.01638    0.037
 5170.00    1.13779   1.01624    0.037
 5171.00    1.15286   1.03237    0.037
 5172.00    1.07739   1.06510    0.036
 5173.00    1.02636   1.11056    0.036
 5174.00    1.01206   1.16254    0.036
 5175.00    1.03062   1.21260    0.036
 5176.00    1.09257   1.25071    0.036
 5177.00    1.15234   1.26892    0.036
 5178.00    1.20957   1.26347    0.036
 5179.00    1.25141   1.23548    0.036
 5180.00    1.27746   1.19268    0.036
 5181.00    1.25101   1.15058    0.036
 5182.00    1.17706   1.12592    0.035
 5183.00    1.12293   1.12732    0.035
 5184.00    1.08461   1.15358    0.034
 5185.00    1.06101   1.19656    0.034
 5186.00    1.04776   1.24545    0.034
 5187.00    1.08571   1.28885    0.035
 5188.00    1.15517   1.31659    0.035
 5189.00    1.20462   1.32597    0.035
 5190.00    1.24332   1.32330    0.000
 5191.00    1.24303   1.31683    0.000
 5192.00    1.22455   1.31244    0.000
 5193.00    1.23635   1.31493    0.000
 5194.00    1.26032   1.32663    0.000
 5195.00    1.32528   1.34594    0.000
 5196.00    1.40429   1.36892    0.000
 5197.00    1.40271   1.39060    0.000
 5198.00    1.37783   1.40574    0.000
 5199.00    1.39244   1.41033    0.000
 5200.00    1.41649   1.40223    0.000
 5201.00    1.41173   1.38053    0.000
 5202.00    1.40144   1.34701    0.000
 5203.00    1.39638   1.30782    0.000
 5204.00    1.39212   1.27039    0.000
 5205.00    1.36467   1.24047    0.000
 5206.00    1.33468   1.22370    0.000
 5207.00    1.31008   1.22454    0.000
 5208.00    1.28586   1.24309    0.000
 5209.00    1.30590   1.27542    0.000
 5210.00    1.32760   1.31448    0.000
 5211.00    1.35435   1.35195    0.035
 5212.00    1.38040   1.38130    0.035
 5213.00    1.38010   1.40076    0.035
 5214.00    1.38056   1.41331    0.035
 5215.00    1.39333   1.42349    0.035
 5216.00    1.39993   1.43441    0.036
 5217.00    1.34380   1.44614    0.036
 5218.00    1.30324   1.45626    0.036
 5219.00    1.37601   1.46049    0.036
 5220.00    1.44087   1.45405    0.036
 5221.00    1.46162   1.43424    0.036
 5222.00    1.47575   1.40244    0.036
 5223.00    1.46042   1.36438    0.036
 5224.00    1.44129   1.32931    0.036
 5225.00    1.40827   1.30775    0.036
 5226.00    1.37071   1.30516    0.036
 5227.00    1.31925   1.31903    0.036
 5228.00    1.27747   1.34264    0.036
 5229.00    1.26090   1.36795    0.036
 5230.00    1.25675   1.38854    0.037
 5231.00    1.28042   1.40362    0.037
 5232.00    1.30515   1.41628    0.037
 5233.00    1.33192   1.43024    0.037
 5234.00    1.39860   1.44785    0.037
 5235.00    1.53276   1.46843    0.037
 5236.00    1.56673   1.48923    0.037
 5237.00    1.45231   1.50756    0.037
 5238.00    1.39011   1.52174    0.037
 5239.00    1.39589   1.53072    0.036
 5240.00    1.42211   1.53429    0.036
 5241.00    1.47176   1.53338    0.036
 5242.00    1.49540   1.52801    0.036
 5243.00    1.49273   1.51603    0.036
 5244.00    1.47459   1.49649    0.036
 5245.00    1.44266   1.47271    0.036
 5246.00    1.46121   1.44909    0.036
 5247.00    1.51945   1.42768    0.037
 5248.00    1.47956   1.41086    0.037
 5249.00    1.37182   1.40193    0.036
 5250.00    1.32519   1.40146    0.036
 5251.00    1.31560   1.40725    0.036
 5252.00    1.33561   1.41743    0.036
 5253.00    1.37127   1.43233    0.035
 5254.00    1.41453   1.45212    0.035
 5255.00    1.46128   1.47332    0.035
 5256.00    1.42429   1.48980    0.035
 5257.00    1.35419   1.49541    0.035
 5258.00    1.39992   1.48524    0.036
 5259.00    1.48467   1.45732    0.036
 5260.00    1.46836   1.41361    0.036
 5261.00    1.42344   1.35992    0.035
 5262.00    1.32604   1.30388    0.036
 5263.00    1.21638   1.25280    0.036
 5264.00    1.21391   1.21287    0.036
 5265.00    1.23153   1.18610    0.035
 5266.00    1.19652   1.16885    0.035
 5267.00    1.15389   1.15977    0.035
 5268.00    1.16218   1.16392    0.036
 5269.00    1.17584   1.18411    0.036
 5270.00    1.19188   1.21611    0.036
 5271.00    1.20807   1.25449    0.036
 5272.00    1.23523   1.29542    0.035
 5273.00    1.26275   1.33632    0.035
 5274.00    1.35101   1.37657    0.035
 5275.00    1.43602   1.41431    0.036
 5276.00    1.41497   1.44497    0.036
 5277.00    1.39379   1.46473    0.036
 5278.00    1.37055   1.47270    0.036
 5279.00    1.35661   1.47105    0.036
 5280.00    1.43338   1.46448    0.036
 5281.00    1.49412   1.45912    0.036
 5282.00    1.44192   1.46185    0.036
 5283.00    1.40872   1.47661    0.036
 5284.00    1.47851   1.50098    0.036
 5285.00    1.52746   1.52899    0.036
 5286.00    1.48584   1.55577    0.036
 5287.00    1.46665   1.57843    0.035
 5288.00    1.52778   1.59453    0.036
 5289.00    1.58847   1.60162    0.037
 5290.00    1.64787   1.59852    0.036
 5291.00    1.65535   1.58585    0.036
 5292.00    1.53008   1.56490    0.037
 5293.00    1.44939   1.53625    0.037
 5294.00    1.46678   1.50133    0.037
 5295.00    1.48644   1.46541    0.037
 5296.00    1.51039   1.43691    0.037
 5297.00    1.50392   1.42202    0.037
 5298.00    1.44678   1.42078    0.037
 5299.00    1.39867   1.43109    0.037
 5300.00    1.36371   1.45209    0.037
 5301.00    1.35260   1.48144    0.037
 5302.00    1.37210   1.51428    0.037
 5303.00    1.40992   1.54513    0.037
 5304.00    1.46845   1.57012    0.037
 5305.00    1.53136   1.58852    0.037
 5306.00    1.59862   1.60201    0.037
 5307.00    1.59020   1.61166    0.036
 5308.00    1.51520   1.61710    0.035
 5309.00    1.46866   1.61814    0.035
 5310.00    1.44417   1.61500    0.035
 5311.00    1.43704   1.60830    0.036
 5312.00    1.44174   1.59901    0.035
 5313.00    1.50460   1.58785    0.035
 5314.00    1.60219   1.57571    0.036
 5315.00    1.61277   1.56442    0.035
 5316.00    1.57801   1.55482    0.035
 5317.00    1.55410   1.54577    0.035
 5318.00    1.53509   1.53592    0.034
 5319.00    1.54483   1.52364    0.034
 5320.00    1.56574   1.50674    0.035
 5321.00    1.53095   1.48344    0.034
 5322.00    1.47774   1.45454    0.034
 5323.00    1.40074   1.42299    0.034
 5324.00    1.31714   1.38927    0.033
 5325.00    1.33481   1.35390    0.033
 5326.00    1.37559   1.32428    0.033
 5327.00    1.32858   1.31218    0.033
 5328.00    1.26554   1.32131    0.033
 5329.00    1.27764   1.34648    0.034
 5330.00    1.30028   1.38086    0.034
 5331.00    1.39382   1.41958    0.034
 5332.00    1.49451   1.45793    0.035
 5333.00    1.43562   1.48964    0.035
 5334.00    1.36650   1.50976    0.034
 5335.00    1.39178   1.51740    0.035
 5336.00    1.41984   1.51397    0.035
 5337.00    1.43395   1.50115    0.034
 5338.00    1.44929   1.48362    0.034
 5339.00    1.49984   1.46970    0.035
 5340.00    1.54541   1.46416    0.035
 5341.00    1.51961   1.46515    0.035
 5342.00    1.48939   1.46924    0.034
 5343.00    1.41777   1.47355    0.034
 5344.00    1.36161   1.47690    0.034
 5345.00    1.41090   1.47950    0.035
 5346.00    1.44433   1.48087    0.035
 5347.00    1.39409   1.48367    0.035
 5348.00    1.36559   1.49270    0.034
 5349.00    1.42947   1.50927    0.035
 5350.00    1.49043   1.53106    0.035
 5351.00    1.54118   1.55569    0.036
 5352.00    1.56854   1.58190    0.037
 5353.00    1.52699   1.60712    0.036
 5354.00    1.51684   1.62775    0.036
 5355.00    1.58560   1.64193    0.036
 5356.00    1.64186   1.64897    0.036
 5357.00    1.67105   1.64849    0.036
 5358.00    1.65625   1.64044    0.037
 5359.00    1.55879   1.62538    0.036
 5360.00    1.50688   1.60552    0.036
 5361.00    1.52970   1.58367    0.036
 5362.00    1.55258   1.56063    0.036
 5363.00    1.57553   1.53700    0.036
 5364.00    1.55676   1.51424    0.036
 5365.00    1.48521   1.49189    0.035
 5366.00    1.46892   1.46929    0.035
 5367.00    1.51423   1.44634    0.035
 5368.00    1.50047   1.42499   -2.000
 5369.00    1.42862   1.41171   -2.000
 5370.00    1.37807   1.41336   -2.000
 5371.00    1.34598   1.43073   -2.000
 5372.00    1.29653   1.45800   -2.000
 5373.00    1.23383   1.48881   -2.000
 5374.00    1.21507   1.51732   -2.000
 5375.00    1.22583   1.53979   -2.000
 5376.00    1.36861   1.55561   -2.000
 5377.00    1.58905   1.56411   -2.000
 5378.00    1.62363   1.56517   -2.000
 5379.00    1.56288   1.56115   -2.000
 5380.00    1.48788   1.55467   -2.000
 5381.00    1.40654   1.54774   -2.000
 5382.00    1.44642   1.54285   -2.000
 5383.00    1.53258   1.53998    0.034
 5384.00    1.55043   1.53642    0.034
 5385.00    1.54613   1.53055    0.034
 5386.00    1.53925   1.52133    0.034
 5387.00    1.53166   1.50792    0.034
 5388.00    1.49250   1.49139    0.033
 5389.00    1.44629   1.47389    0.033
 5390.00    1.41891   1.45682    0.033
 5391.00    1.39488   1.44078    0.033
 5392.00    1.42882   1.42623    0.033
 5393.00    1.47063   1.41334    0.034
 5394.00    1.49780   1.40123    0.034
 5395.00    1.52355   1.39177    0.035
 5396.00    1.49297   1.39042    0.035
 5397.00    1.45900   1.39609    0.035
 5398.00    1.43212   1.40285    0.034
 5399.00    1.40547   1.40775    0.034
 5400.00    1.38636   1.40850    0.034
 5401.00    1.37050   1.40069    0.035
 5402.00    1.43834   1.38327    0.035
 5403.00    1.49477   1.36173    0.035
 5404.00    1.39655   1.34423    0.035
 5405.00    1.30978   1.33629    0.035
 5406.00    1.32597   1.33746    0.035
 5407.00    1.33799   1.34503    0.036
 5408.00    1.32243   1.35934    0.036
 5409.00    1.31665   1.38223    0.036
 5410.00    1.36114   1.41089    0.036
 5411.00    1.40644   1.43994    0.036
 5412.00    1.45514   1.46610    0.036
 5413.00    1.48308   1.48900    0.036
 5414.00    1.43969   1.50902    0.036
 5415.00    1.41977   1.52454    0.035
 5416.00    1.46778   1.53325    0.035
 5417.00    1.50894   1.53488    0.035
 5418.00    1.53320   1.53096    0.035
 5419.00    1.54480   1.52474    0.035
 5420.00    1.52945   1.51864    0.035
 5421.00    1.53143   1.51165    0.035
 5422.00    1.56546   1.50422    0.035
 5423.00    1.58034   1.50002    0.035
 5424.00    1.56426   1.49885    0.035
 5425.00    1.52620   1.49608    0.034
 5426.00    1.45697   1.48665    0.034
 5427.00    1.44082   1.46929    0.033
 5428.00    1.49086   1.45068    0.034
 5429.00    1.51902   1.43616    0.034
 5430.00    1.52315   1.42328    0.034
 5431.00    1.52331   1.41170    0.033
 5432.00    1.51965   1.40491    0.033
 5433.00    1.49692   1.40628    0.033
 5434.00    1.45791   1.41782    0.033
 5435.00    1.43427   1.43938    0.033
 5436.00    1.42221   1.46877    0.034
 5437.00    1.43907   1.50087    0.034
 5438.00    1.47508   1.52981    0.033
 5439.00    1.48558   1.55099    0.033
 5440.00    1.48131   1.56152    0.033
 5441.00    1.47549   1.55978    0.033
 5442.00    1.46889   1.54555    0.033
 5443.00    1.46398   1.52118    0.033
 5444.00    1.45982   1.49239    0.034
 5445.00    1.48571   1.46817    0.034
 5446.00    1.52288   1.45620    0.034
 5447.00    1.48359   1.45560    0.034
 5448.00    1.41997   1.46067    0.034
 5449.00    1.42744   1.46620    0.034
 5450.00    1.45380   1.46856    0.034
 5451.00    1.45746   1.46558    0.034
 5452.00    1.45618   1.45694    0.035
 5453.00    1.42465   1.44540    0.035
 5454.00    1.38788   1.43813    0.035
 5455.00    1.41834   1.44004    0.035
 5456.00    1.45762   1.44867    0.035
 5457.00    1.46951   1.45864    0.035
 5458.00    1.47887   1.46577    0.035
 5459.00    1.46837   1.46857    0.035
 5460.00    1.45675   1.46695    0.035
 5461.00    1.45128   1.46287    0.035
 5462.00    1.44653   1.46095    0.036
 5463.00    1.50354   1.46261    0.036
 5464.00    1.55443   1.46573    0.035
 5465.00    1.46177   1.46956    0.035
 5466.00    1.37508   1.47348    0.035
 5467.00    1.36499   1.47458    0.035
 5468.00    1.35796   1.47090    0.036
 5469.00    1.37740   1.46349    0.035
 5470.00    1.39452   1.45291    0.035
 5471.00    1.39685   1.43842    0.035
 5472.00    1.40220   1.42222    0.034
 5473.00    1.42273   1.40643    0.034
 5474.00    1.42589   1.39069    0.034
 5475.00    1.35854   1.37880    0.034
 5476.00    1.30334   1.37619    0.034
 5477.00    1.28905   1.38112    0.034
 5478.00    1.29280   1.38772   -2.000
 5479.00    1.34784   1.39412   -2.000
 5480.00    1.36965   1.40321   -2.000
 5481.00    1.31081   1.41613   -2.000
 5482.00    1.45769   1.43110   -2.000
 5483.00    2.03550   1.44526   -2.000
 5484.00    2.24815   1.45496   -2.000
 5485.00    1.79583   1.45888   -2.000
 5486.00    1.12430   1.46013   -2.000
 5487.00    0.10382   1.46173   -2.000
 5488.00   -0.20564   1.46335   -2.000
 5489.00    0.47816   1.46508   -2.000
 5490.00    1.10003   1.46697   -2.000
 5491.00    1.64577   1.46767   -2.000
 5492.00    2.06316   1.46784   -2.000
 5493.00    2.34145   1.46893   -2.000
 5494.00    2.27838   1.46952   -2.000
 5495.00    1.88899   1.46824   -2.000
 5496.00    1.65566   1.46744   -2.000
 5497.00    1.55386   1.46829   -2.000
 5498.00    1.50097   1.46727   -2.000
 5499.00    1.48437   1.46195   -2.000
 5500.00    1.44963   1.45432   -2.000
 5501.00    1.40305   1.44696   -2.000
 5502.00    1.39107   1.44049    0.034
 5503.00    1.39883   1.43435    0.034
 5504.00    1.43686   1.42821    0.035
 5505.00    1.48993   1.42435    0.035
 5506.00    1.44635   1.42402    0.035
 5507.00    1.36123   1.42416    0.035
 5508.00    1.34011   1.42182    0.035
 5509.00    1.34258   1.41642    0.035
 5510.00    1.35891   1.40891    0.036
 5511.00    1.37957   1.40270    0.035
 5512.00    1.35300   1.40136    0.035
 5513.00    1.31414   1.40607    0.035
 5514.00    1.42317   1.41657    0.034
 5515.00    1.56361   1.43213    0.034
 5516.00    1.49992   1.45144    0.034
 5517.00    1.40196   1.47097    0.035
 5518.00    1.45202   1.48672    0.036
 5519.00    1.52083   1.49697    0.036
 5520.00    1.44249   1.50155    0.035
 5521.00    1.35118   1.50062    0.034
 5522.00    1.34523   1.49442    0.034
 5523.00    1.34375   1.48358    0.034
 5524.00    1.40613   1.46951    0.034
 5525.00    1.46923   1.45416    0.033
 5526.00    1.49670   1.44060    0.033
 5527.00    1.52146   1.43330    0.033
 5528.00    1.48809   1.43383    0.034
 5529.00    1.45306   1.43886    0.034
 5530.00    1.39772   1.44471    0.033
 5531.00    1.35507   1.45020    0.033
 5532.00    1.41820   1.45472    0.033
 5533.00    1.47075   1.45803    0.033
 5534.00    1.45752   1.46154    0.033
 5535.00    1.43871   1.46598    0.033
 5536.00    1.39258   1.47094    0.033
 5537.00    1.36104   1.47715    0.033
 5538.00    1.38735   1.48466    0.033
 5539.00    1.40549   1.49152    0.034
 5540.00    1.39664   1.49546    0.033
 5541.00    1.39070   1.49626    0.033
 5542.00    1.39284   1.49612    0.033
 5543.00    1.42359   1.49688    0.034
 5544.00    1.52258   1.49882    0.034
 5545.00    1.59004   1.50289    0.034
 5546.00    1.59250   1.50982    0.035
 5547.00    1.55995   1.51760    0.035
 5548.00    1.46465   1.52370    0.035
 5549.00    1.41989   1.52690    0.035
 5550.00    1.45440   1.52631    0.035
 5551.00    1.47019   1.52165    0.035
 5552.00    1.46019   1.51451    0.035
 5553.00    1.43894   1.50734    0.035
 5554.00    1.40404   1.50134    0.035
 5555.00    1.38407   1.49602    0.035
 5556.00    1.38005   1.49104    0.035
 5557.00    1.37560   1.48663    0.035
 5558.00    1.37076   1.48200    0.035
 5559.00    1.39908   1.47603    0.035
 5560.00    1.45495   1.46827    0.035
 5561.00    1.45631   1.45941    0.035
 5562.00    1.41779   1.45098    0.035
 5563.00    1.39908   1.44327    0.034
 5564.00    1.39310   1.43592    0.034
 5565.00    1.36644   1.43017    0.034
 5566.00    1.32817   1.42690    0.034
 5567.00    1.33075   1.42519    0.034
 5568.00    1.35331   1.42526    0.033
 5569.00    1.39338   1.42782    0.033
 5570.00    1.44086   1.43063    0.033
 5571.00    1.44515   1.43318    0.033
 5572.00    1.43382   1.43865    0.033
 5573.00    1.40376   1.44653    0.033
 5574.00    1.36797   1.45382    0.033
 5575.00    1.41176   1.46054    0.033
 5576.00    1.47582   1.46661    0.033
 5577.00    1.46864   1.47051    0.033
 5578.00    1.44670   1.47204    0.034
 5579.00    1.43601   1.47009    0.034
 5580.00    1.42716   1.46290    0.034
 5581.00    1.42967   1.45095    0.033
 5582.00    1.43358   1.43468    0.033
 5583.00    1.42911   1.41361    0.033
 5584.00    1.42394   1.38886    0.033
 5585.00    1.38312   1.36383    0.034
 5586.00    1.34057   1.34315    0.034
 5587.00    1.30882   1.33063    0.034
 5588.00    1.27777   1.32770    0.034
 5589.00    1.27832   1.33316    0.035
 5590.00    1.27745   1.34393    0.035
 5591.00    1.24805   1.35719    0.035
 5592.00    1.22739   1.37106    0.035
 5593.00    1.30803   1.38486    0.035
 5594.00    1.37177   1.39736    0.036
 5595.00    1.29957   1.40443    0.036
 5596.00    1.23427   1.40343    0.035
 5597.00    1.21066   1.39749    0.036
 5598.00    1.20354   1.39103    0.037
 5599.00    1.27511   1.38592    0.036
 5600.00    1.33263   1.38444    0.036
 5601.00    1.33560   1.38980    0.036
 5602.00    1.34562   1.40399    0.037
 5603.00    1.37844   1.42565    0.036
 5604.00    1.38891   1.45033    0.036
 5605.00    1.33821   1.47342    0.035
 5606.00    1.32693   1.49190    0.035
 5607.00    1.40814   1.50416    0.035
 5608.00    1.47000   1.50957    0.035
 5609.00    1.49262   1.50807    0.035
 5610.00    1.47985   1.49981    0.034
 5611.00    1.40459   1.48477    0.034
 5612.00    1.38223   1.46288    0.034
 5613.00    1.44162   1.43671    0.033
 5614.00    1.46121   1.41406    0.032
 5615.00    1.42679   1.40138    0.033
 5616.00    1.40824   1.39703    0.033
 5617.00    1.40865   1.39649    0.033
 5618.00    1.39115   1.39834    0.032
 5619.00    1.35480   1.40235    0.032
 5620.00    1.34079   1.40655    0.032
 5621.00    1.34755   1.40757    0.032
 5622.00    1.37435   1.40390    0.032
 5623.00    1.41757   1.39943    0.032
 5624.00    1.43727   1.40028    0.032
 5625.00    1.44001   1.40761    0.033
 5626.00    1.41697   1.41890    0.033
 5627.00    1.37760   1.43266    0.033
 5628.00    1.36438   1.44723    0.033
 5629.00    1.36563   1.45956    0.034
 5630.00    1.41152   1.46712    0.034
 5631.00    1.47891   1.46873    0.034
 5632.00    1.49281   1.46451    0.034
 5633.00    1.48450   1.45598    0.035
 5634.00    1.44982   1.44496    0.035
 5635.00    1.40577   1.43320    0.035
 5636.00    1.41442   1.42310    0.035
 5637.00    1.43889   1.41638    0.035
 5638.00    1.42263   1.41224    0.035
 5639.00    1.39622   1.40930    0.035
 5640.00    1.40371   1.40833    0.035
 5641.00    1.41804   1.41051    0.035
 5642.00    1.38681   1.41496    0.035
 5643.00    1.34837   1.42048    0.034
 5644.00    1.35367   1.42655    0.034
 5645.00    1.36412   1.43263    0.035
 5646.00    1.31532   1.43800    0.034
 5647.00    1.26178   1.44178    0.033
 5648.00    1.39121   1.44413    0.033
 5649.00    1.52878   1.44601    0.033
 5650.00    1.41126   1.44687    0.033
 5651.00    1.29333   1.44445    0.033
 5652.00    1.29710   1.43717    0.033
 5653.00    1.30218   1.42602    0.033
 5654.00    1.33127   1.41387    0.033
 5655.00    1.35890   1.40083    0.033
 5656.00    1.37035   1.38536    0.033
 5657.00    1.37593   1.37160    0.033
 5658.00    1.33604   1.36589    0.033
 5659.00    1.29915   1.36706    0.033
 5660.00    1.27981   1.37071    0.032
 5661.00    1.27209   1.37671    0.032
 5662.00    1.31842   1.38657    0.032
 5663.00    1.36629   1.39877    0.032
 5664.00    1.42007   1.40967    0.032
 5665.00    1.46491   1.41701    0.033
 5666.00    1.48133   1.42218    0.033
 5667.00    1.46691   1.42803    0.033
 5668.00    1.36950   1.43538    0.032
 5669.00    1.32117   1.44391    0.032
 5670.00    1.38608   1.45399    0.033
 5671.00    1.42117   1.46554    0.034
 5672.00    1.39674   1.47635    0.034
 5673.00    1.42574   1.48405    0.034
 5674.00    1.54766   1.48854    0.034
 5675.00    1.57808   1.49033    0.035
 5676.00    1.46920   1.48837    0.035
 5677.00    1.42115   1.48210    0.035
 5678.00    1.45447   1.47313    0.035
 5679.00    1.49454   1.46277    0.036
 5680.00    1.54256   1.45091    0.035
 5681.00    1.54028   1.43887    0.035
 5682.00    1.48573   1.42964    0.035
 5683.00    1.44814   1.42399    0.035
 5684.00    1.42608   1.42014    0.034
 5685.00    1.41371   1.41735    0.034
 5686.00    1.40917   1.41733    0.034
 5687.00    1.40759   1.42196    0.033
 5688.00    1.40811   1.43094    0.033
 5689.00    1.41760   1.44196    0.033
 5690.00    1.43267   1.45284    0.034
 5691.00    1.45675   1.46209    0.033
 5692.00    1.48574   1.46792    0.033
 5693.00    1.51637   1.46938    0.032
 5694.00    1.54778   1.46673    0.033
 5695.00    1.52465   1.45994    0.033
 5696.00    1.47926   1.44893    0.033
 5697.00    1.41888   1.43555    0.033
 5698.00    1.35328   1.42243    0.033
 5699.00    1.36611   1.40994    0.033
 5700.00    1.40201   1.39838    0.033
 5701.00    1.43653   1.38920    0.033
 5702.00    1.47071   1.38213    0.033
 5703.00    1.45863   1.37483    0.032
 5704.00    1.43744   1.36505    0.032
 5705.00    1.40298   1.35334    0.032
 5706.00    1.36648   1.34229    0.031
 5707.00    1.34835   1.33372    0.031
 5708.00    1.33230   1.32988    0.032
 5709.00    1.29132   1.33233    0.032
 5710.00    1.24846   1.34062    0.032
 5711.00    1.29409   1.35548    0.032
 5712.00    1.34332   1.37613    0.033
 5713.00    1.39902   1.39841    0.033
 5714.00    1.45275   1.41981    0.034
 5715.00    1.42274   1.43935    0.034
 5716.00    1.39902   1.45617    0.034
 5717.00    1.48338   1.47074    0.034
 5718.00    1.55980   1.48321    0.034
 5719.00    1.55225   1.49290    0.034
 5720.00    1.53773   1.50007    0.033
 5721.00    1.47096   1.50479    0.033
 5722.00    1.41525   1.50638    0.033
 5723.00    1.42264   1.50468    0.033
 5724.00    1.43382   1.49974    0.032
 5725.00    1.46222   1.49225    0.033
 5726.00    1.47723   1.48501    0.033
 5727.00    1.44238   1.48079    0.033
 5728.00    1.41146   1.47849    0.032
 5729.00    1.39277   1.47585    0.032
 5730.00    1.38311   1.47395    0.032
 5731.00    1.39737   1.47566    0.032
 5732.00    1.42545   1.48054    0.032
 5733.00    1.48491   1.48525    0.032
 5734.00    1.52276   1.48783    0.032
 5735.00    1.51814   1.48851    0.031
 5736.00    1.50650   1.48831    0.031
 5737.00    1.48285   1.48787    0.031
 5738.00    1.46276   1.48708    0.031
 5739.00    1.44801   1.48597    0.031
 5740.00    1.45741   1.48463    0.000
 5741.00    1.49867   1.48317    0.000
 5742.00    1.50952   1.48268    0.000
 5743.00    1.48508   1.48366    0.000
 5744.00    1.47112   1.48433    0.000
 5745.00    1.46789   1.48205    0.000
 5746.00    1.46399   1.47625    0.000
 5747.00    1.45950   1.46969    0.000
 5748.00    1.48730   1.46505    0.000
 5749.00    1.54081   1.46079    0.000
 5750.00    1.51924   1.45442    0.000
 5751.00    1.44509   1.44672    0.000
 5752.00    1.41687   1.44110    0.000
 5753.00    1.41686   1.44085    0.000
 5754.00    1.40436   1.44565    0.000
 5755.00    1.38516   1.45145    0.000
 5756.00    1.39446   1.45496    0.000
 5757.00    1.41703   1.45555    0.000
 5758.00    1.42692   1.45331    0.000
 5759.00    1.43171   1.44919    0.000
 5760.00    1.46887   1.44512    0.000
 5761.00    1.51710   1.44383    0.000
 5762.00    1.54387   1.44840    0.000
 5763.00    1.56446   1.45876    0.000
 5764.00    1.53202   1.47083    0.000
 5765.00    1.48694   1.48170    0.000
 5766.00    1.45200   1.49052    0.000
 5767.00    1.41900   1.49614    0.000
 5768.00    1.43171   1.49785    0.000
 5769.00    1.45122   1.49589    0.000
 5770.00    1.43349   1.49123    0.000
 5771.00    1.41171   1.48561    0.000
 5772.00    1.38394   1.48019    0.000
 5773.00    1.35574   1.47439    0.000
 5774.00    1.39356   1.46798    0.000
 5775.00    1.43382   1.46054    0.000
 5776.00    1.47125   1.45037    0.000
 5777.00    1.50736   1.43620    0.000
 5778.00    1.49655   1.41743    0.000
 5779.00    1.48503   1.39548    0.000
 5780.00    1.46199   1.37498    0.000
 5781.00    1.43800   1.36038    0.000
 5782.00    1.40433   1.35206    0.000
 5783.00    1.37550   1.34850    0.000
 5784.00    1.38169   1.35069    0.000
 5785.00    1.38685   1.36078    0.000
 5786.00    1.38628   1.37646    0.000
 5787.00    1.38479   1.39297    0.000
 5788.00    1.37917   1.40771    0.000
 5789.00    1.36961   1.41994    0.000
 5790.00    1.34565   1.43108    0.000
 5791.00    1.33739   1.44210   -2.000
 5792.00    1.37710   1.45174   -2.000
 5793.00    1.40498   1.45982   -2.000
 5794.00    1.40214   1.46626   -2.000
 5795.00    1.37381   1.47039   -2.000
 5796.00    1.28858   1.47324   -2.000
 5797.00    1.26458   1.47744   -2.000
 5798.00    1.35900   1.48383   -2.000
 5799.00    1.41560   1.48960   -2.000
 5800.00    1.40837   1.49228   -2.000
 5801.00    1.40087   1.49175   -2.000
 5802.00    1.39294   1.48814   -2.000
 5803.00    1.40915   1.48274   -2.000
 5804.00    1.45672   1.47787   -2.000
 5805.00    1.48387   1.47472   -2.000
 5806.00    1.48764   1.47348   -2.000
 5807.00    1.47846   1.47375   -2.000
 5808.00    1.45619   1.47516   -2.000
 5809.00    1.43154   1.47730   -2.000
 5810.00    1.40479   1.47868   -2.000
 5811.00    1.40003   1.47839    0.000
 5812.00    1.41251   1.47683    0.000
 5813.00    1.42678   1.47431    0.000
 5814.00    1.44229   1.47189    0.000
 5815.00    1.44868   1.47200    0.000
 5816.00    1.44955   1.47648    0.000
 5817.00    1.44153   1.48404    0.000
 5818.00    1.42883   1.49177    0.000
 5819.00    1.43519   1.49847    0.000
 5820.00    1.45028   1.50391    0.000
 5821.00    1.43890   1.50774    0.000
 5822.00    1.41708   1.50998    0.000
 5823.00    1.44196   1.51123    0.000
 5824.00    1.48254   1.51195    0.000
 5825.00    1.49396   1.51201    0.000
 5826.00    1.49715   1.51170    0.000
 5827.00    1.50837   1.51152    0.000
 5828.00    1.52146   1.51115    0.000
 5829.00    1.48881   1.50960    0.000
 5830.00    1.44762   1.50674    0.000
 5831.00    1.40326   1.50323    0.000
 5832.00    1.35844   1.49905    0.000
 5833.00    1.38636   1.49464    0.000
 5834.00    1.42190   1.49177    0.000
 5835.00    1.39988   1.49134    0.000
 5836.00    1.37397   1.49193    0.000
 5837.00    1.39344   1.49308    0.000
 5838.00    1.41441   1.49618    0.000
 5839.00    1.42937   1.50086    0.000
 5840.00    1.44339   1.50459    0.000
 5841.00    1.42767   1.50553    0.000
 5842.00    1.41504   1.50354    0.000
 5843.00    1.44900   1.49919    0.000
 5844.00    1.47808   1.49258    0.000
 5845.00    1.45988   1.48376    0.000
 5846.00    1.44030   1.47376    0.000
 5847.00    1.41107   1.46411    0.000
 5848.00    1.38579   1.45534    0.000
 5849.00    1.38187   1.44652    0.000
 5850.00    1.37997   1.43617    0.000
 5851.00    1.38683   1.42391    0.000
 5852.00    1.38764   1.41190    0.000
 5853.00    1.36685   1.40247    0.000
 5854.00    1.34254   1.39474    0.000
 5855.00    1.30764   1.38670    0.000
 5856.00    1.28172   1.37980    0.000
 5857.00    1.27866   1.37834    0.000
 5858.00    1.28565   1.38329    0.000
 5859.00    1.31467   1.39094    0.000
 5860.00    1.34688   1.39798    0.000
 5861.00    1.38519   1.40395    0.000
 5862.00    1.41011   1.41090    0.000
 5863.00    1.41277   1.41865    0.000
 5864.00    1.41281   1.42459    0.000
 5865.00    1.40906   1.42828    0.000
 5866.00    1.41404   1.43240    0.000
 5867.00    1.43022   1.43872    0.000
 5868.00    1.42694   1.44556    0.000
 5869.00    1.40169   1.45068    0.000
 5870.00    1.40578   1.45338    0.000
 5871.00    1.43908   1.45425    0.000
 5872.00    1.43529   1.45384    0.000
 5873.00    1.39893   1.45208    0.000
 5874.00    1.39120   1.44793    0.000
 5875.00    1.40561   1.44121    0.000
 5876.00    1.42467   1.43324    0.000
 5877.00    1.44691   1.42451    0.000
 5878.00    1.44260   1.41489    0.000
 5879.00    1.42248   1.40506    0.000
 5880.00    1.38191   1.39608    0.000
 5881.00    1.33071   1.38596    0.000
 5882.00    1.28935   1.37007    0.000
 5883.00    1.25242   1.34625    0.000
 5884.00    1.23843   1.31576    0.000
 5885.00    1.23333   1.27968    0.000
 5886.00    1.22032   1.23712    0.000
 5887.00    1.20470   1.18827    0.000
 5888.00    1.20275   1.13910    0.000
 5889.00    1.20457   1.10146    0.000
 5890.00    1.17478   1.08279    0.000
 5891.00    1.13781   1.07828    0.000
 5892.00    1.13539   1.08064    0.000
 5893.00    1.13926   1.08720    0.000
 5894.00    1.09734   1.09849    0.000
 5895.00    1.04902   1.12047    0.000
 5896.00    1.08060   1.15537    0.000
 5897.00    1.12019   1.19487    0.000
 5898.00    1.14079   1.23255    0.000
 5899.00    1.16018   1.26899    0.000
 5900.00    1.19939   1.30422    0.000
 5901.00    1.23914   1.33512    0.029
 5902.00    1.26520   1.35858    0.030
 5903.00    1.29327   1.37461    0.030
 5904.00    1.37812   1.38526    0.030
 5905.00    1.45533   1.39305    0.030
 5906.00    1.42376   1.39948    0.029
 5907.00    1.39159   1.40384    0.029
 5908.00    1.35387   1.40526    0.029
 5909.00    1.32181   1.40465    0.028
 5910.00    1.32829   1.40292    0.028
 5911.00    1.33888   1.39931    0.028
 5912.00    1.37110   1.39312    0.028
 5913.00    1.39837   1.38668    0.028
 5914.00    1.40470   1.38340    0.028
 5915.00    1.40844   1.38352    0.028
 5916.00    1.40312   1.38625    0.028
 5917.00    1.39171   1.39069    0.028
 5918.00    1.36238   1.39626    0.028
 5919.00    1.33160   1.40247    0.028
 5920.00    1.29722   1.40757    0.028
 5921.00    1.28312   1.41104    0.028
 5922.00    1.31287   1.41359    0.028
 5923.00    1.34298   1.41494    0.028
 5924.00    1.37377   1.41469    0.028
 5925.00    1.40492   1.41346    0.028
 5926.00    1.43666   1.41112    0.029
 5927.00    1.44503   1.40757    0.029
 5928.00    1.41986   1.40329    0.028
 5929.00    1.40127   1.40016    0.028
 5930.00    1.39100   1.40029    0.029
 5931.00    1.38715   1.40156    0.029
 5932.00    1.39046   1.40158    0.029
 5933.00    1.37867   1.40121    0.028
 5934.00    1.35204   1.40287    0.028
 5935.00    1.33792   1.40645    0.028
 5936.00    1.33461   1.40911    0.029
 5937.00    1.35267   1.41037    0.029
 5938.00    1.38704   1.41116    0.029
 5939.00    1.38771   1.41090    0.029
 5940.00    1.36580   1.40986    0.029
 5941.00    1.35121   1.40971    0.028
 5942.00    1.34091   1.41041    0.028
 5943.00    1.34016   1.41095    0.027
 5944.00    1.34430   1.41127    0.027
 5945.00    1.35183   1.41093    0.027
 5946.00    1.36086   1.40830    0.028
 5947.00    1.36883   1.40319    0.028
 5948.00    1.37640   1.39864    0.027
 5949.00    1.36742   1.39653    0.027
 5950.00    1.35308   1.39414    0.027
 5951.00    1.33577   1.38947    0.027
 5952.00    1.31765   1.38596    0.027
 5953.00    1.32136   1.38675    0.027
 5954.00    1.32993   1.38912    0.027
 5955.00    1.36894   1.39026    0.027
 5956.00    1.41335   1.39227    0.028
 5957.00    1.39828   1.39767    0.028
 5958.00    1.37518   1.40544    0.027
 5959.00    1.36773   1.41297    0.028
 5960.00    1.36179   1.41920    0.028
 5961.00    1.41622   1.42452    0.028
 5962.00    1.47425   1.42879    0.029
 5963.00    1.44201   1.43166    0.028
 5964.00    1.40766   1.43313    0.028
 5965.00    1.40350   1.43466    0.029
 5966.00    1.39916   1.43768    0.029
 5967.00    1.39020   1.44097    0.029
 5968.00    1.38228   1.44336    0.029
 5969.00    1.38824   1.44462    0.029
 5970.00    1.39217   1.44402    0.029
 5971.00    1.37781   1.44096    0.028
 5972.00    1.36107   1.43541    0.028
 5973.00    1.32863   1.42779    0.028
 5974.00    1.30743   1.41894    0.028
 5975.00    1.34388   1.41036    0.027
 5976.00    1.37406   1.40381    0.027
 5977.00    1.37829   1.39917    0.027
 5978.00    1.38574   1.39568    0.027
 5979.00    1.40421   1.39331    0.027
 5980.00    1.41775   1.39099    0.027
 5981.00    1.41711   1.38740    0.027
 5982.00    1.40607   1.38262    0.027
 5983.00    1.36943   1.37899    0.026
 5984.00    1.33968   1.37948    0.026
 5985.00    1.32460   1.38289    0.026
 5986.00    1.30485   1.38671    0.027
 5987.00    1.27649   1.39203    0.027
 5988.00    1.28331   1.39938    0.027
 5989.00    1.34686   1.40643    0.027
 5990.00    1.39718   1.41075    0.027
 5991.00    1.42879   1.41330    0.027
 5992.00    1.43416   1.41561    0.027
 5993.00    1.40687   1.41615    0.027
 5994.00    1.38882   1.41370    0.028
 5995.00    1.38089   1.40902    0.028
 5996.00    1.36741   1.40341    0.029
 5997.00    1.34856   1.39850    0.029
 5998.00    1.33568   1.39528    0.029
 5999.00    1.32792   1.39302    0.029
 6000.00    1.31909   1.39017    0.028
 6001.00    1.30945   1.38579    0.028
 6002.00    1.31588   1.38128    0.028
 6003.00    1.33293   1.37864    0.028
 6004.00    1.31945   1.37631    0.028
 6005.00    1.28833   1.37241    0.027
 6006.00    1.26058   1.36773    0.027
 6007.00    1.23454   1.36467    0.028
 6008.00    1.24086   1.36609    0.027
 6009.00    1.26128   1.36985    0.027
 6010.00    1.26279   1.37085    0.027
 6011.00    1.25721   1.36870    0.027
 6012.00    1.30067   1.36682    0.027
 6013.00    1.35969   1.36679    0.027
 6014.00    1.38310   1.36570    0.027
 6015.00    1.39706   1.36168    0.027
 6016.00    1.39829   1.35819    0.027
 6017.00    1.39676   1.35736    0.027
 6018.00    1.39575   1.35684    0.027
 6019.00    1.39484   1.35629    0.026
 6020.00    1.39845   1.35833    0.026
 6021.00    1.40264   1.36309    0.027
 6022.00    1.43272   1.36918    0.027
 6023.00    1.46517   1.37626    0.028
 6024.00    1.48073   1.38527    0.028
 6025.00    1.49535   1.39441    0.028
 6026.00    1.46779   1.40249    0.028
 6027.00    1.43906   1.41111    0.028
 6028.00    1.38460   1.41957    0.028
 6029.00    1.33326   1.42607    0.028
 6030.00    1.35429   1.43090    0.028
 6031.00    1.37311   1.43572    0.028
 6032.00    1.36378   1.43993    0.028
 6033.00    1.35699   1.44218    0.028
 6034.00    1.37202   1.44281    0.028
 6035.00    1.38800   1.44288    0.029
 6036.00    1.41003   1.44244    0.028
 6037.00    1.42939   1.44122    0.027
 6038.00    1.43548   1.43961    0.027
 6039.00    1.43445   1.43860    0.027
 6040.00    1.40462   1.43888    0.027
 6041.00    1.38092   1.44032    0.027
 6042.00    1.37781   1.44322    0.027
 6043.00    1.37783   1.44681    0.027
 6044.00    1.38667   1.45004    0.027
 6045.00    1.39939   1.45284    0.027
 6046.00    1.42147   1.45478    0.026
 6047.00    1.44868   1.45480    0.026
 6048.00    1.48661   1.45296    0.027
 6049.00    1.50243   1.45021    0.027
 6050.00    1.47805   1.44591    0.027
 6051.00    1.45090   1.43953    0.027
 6052.00    1.41933   1.43241    0.027
 6053.00    1.39235   1.42641    0.027
 6054.00    1.37175   1.42166    0.027
 6055.00    1.34581   1.41748    0.027
 6056.00    1.31334   1.41485    0.027
 6057.00    1.29380   1.41401    0.027
 6058.00    1.28825   1.41372    0.028
 6059.00    1.32040   1.41214    0.028
 6060.00    1.38851   1.40909    0.029
 6061.00    1.43507   1.40598    0.029
 6062.00    1.46350   1.40375    0.028
 6063.00    1.45844   1.40237    0.028
 6064.00    1.42859   1.40256    0.028
 6065.00    1.40452   1.40787    0.028
 6066.00    1.38420   1.41835    0.029
 6067.00    1.38171   1.42950    0.028
 6068.00    1.38936   1.43913    0.027
 6069.00    1.38691   1.44777    0.027
 6070.00    1.37945   1.45502    0.027
 6071.00    1.36541   1.45883    0.027
 6072.00    1.34855   1.45805    0.027
 6073.00    1.33874   1.45353    0.026
 6074.00    1.33153   1.44664    0.026
 6075.00    1.34457   1.43780    0.026
 6076.00    1.36391   1.42665    0.026
 6077.00    1.39258   1.41436    0.026
 6078.00    1.42368   1.40420    0.026
 6079.00    1.40996   1.39704    0.026
 6080.00    1.38675   1.38997    0.027
 6081.00    1.36695   1.38369    0.026
 6082.00    1.34771   1.38170    0.026
 6083.00    1.34161   1.38229    0.027
 6084.00    1.33717   1.38145    0.027
 6085.00    1.33759   1.38007    0.027
 6086.00    1.33843   1.38047    0.027
 6087.00    1.32080   1.38100    0.027
 6088.00    1.30222   1.37923    0.028
 6089.00    1.32228   1.37707    0.028
 6090.00    1.34265   1.37775    0.028
 6091.00    1.33408   1.38002    0.028
 6092.00    1.32450   1.38208    0.028
 6093.00    1.29351   1.38551    0.028
 6094.00    1.26481   1.39064    0.028
 6095.00    1.26376   1.39342    0.028
 6096.00    1.26347   1.39173    0.028
 6097.00    1.26945   1.38727    0.027
 6098.00    1.27410   1.38218    0.027
 6099.00    1.27051   1.37639    0.027
 6100.00    1.26737   1.36780    0.027
 6101.00    1.26636   1.35719    0.026
 6102.00    1.26340   1.35175    0.026
 6103.00    1.25268   1.35601    0.026
 6104.00    1.24391   1.36376    0.026
 6105.00    1.24155   1.36998    0.026
 6106.00    1.24484   1.37618    0.026
 6107.00    1.26387   1.38480    0.027
 6108.00    1.27177   1.39467    0.027
 6109.00    1.25320   1.40151    0.026
 6110.00    1.24825   1.40369    0.026
 6111.00    1.27131   1.40489    0.026
 6112.00    1.29889   1.40733    0.026
 6113.00    1.33456   1.40803    0.027
 6114.00    1.35416   1.40379    0.027
 6115.00    1.34861   1.39562    0.027
 6116.00    1.34784   1.38680    0.027
 6117.00    1.35365   1.37756    0.027
 6118.00    1.35362   1.36674    0.027
 6119.00    1.34651   1.35579    0.027
 6120.00    1.33186   1.34661    0.027
 6121.00    1.30917   1.34067    0.027
 6122.00    1.28517   1.34118    0.027
 6123.00    1.25995   1.34626    0.027
 6124.00    1.24662   1.35092    0.027
 6125.00    1.24316   1.35547    0.027
 6126.00    1.26288   1.36144    0.027
 6127.00    1.29954   1.36710    0.027
 6128.00    1.33065   1.37091    0.027
 6129.00    1.35819   1.37253    0.027
 6130.00    1.35777   1.37003    0.027
 6131.00    1.34166   1.36190    0.027
 6132.00    1.31899   1.35005    0.027
 6133.00    1.29312   1.33696    0.026
 6134.00    1.26683   1.32296    0.026
 6135.00    1.24036   1.30830    0.026
 6136.00    1.23292   1.29762    0.026
 6137.00    1.23234   1.29852    0.027
 6138.00    1.23604   1.30988    0.027
 6139.00    1.24103   1.32267    0.027
 6140.00    1.26456   1.33333    0.027
 6141.00    1.29279   1.34621    0.027
 6142.00    1.30160   1.36229    0.027
 6143.00    1.30640   1.37454    0.027
 6144.00    1.32749   1.37940    0.027
 6145.00    1.35123   1.38048    0.027
 6146.00    1.35112   1.38050    0.027
 6147.00    1.34812   1.37847    0.028
 6148.00    1.34264   1.37408    0.028
 6149.00    1.33695   1.36899    0.028
 6150.00    1.31652   1.36500    0.027
 6151.00    1.29538   1.36231    0.027
 6152.00    1.28896   1.35880    0.027
 6153.00    1.28285   1.35240    0.027
 6154.00    1.28148   1.34427    0.027
 6155.00    1.27832   1.33453    0.027
 6156.00    1.24010   1.31993    0.027
 6157.00    1.20397   1.30084    0.027
 6158.00    1.19196   1.28134    0.027
 6159.00    1.18093   1.26163    0.027
 6160.00    1.17771   1.24094    0.027
 6161.00    1.17523   1.22512    0.026
 6162.00    1.17721   1.21988    0.026
 6163.00    1.17781   1.22189    0.026
 6164.00    1.17183   1.22515    0.026
 6165.00    1.17091   1.23035    0.026
 6166.00    1.18960   1.24047    0.026
 6167.00    1.21579   1.25016    0.026
 6168.00    1.26620   1.25438    0.026
 6169.00    1.30350   1.25946    0.026
 6170.00    1.30496   1.27064    0.026
 6171.00    1.29022   1.28178    0.026
 6172.00    1.23756   1.28885    0.026
 6173.00    1.20337   1.29713    0.026
 6174.00    1.20659   1.30762    0.026
 6175.00    1.20530   1.31556    0.027
 6176.00    1.19604   1.32127    0.027
 6177.00    1.18482   1.32812    0.027
 6178.00    1.17057   1.33406    0.027
 6179.00    1.17489   1.33697    0.027
 6180.00    1.20438   1.33932    0.027
 6181.00    1.22039   1.34057    0.027
 6182.00    1.22032   1.33799    0.027
 6183.00    1.21242   1.33234    0.027
 6184.00    1.19630   1.32512    0.026
 6185.00    1.20019   1.31450    0.026
 6186.00    1.22265   1.30119    0.027
 6187.00    1.23730   1.28989    0.027
 6188.00    1.24557   1.28282    0.027
 6189.00    1.24643   1.27701    0.027
 6190.00    1.24197   1.27203    0.027
 6191.00    1.23038   1.27425    0.026
 6192.00    1.21429   1.28467    0.026
 6193.00    1.19808   1.29476    0.026
 6194.00    1.18181   1.30137    0.026
 6195.00    1.11998   1.30830    0.027
 6196.00    1.03629   1.31622   -2.000
 6197.00    0.69276   1.32070   -2.000
 6198.00    0.24152   1.32076   -2.000
 6199.00    0.05566   1.32117   -2.000
 6200.00   -0.03613   1.32541   -2.000
 6201.00    0.41536   1.33107   -2.000
 6202.00    1.02944   1.33521   -2.000
 6203.00    1.51297   1.33843   -2.000
 6204.00    1.96406   1.34172   -2.000
 6205.00    1.98301   1.34358   -2.000
 6206.00    1.91494   1.34195   -2.000
 6207.00    1.72172   1.33665   -2.000
 6208.00    1.50877   1.32783    0.030
 6209.00    1.42016   1.31577    0.029
 6210.00    1.34613   1.30190    0.028
 6211.00    1.32463   1.28745    0.028
 6212.00    1.30729   1.27254    0.027
 6213.00    1.28337   1.25899    0.027
 6214.00    1.25915   1.24883    0.027
 6215.00    1.25874   1.24272    0.026
 6216.00    1.25831   1.24092    0.026
 6217.00    1.24434   1.24167    0.026
 6218.00    1.22961   1.24254    0.026
 6219.00    1.20103   1.24456    0.026
 6220.00    1.17490   1.24960    0.026
 6221.00    1.17569   1.25554    0.026
 6222.00    1.18028   1.25921    0.025
 6223.00    1.21420   1.26054    0.025
 6224.00    1.24059   1.26079    0.025
 6225.00    1.22295   1.25862    0.025
 6226.00    1.20694   1.25361    0.025
 6227.00    1.19845   1.24797    0.026
 6228.00    1.19317   1.24166    0.026
 6229.00    1.20007   1.23565    0.027
 6230.00    1.20782   1.23420    0.027
 6231.00    1.21822   1.23870    0.027
 6232.00    1.22983   1.24511    0.027
 6233.00    1.24466   1.25261    0.027
 6234.00    1.25116   1.25996    0.026
 6235.00    1.23848   1.26399    0.026
 6236.00    1.22363   1.26388    0.026
 6237.00    1.20442   1.26028    0.026
 6238.00    1.18672   1.25248    0.026
 6239.00    1.17164   1.24286    0.026
 6240.00    1.15625   1.23575    0.026
 6241.00    1.14040   1.23002    0.026
 6242.00    1.13484   1.22472    0.026
 6243.00    1.14302   1.22448    0.026
 6244.00    1.14137   1.22875    0.026
 6245.00    1.12815   1.23311    0.025
 6246.00    1.13480   1.23770    0.025
 6247.00    1.16206   1.24218    0.025
 6248.00    1.19076   1.24319    0.025
 6249.00    1.22081   1.24020    0.026
 6250.00    1.22666   1.23393    0.026
 6251.00    1.21300   1.22383    0.026
 6252.00    1.20296   1.21225    0.026
 6253.00    1.19548   1.20225    0.026
 6254.00    1.19248   1.19485    0.026
 6255.00    1.19227   1.19009    0.026
 6256.00    1.19660   1.18828    0.026
 6257.00    1.20340   1.19116    0.026
 6258.00    1.19288   1.20039    0.027
 6259.00    1.17418   1.21342    0.029
 6260.00    1.02330   1.22496    0.030
 6261.00    0.81855   1.23679    0.031
 6262.00    0.77025   1.25030    0.032
 6263.00    0.77640   1.26009    0.033
 6264.00    1.00852   1.26383    0.033
 6265.00    1.30692   1.26748    0.033
 6266.00    1.45676   1.27264    0.032
 6267.00    1.57051   1.27524    0.031
 6268.00    1.50758   1.27570    0.029
 6269.00    1.40998   1.27756    0.028
 6270.00    1.32385   1.28102    0.027
 6271.00    1.23947   1.28411    0.027
 6272.00    1.22949   1.28608    0.026
 6273.00    1.22790   1.28690    0.026
 6274.00    1.23083   1.28707    0.026
 6275.00    1.23410   1.28604    0.026
 6276.00    1.21421   1.28372    0.026
 6277.00    1.19339   1.28134    0.026
 6278.00    1.20052   1.27936    0.026
 6279.00    1.20778   1.27765    0.025
 6280.00    1.21205   1.27779    0.000
 6281.00    1.21695   1.28117    0.000
 6282.00    1.23243   1.28679    0.000
 6283.00    1.25040   1.29338    0.000
 6284.00    1.29457   1.29948    0.000
 6285.00    1.33144   1.30516    0.000
 6286.00    1.31391   1.31005    0.000
 6287.00    1.29536   1.31295    0.000
 6288.00    1.27097   1.31259    0.000
 6289.00    1.24779   1.30951    0.000
 6290.00    1.23005   1.30477    0.000
 6291.00    1.22183   1.29841    0.000
 6292.00    1.24897   1.29056    0.000
 6293.00    1.26694   1.28340    0.000
 6294.00    1.25641   1.27715    0.000
 6295.00    1.23677   1.26958    0.000
 6296.00    1.19310   1.26144    0.000
 6297.00    1.15830   1.25640    0.000
 6298.00    1.14361   1.25501    0.000
 6299.00    1.12573   1.25417    0.000
 6300.00    1.10161   1.25281    0.000
 6301.00    1.09140   1.25457    0.000
 6302.00    1.10496   1.26178    0.000
 6303.00    1.12746   1.27055    0.000
 6304.00    1.16333   1.27710    0.000
 6305.00    1.18438   1.28308    0.000
 6306.00    1.18593   1.28996    0.000
 6307.00    1.18794   1.29469    0.000
 6308.00    1.19046   1.29503    0.000
 6309.00    1.20473   1.29115    0.000
 6310.00    1.23100   1.28445    0.000
 6311.00    1.22484   1.27772    0.000
 6312.00    1.18944   1.27098    0.000
 6313.00    1.16650   1.26117    0.000
 6314.00    1.15347   1.25132    0.000
 6315.00    1.16142   1.24758    0.000
 6316.00    1.18405   1.24674    0.000
 6317.00    1.18997   1.24430    0.000
 6318.00    1.18565   1.24595    0.000
 6319.00    1.18724   1.25472    0.000
 6320.00    1.19199   1.26406    0.000
 6321.00    1.21160   1.27109    0.027
 6322.00    1.23812   1.27959    0.028
 6323.00    1.24177   1.29006    0.027
 6324.00    1.23626   1.29825    0.026
 6325.00    1.20728   1.30273    0.026
 6326.00    1.17028   1.30532    0.027
 6327.00    1.16798   1.30814    0.027
 6328.00    1.17564   1.30985    0.026
 6329.00    1.20686   1.30760    0.026
 6330.00    1.24367   1.30237    0.026
 6331.00    1.26597   1.29746    0.025
 6332.00    1.28549   1.29306    0.025
 6333.00    1.26168   1.28646    0.025
 6334.00    1.23143   1.27753    0.025
 6335.00    1.21617   1.27165    0.025
 6336.00    1.20254   1.27117    0.026
 6337.00    1.19695   1.27175    0.026
 6338.00    1.19193   1.27054    0.026
 6339.00    1.19484   1.27140    0.026
 6340.00    1.19803   1.27529    0.026
 6341.00    1.21798   1.27778    0.026
 6342.00    1.23669   1.27754    0.026
 6343.00    1.20953   1.27845    0.027
 6344.00    1.18450   1.28288    0.027
 6345.00    1.19354   1.28779    0.027
 6346.00    1.20301   1.29143    0.027
 6347.00    1.21692   1.29568    0.027
 6348.00    1.22857   1.30020    0.027
 6349.00    1.22390   1.30146    0.027
 6350.00    1.22041   1.29920    0.027
 6351.00    1.22338   1.29562    0.027
 6352.00    1.23504   1.28964    0.026
 6353.00    1.28512   1.27885    0.027
 6354.00    1.32195   1.26626    0.027
 6355.00    1.31063   1.25598    0.026
 6356.00    1.28939   1.24551    0.026
 6357.00    1.23791   1.23218    0.026
 6358.00    1.19000   1.22107    0.026
 6359.00    1.15135   1.21610    0.026
 6360.00    1.12686   1.21381    0.025
 6361.00    1.13391   1.21272    0.025
 6362.00    1.13346   1.21687    0.025
 6363.00    1.11854   1.22709    0.026
 6364.00    1.12119   1.23925    0.026
 6365.00    1.15343   1.25131    0.026
 6366.00    1.18318   1.26462    0.027
 6367.00    1.20926   1.27910    0.027
 6368.00    1.20217   1.29141    0.027
 6369.00    1.15204   1.30016    0.027
 6370.00    1.14434   1.30749    0.027
 6371.00    1.18512   1.31460    0.027
 6372.00    1.22330   1.31923    0.027
 6373.00    1.25888   1.31989    0.027
 6374.00    1.27760   1.31886    0.027
 6375.00    1.28133   1.31792    0.027
 6376.00    1.28468   1.31564    0.027
 6377.00    1.28775   1.31147    0.027
 6378.00    1.27380   1.30799    0.027
 6379.00    1.24815   1.30594    0.026
 6380.00    1.23834   1.30445    0.026
 6381.00    1.23810   1.30464    0.027
 6382.00    1.23629   1.30622    0.026
 6383.00    1.23365   1.30718    0.026
 6384.00    1.23656   1.30805    0.026
 6385.00    1.24200   1.30999    0.025
 6386.00    1.24467   1.31072    0.025
 6387.00    1.24625   1.30817    0.025
 6388.00    1.24212   1.30328    0.025
 6389.00    1.23608   1.29840    0.025
 6390.00    1.23307   1.29386    0.025
 6391.00    1.23091   1.28770    0.025
 6392.00    1.22923   1.28072    0.026
 6393.00    1.22767   1.27767    0.026
 6394.00    1.20831   1.27785    0.027
 6395.00    1.18564   1.27614    0.027
 6396.00    1.20959   1.27482    0.028
 6397.00    1.24024   1.27700    0.028
 6398.00    1.22623   1.27803    0.028
 6399.00    1.20756   1.27690    0.027
 6400.00    1.19304   1.28092    0.027
 6401.00    1.17880   1.28831    0.028
 6402.00    1.17255   1.29145    0.027
 6403.00    1.16655   1.29202    0.027
 6404.00    1.20112   1.29458    0.027
 6405.00    1.23484   1.29613    0.026
 6406.00    1.24194   1.29213    0.027
 6407.00    1.24689   1.28659    0.027
 6408.00    1.21966   1.28514    0.026
 6409.00    1.19594   1.28432    0.026
 6410.00    1.20607   1.28049    0.026
 6411.00    1.21530   1.27901    0.026
 6412.00    1.21818   1.28178    0.025
 6413.00    1.22451   1.28310    0.025
 6414.00    1.24942   1.28222    0.026
 6415.00    1.26811   1.28206    0.026
 6416.00    1.25987   1.28137    0.026
 6417.00    1.24482   1.27978    0.026
 6418.00    1.20551   1.27913    0.026
 6419.00    1.17613   1.27915    0.026
 6420.00    1.17640   1.28041    0.027
 6421.00    1.18642   1.28555    0.027
 6422.00    1.22123   1.29319    0.027
 6423.00    1.24299   1.29890    0.027
 6424.00    1.23615   1.30258    0.027
 6425.00    1.23033   1.30519    0.027
 6426.00    1.22645   1.30537    0.028
 6427.00    1.22070   1.30285    0.028
 6428.00    1.21184   1.29877    0.028
 6429.00    1.20266   1.29319    0.028
 6430.00    1.19302   1.28849    0.027
 6431.00    1.20246   1.28782    0.027
 6432.00    1.23631   1.28918    0.027
 6433.00    1.24680   1.28922    0.027
 6434.00    1.23096   1.28899    0.026
 6435.00    1.21775   1.29121    0.026
 6436.00    1.20717   1.29444    0.026
 6437.00    1.20231   1.29536    0.026
 6438.00    1.20247   1.29643    0.026
 6439.00    1.18830   1.30228    0.026
 6440.00    1.16309   1.30996    0.026
 6441.00    1.15575   1.31459    0.027
 6442.00    1.16054   1.31748    0.027
 6443.00    1.18485   1.31922    0.027
 6444.00    1.22075   1.31625    0.027
 6445.00    1.21776   1.30795    0.027
 6446.00    1.19458   1.29832    0.027
 6447.00    1.20109   1.28810    0.027
 6448.00    1.22094   1.27605    0.028
 6449.00    1.22220   1.26687    0.028
 6450.00    1.21627   1.26527    0.028
 6451.00    1.22798   1.26747    0.028
 6452.00    1.24548   1.27122    0.028
 6453.00    1.25495   1.27768    0.028
 6454.00    1.26219   1.28479    0.027
 6455.00    1.26185   1.29098    0.027
 6456.00    1.25978   1.29675    0.027
 6457.00    1.23501   1.29955    0.027
 6458.00    1.20612   1.29828    0.026
 6459.00    1.21288   1.29685    0.026
 6460.00    1.22460   1.29519    0.026
 6461.00    1.25392   1.29045    0.026
 6462.00    1.28499   1.28727    0.026
 6463.00    1.26023   1.28968    0.026
 6464.00    1.23195   1.29263    0.025
 6465.00    1.21659   1.29425    0.026
 6466.00    1.20173   1.29724    0.026
 6467.00    1.22627   1.30080    0.026
 6468.00    1.24901   1.30242    0.026
 6469.00    1.22171   1.30287    0.027
 6470.00    1.19596   1.30196    0.027
 6471.00    1.19198   1.30102    0.027
 6472.00    1.18787   1.30209    0.028
 6473.00    1.18256   1.30227    0.028
 6474.00    1.17695   1.30019    0.028
 6475.00    1.16929   1.29930    0.028
 6476.00    1.16265   1.29918    0.028
 6477.00    1.16144   1.29538    0.028
 6478.00    1.16607   1.28996    0.028
 6479.00    1.19535   1.28634    0.028
 6480.00    1.21044   1.28240    0.028
 6481.00    1.17599   1.27738    0.027
 6482.00    1.15530   1.27523    0.027
 6483.00    1.17494   1.27635    0.026
 6484.00    1.18638   1.27721    0.026
 6485.00    1.17728   1.27625    0.026
 6486.00    1.17824   1.27378    0.026
 6487.00    1.20090   1.26904    0.026
 6488.00    1.21846   1.25942    0.026
 6489.00    1.22646   1.24337    0.026
 6490.00    1.22939   1.22362    0.026
 6491.00    1.22405   1.20376    0.026
 6492.00    1.20568   1.18357    0.027
 6493.00    1.16862   1.16377    0.026
 6494.00    1.14395   1.15009    0.027
 6495.00    1.13490   1.14564    0.028
 6496.00    1.12598   1.14838    0.028
 6497.00    1.11721   1.15681    0.027
 6498.00    1.10753   1.17005    0.027
 6499.00    1.09696   1.18794    0.028
 6500.00    1.09662   1.20762    0.028
 6501.00    1.10514   1.22576    0.028
 6502.00    1.10213   1.24171    0.028
 6503.00    1.09035   1.25525    0.028
 6504.00    1.11337   1.26582    0.028
 6505.00    1.15969   1.27373    0.027
 6506.00    1.16729   1.27925    0.027
 6507.00    1.15220   1.28191    0.027
 6508.00    1.15816   1.28325    0.027
 6509.00    1.17488   1.28457    0.028
 6510.00    1.19588   1.28440    0.028
 6511.00    1.21877   1.28200    0.027
 6512.00    1.20578   1.27948    0.027
 6513.00    1.17915   1.27674    0.026
 6514.00    1.17588   1.27249    0.026
 6515.00    1.18015   1.26879    0.027
 6516.00    1.19493   1.26748    0.027
 6517.00    1.21254   1.26681    0.027
 6518.00    1.20865   1.26708    0.027
 6519.00    1.19999   1.27029    0.027
 6520.00    1.20219   1.27465    0.027
 6521.00    1.20630   1.27766    0.027
 6522.00    1.18268   1.27944    0.027
 6523.00    1.15533   1.28120    0.027
 6524.00    1.13443   1.28233    0.028
 6525.00    1.11414   1.28123    0.028
 6526.00    1.19586   1.27885    0.028
 6527.00    1.28362   1.27764    0.029
 6528.00    1.29522   1.27704    0.000
 6529.00    1.30464   1.27596    0.000
 6530.00    1.27602   1.27547    0.000
 6531.00    1.24853   1.27616    0.000
 6532.00    1.24971   1.27741    0.000
 6533.00    1.24889   1.27944    0.000
 6534.00    1.22120   1.28285    0.000
 6535.00    1.19713   1.28632    0.000
 6536.00    1.20522   1.28822    0.000
 6537.00    1.21298   1.28924    0.000
 6538.00    1.21854   1.28977    0.000
 6539.00    1.22493   1.28834    0.000
 6540.00    1.23554   1.28391    0.000
 6541.00    1.24412   1.27735    0.000
 6542.00    1.24436   1.27013    0.000
 6543.00    1.24426   1.26336    0.000
 6544.00    1.24298   1.25663    0.000
 6545.00    1.23071   1.24961    0.000
 6546.00    1.18673   1.24466    0.000
 6547.00    1.16021   1.24188    0.000
 6548.00    1.17660   1.23888    0.000
 6549.00    1.20269   1.23479    0.000
 6550.00    1.24937   1.22969    0.000
 6551.00    1.27302   1.22396    0.000
 6552.00    1.25427   1.21739    0.000
 6553.00    1.22077   1.20879    0.000
 6554.00    1.16353   1.19720    0.000
 6555.00    1.14308   1.18424    0.000
 6556.00    1.17458   1.17094    0.000
 6557.00    1.19490   1.15350    0.000
 6558.00    1.20132   1.13105    0.000
 6559.00    1.20118   1.11161    0.000
 6560.00    1.19385   1.09825    0.000
 6561.00    1.18654   1.08489    0.000
 6562.00    1.17925   1.07785    0.000
 6563.00    1.16331   1.08807    0.000
 6564.00    1.14001   1.10604    0.000
 6565.00    1.10830   1.12215    0.000
 6566.00    1.07026   1.14159    0.000
 6567.00    1.07498   1.16276    0.000
 6568.00    1.10787   1.17702    0.000
 6569.00    1.13968   1.18583    0.000
 6570.00    1.17086   1.19301    0.000
 6571.00    1.15490   1.19724    0.000
 6572.00    1.11524   1.19964    0.000
 6573.00    1.09002   1.20318    0.000
 6574.00    1.07109   1.20813    0.000
 6575.00    1.07581   1.21443    0.000
 6576.00    1.08938   1.22106    0.000
 6577.00    1.12499   1.22695    0.000
 6578.00    1.16758   1.23240    0.000
 6579.00    1.21108   1.23682    0.000
 6580.00    1.25482   1.23962    0.000
 6581.00    1.26535   1.24215    0.000
 6582.00    1.26870   1.24467    0.000
 6583.00    1.26062   1.24662    0.000
 6584.00    1.25059   1.24763    0.000
 6585.00    1.26649   1.24730    0.000
 6586.00    1.28577   1.24651    0.000
 6587.00    1.27202   1.24438    0.000
 6588.00    1.25524   1.23855    0.000
 6589.00    1.22783   1.23096    0.000
 6590.00    1.19983   1.22454    0.000
 6591.00    1.15002   1.21762    0.000
 6592.00    1.09976   1.21043    0.000
 6593.00    1.05107   1.20782    0.000
 6594.00    1.00617   1.20990    0.000
 6595.00    1.04812   1.21298    0.000
 6596.00    1.08716   1.21750    0.000
 6597.00    1.08937   1.22393    0.000
 6598.00    1.09126   1.23039    0.000
 6599.00    1.09033   1.23582    0.000
 6600.00    1.09440   1.23927    0.000
 6601.00    1.13032   1.23989    0.000
 6602.00    1.15558   1.23852    0.000
 6603.00    1.12773   1.23558    0.000
 6604.00    1.10697   1.23070    0.000
 6605.00    1.11480   1.22556    0.000
 6606.00    1.11868   1.22243    0.000
 6607.00    1.10933   1.22104    0.000
 6608.00    1.11472   1.22056    0.000
 6609.00    1.16181   1.22304    0.028
 6610.00    1.19889   1.22893    0.028
 6611.00    1.21180   1.23535    0.028
 6612.00    1.20475   1.24055    0.028
 6613.00    1.15608   1.24581    0.028
 6614.00    1.12864   1.25191    0.028
 6615.00    1.13973   1.25627    0.028
 6616.00    1.16473   1.25776    0.028
 6617.00    1.21178   1.25846    0.029
 6618.00    1.24302   1.25875    0.030
 6619.00    1.25226   1.25679    0.030
 6620.00    1.23765   1.25262    0.030
 6621.00    1.19381   1.24823    0.030
 6622.00    1.15202   1.24383    0.030
 6623.00    1.11243   1.23820    0.030
 6624.00    1.12293   1.23275    0.030
 6625.00    1.18112   1.22923    0.031
 6626.00    1.19118   1.22569    0.031
 6627.00    1.16080   1.22144    0.030
 6628.00    1.16200   1.21754    0.030
 6629.00    1.18654   1.21349    0.030
 6630.00    1.18018   1.20951    0.030
 6631.00    1.15373   1.20659    0.030
 6632.00    1.15402   1.20433    0.029
 6633.00    1.16952   1.20348    0.029
 6634.00    1.15920   1.20533    0.028
 6635.00    1.13611   1.20803    0.028
 6636.00    1.10914   1.21057    0.028
 6637.00    1.08050   1.21395    0.028
 6638.00    1.10709   1.21616    0.028
 6639.00    1.15393   1.21597    0.029
 6640.00    1.16591   1.21665    0.029
 6641.00    1.16707   1.21758    0.029
 6642.00    1.21982   1.21587    0.030
 6643.00    1.28592   1.21461    0.031
 6644.00    1.23263   1.21640    0.031
 6645.00    1.15414   1.21807    0.031
 6646.00    1.18961   1.21829    0.031
 6647.00    1.24408   1.21953    0.032
 6648.00    1.22891   1.22178    0.031
 6649.00    1.20500   1.22285    0.031
 6650.00    1.18009   1.22288    0.031
 6651.00    1.15509   1.22314    0.031
 6652.00    1.11488   1.22300    0.031
 6653.00    1.07389   1.22200    0.031
 6654.00    1.10589   1.22093    0.030
 6655.00    1.13823   1.21888    0.030
 6656.00    1.10227   1.21552    0.030
 6657.00    1.06904   1.21207    0.030
 6658.00    1.09332   1.20761    0.030
 6659.00    1.11562   1.20131    0.030
 6660.00    1.11405   1.19590    0.030
 6661.00    1.11204   1.19183    0.030
 6662.00    1.10649   1.18717    0.030
 6663.00    1.10509   1.18454    0.030
 6664.00    1.12925   1.18568    0.031
 6665.00    1.15046   1.18799    0.031
 6666.00    1.15733   1.19106    0.031
 6667.00    1.15939   1.19608    0.031
 6668.00    1.14251   1.20181    0.031
 6669.00    1.13706   1.20643    0.031
 6670.00    1.16921   1.20930    0.031
 6671.00    1.18397   1.21070    0.031
 6672.00    1.15047   1.21003    0.032
 6673.00    1.11774   1.20611    0.032
 6674.00    1.08684   1.20060    0.032
 6675.00    1.06788   1.19622    0.031
 6676.00    1.07343   1.19135    0.031
 6677.00    1.08698   1.18601    0.031
 6678.00    1.11481   1.18527    0.032
 6679.00    1.12393   1.18809    0.032
 6680.00    1.10383   1.19029    0.031
 6681.00    1.10471   1.19375    0.031
 6682.00    1.13435   1.19945    0.031
 6683.00    1.13704   1.20421    0.031
 6684.00    1.10717   1.20714    0.031
 6685.00    1.10094   1.20990    0.031
 6686.00    1.11987   1.21194    0.031
 6687.00    1.14683   1.21222    0.031
 6688.00    1.18132   1.21174    0.032
 6689.00    1.15137   1.21078    0.032
 6690.00    1.06807   1.20879    0.032
 6691.00    1.07281   1.20545    0.033
 6692.00    1.14173   1.20147    0.033
 6693.00    1.17377   1.19796    0.033
 6694.00    1.18221   1.19425    0.034
 6695.00    1.14568   1.19050    0.034
 6696.00    1.08400   1.18879    0.000
 6697.00    1.08418   1.18842    0.000
 6698.00    1.11451   1.18828    0.000
 6699.00    1.14589   1.18886    0.000
 6700.00    1.17772   1.18958    0.000
 6701.00    1.14258   1.19001    0.000
 6702.00    1.08331   1.18994    0.000
 6703.00    1.05126   1.18914    0.000
 6704.00    1.02750   1.18854    0.000
 6705.00    1.07081   1.18809    0.000
 6706.00    1.13112   1.18645    0.000
 6707.00    1.10522   1.18446    0.000
 6708.00    1.06157   1.18240    0.000
 6709.00    1.08099   1.17829    0.000
 6710.00    1.11063   1.17322    0.000
 6711.00    1.08813   1.16833    0.000
 6712.00    1.05931   1.16228    0.000
 6713.00    1.09841   1.15597    0.000
 6714.00    1.14315   1.15163    0.000
 6715.00    1.11708   1.14947    0.000
 6716.00    1.08765   1.14835    0.000
 6717.00    1.14252   1.14945    0.000
 6718.00    1.19606   1.15374    0.000
 6719.00    1.10817   1.15913    0.000
 6720.00    1.02394   1.16406    0.000
 6721.00    1.01095   1.16868    0.000
 6722.00    1.00821   1.17337    0.000
 6723.00    1.12320   1.17737    0.000
 6724.00    1.22363   1.17973    0.000
 6725.00    1.20813   1.18122    0.000
 6726.00    1.18950   1.18333    0.000
 6727.00    1.15215   1.18522    0.000
 6728.00    1.12557   1.18608    0.000
 6729.00    1.15006   1.18683    0.000
 6730.00    1.17551   1.18759    0.000
 6731.00    1.20465   1.18738    0.000
 6732.00    1.20381   1.18619    0.000
 6733.00    1.10644   1.18446    0.000
 6734.00    1.06029   1.18203    0.000
 6735.00    1.15378   1.17911    0.000
 6736.00    1.19495   1.17607    0.000
 6737.00    1.11387   1.17296    0.000
 6738.00    1.07312   1.16963    0.000
 6739.00    1.11386   1.16692    0.000
 6740.00    1.12950   1.16548    0.000
 6741.00    1.10098   1.16378    0.000
 6742.00    1.09195   1.16150    0.000
 6743.00    1.11293   1.16044    0.000
 6744.00    1.10096   1.15978    0.000
 6745.00    1.04443   1.15777    0.000
 6746.00    1.03159   1.15582    0.000
 6747.00    1.07075   1.15539    0.000
 6748.00    1.07381   1.15471    0.000
 6749.00    1.03897   1.15364    0.000
 6750.00    1.02973   1.15531    0.000
 6751.00    1.04419   1.15811    0.000
 6752.00    1.03219   1.16055    0.000
 6753.00    0.99860   1.16537    0.035
 6754.00    0.95489   1.17133    0.036
 6755.00    0.90393   1.17637    0.036
 6756.00    0.97586   1.18173    0.037
 6757.00    1.12527   1.18678    0.037
 6758.00    1.24844   1.18983    0.039
 6759.00    1.35715   1.19159    0.040
 6760.00    1.35173   1.19207    0.041
 6761.00    1.29160   1.19050    0.041
 6762.00    1.34122   1.18757    0.042
 6763.00    1.43624   1.18366    0.044
 6764.00    1.47903   1.17921    0.044
 6765.00    1.50335   1.17517    0.044
 6766.00    1.44554   1.17121    0.043
 6767.00    1.36321   1.16809    0.043
 6768.00    1.33835   1.16765    0.043
 6769.00    1.32772   1.16883    0.042
 6770.00    1.29263   1.17060    0.041
 6771.00    1.25262   1.17437    0.039
 6772.00    1.16923   1.17978    0.038
 6773.00    1.07902   1.18448    0.037
 6774.00    1.12197   1.18851    0.036
 6775.00    1.18044   1.19227    0.036
 6776.00    1.12230   1.19375    0.036
 6777.00    1.05496   1.19285    0.035
 6778.00    1.16817   1.19044    0.036
 6779.00    1.28924   1.18570    0.038
 6780.00    1.23646   1.17949    0.038
 6781.00    1.18313   1.17335    0.038
 6782.00    1.18867   1.16711    0.038
 6783.00    1.19421   1.16207    0.038
 6784.00    1.19999   1.15976    0.039
 6785.00    1.20846   1.15866    0.039
 6786.00    1.24639   1.15879    0.040
 6787.00    1.27513   1.16118    0.040
 6788.00    1.23320   1.16343    0.039
 6789.00    1.19211   1.16434    0.038
 6790.00    1.15587   1.16570    0.039
 6791.00    1.12798   1.16684    0.039
 6792.00    1.13871   1.16620    0.038
 6793.00    1.17063   1.16593    0.038
 6794.00    1.28266   1.16670    0.038
 6795.00    1.34218   1.16708    0.038
 6796.00    1.23590   1.16800    0.037
 6797.00    1.13652   1.16984    0.036
 6798.00    1.05562   1.17157    0.035
 6799.00    1.01653   1.17276    0.035
 6800.00    1.07349   1.17364    0.036
 6801.00    1.11948   1.17457    0.037
 6802.00    1.14364   1.17440    0.038
 6803.00    1.17177   1.17308    0.038
 6804.00    1.20679   1.17283    0.038
 6805.00    1.23611   1.17222    0.038
 6806.00    1.25679   1.17024    0.038
 6807.00    1.23423   1.16975    0.038
 6808.00    1.15403   1.16975    0.037
 6809.00    1.09692   1.16870    0.037
 6810.00    1.06693   1.16830    0.038
 6811.00    1.03547   1.16846    0.039
 6812.00    1.00249   1.16875    0.038
 6813.00    1.04645   1.16930    0.038
 6814.00    1.16066   1.16981    0.039
 6815.00    1.21028   1.17094    0.039
 6816.00    1.20792   1.17248    0.038
 6817.00    1.25233   1.17386    0.038
 6818.00    1.32984   1.17555    0.038
 6819.00    1.36150   1.17733    0.037
 6820.00    1.36466   1.17882    0.037
 6821.00    1.30260   1.18015    0.036
 6822.00    1.20514   1.18113    0.036
 6823.00    1.14770   1.18120    0.035
 6824.00    1.10914   1.18022    0.035
 6825.00    1.05989   1.17918    0.035
 6826.00    1.00629   1.17821    0.035
 6827.00    1.00177   1.17667    0.036
 6828.00    1.01428   1.17551    0.038
 6829.00    1.06810   1.17528    0.038
 6830.00    1.13399   1.17535    0.039
 6831.00    1.11981   1.17515    0.039
 6832.00    1.08622   1.17412    0.039
 6833.00    1.13691   1.17238    0.039
 6834.00    1.20409   1.16953    0.039
 6835.00    1.15866   1.16458    0.039
 6836.00    1.09606   1.15861    0.038
 6837.00    1.06752   1.15239    0.039
 6838.00    1.04280   1.14610    0.039
 6839.00    0.97420   1.14117    0.039
 6840.00    0.90232   1.13847    0.038
 6841.00    1.05648   1.13806    0.038
 6842.00    1.21961   1.13987    0.037
 6843.00    1.20011   1.14375    0.037
 6844.00    1.17952   1.14886    0.037
 6845.00    1.16601   1.15378    0.036
 6846.00    1.15233   1.15799    0.035
 6847.00    1.13564   1.16108    0.035
 6848.00    1.11376   1.16226    0.035
 6849.00    1.03747   1.16195    0.036
 6850.00    0.98943   1.15976    0.036
 6851.00    1.15121   1.15564    0.037
 6852.00    1.27582   1.15187    0.038
 6853.00    1.18977   1.14781    0.038
 6854.00    1.11320   1.14241    0.038
 6855.00    1.07942   1.13905    0.038
 6856.00    1.05469   1.13739    0.038
 6857.00    1.06349   1.13477    0.038
 6858.00    1.06435   1.13391    0.038
 6859.00    1.04059   1.13573    0.038
 6860.00    1.04237   1.13680    0.038
 6861.00    1.11131   1.13751    0.037
 6862.00    1.13651   1.13988    0.037
 6863.00    1.06284   1.14150    0.036
 6864.00    1.03275   1.14096    0.035
 6865.00    1.08792   1.14079    0.036
 6866.00    1.11191   1.14098    0.036
 6867.00    1.08270   1.13934    0.036
 6868.00    1.07408   1.13753    0.037
 6869.00    1.09626   1.13767    0.038
 6870.00    1.13404   1.13805    0.038
 6871.00    1.19230   1.13782    0.037
 6872.00    1.21819   1.13894    0.037
 6873.00    1.20662   1.14145    0.038
 6874.00    1.17978   1.14322    0.038
 6875.00    1.13736   1.14436    0.038
 6876.00    1.07030   1.14607    0.037
 6877.00    0.98106   1.14719    0.037
 6878.00    1.00497   1.14667    0.037
 6879.00    1.11863   1.14597    0.038
 6880.00    1.11445   1.14636    0.038
 6881.00    1.02806   1.14646    0.038
 6882.00    1.02421   1.14647    0.037
 6883.00    1.07086   1.14901    0.037
 6884.00    1.10411   1.15303    0.037
 6885.00    1.13019   1.15634    0.037
 6886.00    1.16273   1.16070    0.036
 6887.00    1.19826   1.16623    0.036
 6888.00    1.17237   1.16992    0.036
 6889.00    1.12193   1.17225    0.036
 6890.00    1.11312   1.17493    0.036
 6891.00    1.11850   1.17601    0.037
 6892.00    1.14652   1.17522    0.037
 6893.00    1.18102   1.17478    0.037
 6894.00    1.17713   1.17447    0.037
 6895.00    1.16416   1.17335    0.038
 6896.00    1.16558   1.17239    0.038
 6897.00    1.16976   1.17264    0.038
 6898.00    1.16069   1.17336    0.038
 6899.00    1.14968   1.17372    0.039
 6900.00    1.14626   1.17471    0.039
 6901.00    1.14366   1.17633    0.039
 6902.00    1.21297   1.17769    0.040
 6903.00    1.28735   1.17902    0.041
 6904.00    1.26445   1.17999    0.039
 6905.00    1.23806   1.18059    0.038
 6906.00    1.20462   1.18081    0.038
 6907.00    1.17145   1.17954    0.038
 6908.00    1.14858   1.17750    0.038
 6909.00    1.12581   1.17511    0.037
 6910.00    1.10485   1.17110    0.037
 6911.00    1.08382   1.16733    0.037
 6912.00    1.06204   1.16460    0.036
 6913.00    1.02955   1.16133    0.036
 6914.00    0.92000   1.15969    0.036
 6915.00    0.84404   1.16017    0.036
 6916.00    0.95330   1.16054    0.037
 6917.00    1.04207   1.16151    0.038
 6918.00    1.04051   1.16320    0.039
 6919.00    1.02851   1.16390    0.040
 6920.00    0.97863   1.16324    0.040
 6921.00    0.95363   1.16194    0.040
 6922.00    1.00421   1.16018    0.040
 6923.00    1.03579   1.15798    0.040
 6924.00    1.01824   1.15603    0.040
 6925.00    1.01393   1.15490    0.040
 6926.00    1.03907   1.15460    0.040
 6927.00    1.06077   1.15518    0.039
 6928.00    1.07585   1.15615    0.039
 6929.00    1.08861   1.15684    0.039
 6930.00    1.09747   1.15806    0.039
 6931.00    1.09525   1.15967    0.038
 6932.00    1.07668   1.16035    0.038
 6933.00    1.04099   1.16143    0.038
 6934.00    0.98312   1.16346    0.037
 6935.00    0.95675   1.16481    0.037
 6936.00    0.96632   1.16584    0.037
 6937.00    0.98511   1.16689    0.038
 6938.00    1.01316   1.16665    0.039
 6939.00    1.00348   1.16554    0.040
 6940.00    0.96030   1.16378    0.039
 6941.00    0.95283   1.16062    0.039
 6942.00    0.97327   1.15782    0.040
 6943.00    1.03048   1.15582    0.040
 6944.00    1.11299   1.15312    0.041
 6945.00    1.10011   1.15185    0.041
 6946.00    1.02974   1.15220    0.041
 6947.00    0.97221   1.15135    0.040
 6948.00    0.92145   1.15107    0.039
 6949.00    0.91071   1.15199    0.040
 6950.00    0.91823   1.15143    0.041
 6951.00    0.92655   1.15113    0.040
 6952.00    0.93519   1.15254    0.038
 6953.00    0.98153   1.15364    0.038
 6954.00    1.04047   1.15518    0.038
 6955.00    1.05270   1.15832    0.038
 6956.00    1.05180   1.16142    0.038
 6957.00    1.04668   1.16439    0.038
 6958.00    1.04059   1.16760    0.038
 6959.00    1.01423   1.17021    0.038
 6960.00    0.98410   1.17260    0.039
 6961.00    0.99550   1.17454    0.039
 6962.00    1.01284   1.17559    0.040
 6963.00    1.04461   1.17692    0.040
 6964.00    1.07786   1.17794    0.040
 6965.00    1.03778   1.17803    0.041
 6966.00    0.99281   1.17840    0.042
 6967.00    1.02687   1.17805    0.042
 6968.00    1.06322   1.17641    0.042
 6969.00    0.03135   1.17453    0.024
 6970.00   -0.93597   1.17086    0.000
 6971.00    0.07479   1.16500    0.035
 6972.00    1.02287   1.15883   -1.000
 6973.00    1.03800   1.15177   -1.000
 6974.00    1.05006   1.14305   -1.000
 6975.00    1.03272   1.13551   -1.000
 6976.00    1.01777   1.13107   -1.000
 6977.00    1.01944   1.12808   -1.000
 6978.00    1.01726   1.12767   -1.000
 6979.00    0.99444   1.13216   -1.000
 6980.00    0.97366   1.13878   -1.000
 6981.00    0.96168   1.14569   -1.000
 6982.00    0.95220   1.15370   -1.000
 6983.00    0.95155   1.16111   -1.000
 6984.00    0.95052   1.16631   -1.000
 6985.00    0.94839   1.16974   -1.000
 6986.00    0.94998   1.17191   -1.000
 6987.00    0.96102   1.17292   -1.000
 6988.00    0.97538   1.17301   -1.000
 6989.00    0.99697   1.17300   -1.000
 6990.00    1.00583   1.17308   -1.000
 6991.00    0.99055   1.17290   -1.000
 6992.00    0.99209   1.17248   -1.000
 6993.00    1.02148   1.17146   -1.000
 6994.00    1.03393   1.16985   -1.000
 6995.00    1.02180   1.16758   -1.000
 6996.00    1.00568   1.16430   -1.000
 6997.00    0.98447   1.16098   -1.000
 6998.00    0.98080   1.15783   -1.000
 6999.00    0.99684   1.15440   -1.000
 7000.00    0.98987   1.15163   -1.000
 7001.00    0.96005   1.14990   -1.000
 7002.00    0.95481   1.14864   -1.000
 7003.00    0.97106   1.14783   -1.000
 7004.00    0.98992   1.14774   -1.000
 7005.00    1.01077   1.14843   -1.000
 7006.00    1.01175   1.14910   -1.000
 7007.00    0.99926   1.14933   -1.000
 7008.00    0.99290   1.14960   -1.000
 7009.00    0.99019   1.14895   -1.000
 7010.00    0.98216   1.14711   -1.000
 7011.00    0.97139   1.14487   -1.000
 7012.00    0.98437   1.14158   -1.000
 7013.00    1.00801   1.13844   -1.000
 7014.00    1.00582   1.13694   -1.000
 7015.00    0.99364   1.13557   -1.000
 7016.00    0.96660   1.13530   -1.000
 7017.00    0.93467   1.13756   -1.000
 7018.00    0.94966   1.13973   -1.000
 7019.00    0.97756   1.14105   -1.000
 7020.00    0.95922   1.14277   -1.000
 7021.00    0.93043   1.14393   -1.000
 7022.00    0.94327   1.14404   -1.000
 7023.00    0.96364   1.14410   -1.000
 7024.00    0.96923   1.14483   -1.000
 7025.00    0.97278   1.14624   -1.000
 7026.00    0.96681   1.14810   -1.000
 7027.00    0.95989   1.15043   -1.000
 7028.00    0.94516   1.15290   -1.000
 7029.00    0.92994   1.15530   -1.000
 7030.00    0.92944   1.15717   -1.000
 7031.00    0.92934   1.15778   -1.000
 7032.00    0.92150   1.15857   -1.000
 7033.00    0.91529   1.15949   -1.000
 7034.00    0.95350   1.15908   -1.000
 7035.00    0.99116   1.15998   -1.000
 7036.00    1.02087   1.16309   -1.000
 7037.00    1.04528   1.16566   -1.000
 7038.00    1.02080   1.16949   -1.000
 7039.00    0.99873   1.17597   -1.000
 7040.00    0.99291   1.18172   -1.000
 7041.00    0.98278   1.18654   -1.000
 7042.00    0.95014   1.19200   -1.000
 7043.00    0.92833   1.19599   -1.000
 7044.00    0.95207   1.19767   -1.000
 7045.00    0.97274   1.19825   -1.000
 7046.00    0.98274   1.19690   -1.000
 7047.00    0.99429   1.19319   -1.000
 7048.00    1.01038   1.18728   -1.000
 7049.00    1.01672   1.17901   -1.000
 7050.00    0.99869   1.16954   -2.000
 7051.00    0.99138   1.15899   -2.000
 7052.00    1.00710   1.14780   -2.000
 7053.00    1.02579   1.13784   -2.000
 7054.00    1.05002   1.12924   -2.000
 7055.00    1.06745   1.12161   -2.000
 7056.00    1.07377   1.11546   -2.000
 7057.00    1.07644   1.11100   -2.000
 7058.00    1.07386   1.10734   -2.000
 7059.00    1.07107   1.10370   -2.000
 7060.00    1.06799   1.10121   -2.000
 7061.00    1.06553   1.09935   -2.000
 7062.00    1.06376   1.09667   -2.000
 7063.00    1.04646   1.09482   -2.000
 7064.00    1.01396   1.09375   -2.000
 7065.00    1.01106   1.09225   -2.000
 7066.00    1.03370   1.09229   -2.000
 7067.00    1.02315   1.09391   -2.000
 7068.00    0.98738   1.09596   -2.000
 7069.00    0.95968   1.09987   -2.000
 7070.00    0.93736   1.10504   -2.000
 7071.00    0.98527   1.10977   -2.000
 7072.00    1.07425   1.11463   -2.000
 7073.00    1.08240   1.11923   -2.000
 7074.00    1.04934   1.12241   -2.000
 7075.00    1.04268   1.12415   -2.000
 7076.00    1.04767   1.12457   -2.000
 7077.00    1.06630   1.12330   -2.000
 7078.00    1.09009   1.11976   -2.000
 7079.00    1.08805   1.11437   -2.000
 7080.00    1.07769   1.10719   -2.000
 7081.00    1.05679   1.09806   -2.000
 7082.00    1.03306   1.08863   -2.000
 7083.00    0.99846   1.07870   -2.000
 7084.00    0.96147   1.06865   -2.000
 7085.00    0.99647   1.06088   -2.000
 7086.00    1.04412   1.05393   -2.000
 7087.00    0.96080   1.04779   -2.000
 7088.00    0.85994   1.04449   -2.000
 7089.00    0.89462   1.04187   -2.000
 7090.00    0.94218   1.04005   -2.000
 7091.00    0.92353   1.04031   -2.000
 7092.00    0.90099   1.04096   -2.000
 7093.00    0.91960   1.04245   -2.000
 7094.00    0.93915   1.04504   -2.000
 7095.00    0.94865   1.04802   -2.000
 7096.00    0.95736   1.05131   -2.000
 7097.00    0.94632   1.05454   -2.000
 7098.00    0.93402   1.05788   -2.000
 7099.00    0.90505   1.06054   -2.000
 7100.00    0.87713   1.06246   -2.000
 7101.00    0.85840   1.06418   -2.000
 7102.00    0.84745   1.06489   -2.000
 7103.00    0.88726   1.06476   -2.000
 7104.00    0.91652   1.06436   -2.000
 7105.00    0.89211   1.06339   -2.000
 7106.00    0.87023   1.06179   -2.000
 7107.00    0.85876   1.06004   -2.000
 7108.00    0.85073   1.05878   -2.000
 7109.00    0.85446   1.05785   -2.000
 7110.00    0.85454   1.05722   -2.000
 7111.00    0.84412   1.05761   -2.000
 7112.00    0.83955   1.05896   -2.000
 7113.00    0.84931   1.06031   -2.000
 7114.00    0.86003   1.06169   -2.000
 7115.00    0.87278   1.06315   -2.000
 7116.00    0.88918   1.06375   -2.000
 7117.00    0.91226   1.06361   -2.000
 7118.00    0.92711   1.06261   -2.000
 7119.00    0.92872   1.06066   -2.000
 7120.00    0.92284   1.05852   -2.000
 7121.00    0.90640   1.05525   -2.000
 7122.00    0.89939   1.05135   -2.000
 7123.00    0.90410   1.04776   -2.000
 7124.00    0.87230   1.04331   -2.000
 7125.00    0.80060   1.03881   -2.000
 7126.00    0.80049   1.03483   -2.000
 7127.00    0.86944   1.03126   -2.000
 7128.00    0.91629   1.02908   -2.000
 7129.00    0.94437   1.02792   -2.000
 7130.00    0.91561   1.02829   -2.000
 7131.00    0.84429   1.03081   -2.000
 7132.00    0.82955   1.03377   -2.000
 7133.00    0.85204   1.03760   -2.000
 7134.00    0.85747   1.04232   -2.000
 7135.00    0.85309   1.04571   -2.000
 7136.00    0.87628   1.04873   -2.000
 7137.00    0.91330   1.05169   -2.000
 7138.00    0.90987   1.05262   -2.000
 7139.00    0.88888   1.05287   -2.000
 7140.00    0.87394   1.05330   -2.000
 7141.00    0.86125   1.05192   -2.000
 7142.00    0.86052   1.04988   -2.000
 7143.00    0.86357   1.04842   -2.000
 7144.00    0.86620   1.04561   -2.000
 7145.00    0.86873   1.04315   -2.000
 7146.00    0.89272   1.04245   -2.000
 7147.00    0.92135   1.04143   -2.000
 7148.00    0.87312   1.04209   -2.000
 7149.00    0.81176   1.04518   -2.000
 7150.00    0.81590   1.04817   -2.000
 7151.00    0.82851   1.05187   -2.000
 7152.00    0.84586   1.05646   -2.000
 7153.00    0.86364   1.06028   -2.000
 7154.00    0.86937   1.06279   -2.000
 7155.00    0.87444   1.06438   -2.000
 7156.00    0.87386   1.06521   -2.000
 7157.00    0.87325   1.06411   -2.000
 7158.00    0.87972   1.06175   -2.000
 7159.00    0.88539   1.05934   -2.000
 7160.00    0.87276   1.05591   -2.000
 7161.00    0.85920   1.05241   -2.000
 7162.00    0.83393   1.05035   -2.000
 7163.00    0.81755   1.04900   -2.000
 7164.00    0.87701   1.04895   -2.000
 7165.00    0.93619   1.05128   -2.000
 7166.00    0.99356   1.05465   -2.000
 7167.00    1.03162   1.05865   -2.000
 7168.00    0.97384   1.06361   -2.000
 7169.00    0.91120   1.06788   -2.000
 7170.00    0.82899   1.07103   -2.000
 7171.00    0.78439   1.07352   -2.000
 7172.00    0.86541   1.07407   -2.000
 7173.00    0.92340   1.07306   -2.000
 7174.00    0.91643   1.07156   -2.000
 7175.00    0.91184   1.06850   -2.000
 7176.00    0.91301   1.06483   -2.000
 7177.00    0.89421   1.06170   -2.000
 7178.00    0.83383   1.05817   -2.000
 7179.00    0.81987   1.05519   -2.000
 7180.00    0.88995   1.05290   -2.000
 7181.00    0.91197   1.05056   -2.000
 7182.00    0.85789   1.04891   -2.000
 7183.00    0.83172   1.04676   -2.000
 7184.00    0.84431   1.04405   -2.000
 7185.00    0.84598   1.04204   -2.000
 7186.00    0.83430   1.03932   -2.000
 7187.00    0.80411   1.03689   -2.000
 7188.00    0.75395   1.03607   -2.000
 7189.00    0.74368   1.03543   -2.000
 7190.00    0.77133   1.03594   -2.000
 7191.00    0.80893   1.03791   -2.000
 7192.00    0.85488   1.03987   -2.000
 7193.00    0.85931   1.04219   -2.000
 7194.00    0.83310   1.04515   -2.000
 7195.00    0.85388   1.04770   -2.000
 7196.00    0.90515   1.04967   -2.000
 7197.00    0.89721   1.05190   -2.000
 7198.00    0.85570   1.05363   -2.000
 7199.00    0.80673   1.05438   -2.000
 7200.00    0.75409   1.05479   -2.000
 7201.00    0.69492   1.05432   -2.000
 7202.00    0.63297   1.05306   -2.000
 7203.00    0.67627   1.05100   -2.000
 7204.00    0.75809   1.04861   -2.000
 7205.00    0.79194   1.04679   -2.000
 7206.00    0.81095   1.04493   -2.000
 7207.00    0.80083   1.04445   -2.000
 7208.00    0.78320   1.04569   -2.000
 7209.00    0.80720   1.04703   -2.000
 7210.00    0.83996   1.04980   -2.000
 7211.00    0.64349   1.05338   -2.000
 7212.00    0.40894   1.05608   -2.000
 7213.00    0.56846   1.05915   -2.000
 7214.00    0.77721   1.06220   -2.000
 7215.00    0.81024   1.06421   -2.000
 7216.00    0.82806   1.06617   -2.000
 7217.00    0.84738   1.06811   -2.000
 7218.00    0.86676   1.06948   -2.000
