###################################################################
## OUTPUT of StarlightChains_v04.for    [Cid@UFSC - 01/Apr/2007] ##
###################################################################

## Some input info
KUG0210-078._35_49.txt                   [arq_obs]
Base.CB07.vall.4m                        [arq_base]
Masks.EmLines.NEW.gm                     [arq_masks]
StCv04.C11.config                        [arq_config]
   66                                    [N_base]
    0                                    [N_YAV_components = # of components with extra extinction!]
    0                                    [i_FitPowerLaw (1/0 = Yes/No)]
-9.99                                    [alpha_PowerLaw]
CCM                                      [red_law_option]
 1.458241                                [q_norm = A(l_norm)/A(V)]

## (Re)Sampling Parameters
 3741.00                                 [l_ini (A)]
 7218.00                                 [l_fin (A)]
    1.00                                 [dl    (A)]     (OBS: dl_cushion =    50.00 A)

## Normalization info
 4020.00                                 [l_norm (A) - for base]
 4010.00                                 [llow_norm (A) - window for f_obs]
 4060.00                                 [lupp_norm (A) - window for f_obs]
6.100060E-18                             [fobs_norm (in input units)]

## S/N
 3691.00                                 [llow_SN (A) - window for S/N]
 7268.00                                 [lupp_SN (A) - window for S/N]
   3.030                                 [S/N in S/N window]
   3.090                                 [S/N in norm. window]
   0.008                                 [S/N_err in S/N window]
   0.008                                 [S/N_err in norm. window]
  1.0000                                 [fscale_chi2]

## etc...
    -2007584                             [idum_orig]
  2395                                   [NOl_eff]
  2085                                   [Nl_eff]
   310    NSIGMA                         [Ntot_cliped & clip_method]
 10536750                                [Nglobal_steps]
   7                                     [N_chains]
  42                                     [NEX0s_base = N_base in EX0s-fits]
 0   0   1      310   2.0   4.809E+03    [Clip-Bug, RC-Crash & Burn-In warning-flags, n_censored_weights, wei_nsig_threshold & wei_limit]
    80     78.878     78.213      0.665  [idt_all, wdt_TotTime, wdt_UsrTime & wdt_SysTime (sec)]

## Synthesis Results - Best model ##

 5.40104E-06                             [chi2/Nl_eff]
    18.71311                             [adev (%)]

   130.00000                             [sum-of-x (%)]
 2.07005E-18                             [Flux_tot (units of input spectrum!)]
 9.40402E-14                             [Mini_tot (???)]
 4.84192E-14                             [Mcor_tot (???)]

 128.53                                  [v0_min  (km/s)]
 236.08                                  [vd_min  (km/s)]
-1.0000                                  [AV_min  (mag)]
 0.0000                                  [YAV_min (mag)]

# j     x_j(%)      Mini_j(%)     Mcor_j(%)     age_j(yr)     Z_j      (L/M)_j    YAV?  Mstars   component_j        a/Fe...       SSP_chi2r SSP_adev(%)   SSP_AV   SSP_x(%)
  1      0.0000     4.1565E-08    8.0727E-08    1.000000E+06  0.00400  1.094E-02    0   1.0000   age020_m42            0.0000     6.1837E-06    19.1537   2.3784   119.7436
  2      0.0000     0.0000E+00    0.0000E+00    3.160000E+06  0.00400  4.007E-02    0   0.9999   age045_m42            0.0000     6.2742E-06    19.2465   1.7517   122.9371
  3      0.0000     0.0000E+00    0.0000E+00    5.010000E+06  0.00400  2.539E-02    0   0.9488   age055_m42            0.0000     6.2173E-06    19.1745   2.0267   122.1971
  4      0.1734     1.1206E-04    2.0067E-04    6.610000E+06  0.00400  2.620E-02    0   0.9220   age061_m42            0.0000     6.2641E-06    19.2342   1.6791   123.2490
  5      0.0000     0.0000E+00    0.0000E+00    1.000000E+07  0.00400  1.322E-02    0   0.8862   age070_m42            0.0000     6.3473E-06    19.5491   1.3991   126.5984
  6      0.0000     0.0000E+00    0.0000E+00    1.445000E+07  0.00400  7.883E-03    0   0.8571   age078_m42            0.0000     6.3096E-06    19.4385   1.7023   124.4753
  7      0.1737     5.6015E-04    8.8927E-04    2.512000E+07  0.00400  5.251E-03    0   0.8174   age090_m42            0.0000     6.3889E-06    19.6736   1.2788   126.9626
  8      0.0000     0.0000E+00    0.0000E+00    4.000000E+07  0.00400  3.649E-03    0   0.7851   age104_m42            0.0000     6.3831E-06    19.6802   1.0665   127.1762
  9      0.0000     0.0000E+00    0.0000E+00    5.500000E+07  0.00400  3.098E-03    0   0.7629   age110_m42            0.0000     6.3722E-06    19.5515   1.2356   125.9771
 10      0.0000     0.0000E+00    0.0000E+00    1.015200E+08  0.00400  2.228E-03    0   0.7207   age116_m42            0.0000     6.3450E-06    19.4683   1.2661   125.5039
 11      2.5604     3.9665E-02    5.1214E-02    2.861200E+08  0.00400  1.093E-03    0   0.6648   age125_m42            0.0000     6.4125E-06    19.6559   0.7190   128.2593
 12      0.0000     0.0000E+00    0.0000E+00    5.088000E+08  0.00400  6.597E-04    0   0.6365   age130_m42            0.0000     6.3688E-06    19.4829   0.7263   128.0971
 13      0.0000     0.0000E+00    0.0000E+00    1.434000E+09  0.00400  2.132E-04    0   0.5798   age139_m42            0.0000     6.1919E-06    19.2909  -0.2220   129.4503
 14      0.0000     0.0000E+00    0.0000E+00    4.250000E+09  0.00400  5.895E-05    0   0.5377   age158_m42            0.0000     5.8584E-06    18.7708  -0.7147   126.7315
 15      0.0000     0.0000E+00    0.0000E+00    7.500000E+09  0.00400  3.510E-05    0   0.5212   age171_m42            0.0000     5.7981E-06    18.6416  -0.9079   125.9409
 16      0.0000     0.0000E+00    0.0000E+00    1.300000E+10  0.00400  2.005E-05    0   0.5034   age193_m42            0.0000     5.8190E-06    18.9606  -1.0000   122.6187
 17      0.0000     0.0000E+00    0.0000E+00    1.800000E+10  0.00400  1.525E-05    0   0.4967   age213_m42            0.0000     5.8074E-06    19.1506  -1.0000   121.4523
 18      0.5858     8.0125E-04    1.5562E-03    1.000000E+06  0.00800  1.238E-02    0   1.0000   age020_m52            0.0000     6.1758E-06    19.1570   2.3747   119.9845
 19      0.0000     0.0000E+00    0.0000E+00    3.160000E+06  0.00800  3.074E-02    0   0.9966   age045_m52            0.0000     6.1658E-06    19.1551   2.3044   120.7500
 20      0.0000     0.0000E+00    0.0000E+00    5.010000E+06  0.00800  2.668E-02    0   0.9443   age055_m52            0.0000     6.1855E-06    19.1629   2.0947   121.8514
 21      0.0000     0.0000E+00    0.0000E+00    6.610000E+06  0.00800  2.136E-02    0   0.9177   age061_m52            0.0000     6.1638E-06    19.3146   0.8793   129.1137
 22      0.0000     0.0000E+00    0.0000E+00    1.000000E+07  0.00800  1.215E-02    0   0.8827   age070_m52            0.0000     6.3491E-06    19.6453   1.5676   127.0614
 23      0.0000     0.0000E+00    0.0000E+00    1.445000E+07  0.00800  8.717E-03    0   0.8552   age078_m52            0.0000     6.3075E-06    19.4826   1.6763   125.8028
 24      0.0000     0.0000E+00    0.0000E+00    2.512000E+07  0.00800  5.592E-03    0   0.8162   age090_m52            0.0000     6.3884E-06    19.7404   1.3502   128.0750
 25      0.0000     0.0000E+00    0.0000E+00    4.000000E+07  0.00800  3.896E-03    0   0.7841   age104_m52            0.0000     6.3703E-06    19.6998   1.2802   127.9389
 26      0.0000     0.0000E+00    0.0000E+00    1.015200E+08  0.00800  2.148E-03    0   0.7226   age116_m52            0.0000     6.3140E-06    19.5299   1.2300   126.8344
 27      3.4522     5.8897E-02    7.6447E-02    2.861200E+08  0.00800  9.925E-04    0   0.6683   age125_m52            0.0000     6.3136E-06    19.5085   0.7893   129.4476
 28      0.0000     0.0000E+00    0.0000E+00    9.047900E+08  0.00800  3.141E-04    0   0.6138   age135_m52            0.0000     6.0523E-06    19.1751   0.0237   132.5681
 29      0.0000     0.0000E+00    0.0000E+00    1.434000E+09  0.00800  1.719E-04    0   0.5853   age139_m52            0.0000     5.8166E-06    18.9370  -0.5987   132.2052
 30      0.0044     9.5231E-04    1.0358E-03    2.500000E+09  0.00800  7.872E-05    0   0.5600   age150_m52            0.0000     5.6189E-06    18.5974  -0.8924   129.6100
 31      0.0000     0.0000E+00    0.0000E+00    4.250000E+09  0.00800  4.336E-05    0   0.5426   age158_m52            0.0000     5.6126E-06    18.5662  -0.9103   128.4993
 32      0.0000     0.0000E+00    0.0000E+00    6.250000E+09  0.00800  3.159E-05    0   0.5319   age166_m52            0.0000     5.5961E-06    19.0718  -1.0000   124.3912
 33      0.0000     0.0000E+00    0.0000E+00    1.300000E+10  0.00800  1.361E-05    0   0.5073   age193_m52            0.0000     6.4455E-06    23.6797  -1.0000   107.1346
 34      7.9711     1.3653E+01    1.3232E+01    1.800000E+10  0.00800  9.886E-06    0   0.4990   age213_m52            0.0000     6.7860E-06    24.7660  -1.0000   102.7128
 35      0.0000     0.0000E+00    0.0000E+00    1.000000E+06  0.02000  1.544E-02    0   1.0000   age020_m62            0.0000     6.1695E-06    19.1545   2.3665   120.4675
 36      0.0000     0.0000E+00    0.0000E+00    3.160000E+06  0.02000  3.762E-02    0   0.9858   age045_m62            0.0000     6.1546E-06    19.1326   2.3044   121.5631
 37      0.0000     0.0000E+00    0.0000E+00    5.010000E+06  0.02000  3.296E-02    0   0.9342   age055_m62            0.0000     6.2069E-06    19.1751   1.9993   123.0025
 38      0.1086     1.5931E-04    2.7417E-04    8.710000E+06  0.02000  1.154E-02    0   0.8861   age067_m62            0.0000     6.6467E-06    20.7934   0.9920   133.7970
 39      0.0000     0.0000E+00    0.0000E+00    1.445000E+07  0.02000  7.663E-03    0   0.8472   age078_m62            0.0000     6.4154E-06    19.9732   1.2150   130.3502
 40      2.2038     8.2340E-03    1.2952E-02    2.512000E+07  0.02000  4.532E-03    0   0.8099   age090_m62            0.0000     6.4650E-06    20.1008   1.2136   129.6941
 41     10.1573     6.2931E-02    9.2830E-02    5.500000E+07  0.02000  2.733E-03    0   0.7595   age110_m62            0.0000     6.3150E-06    19.6262   1.2478   127.8629
 42      0.0000     0.0000E+00    0.0000E+00    1.609000E+08  0.02000  1.369E-03    0   0.6985   age120_m62            0.0000     6.2934E-06    19.5090   1.1227   129.0378
 43      0.0000     0.0000E+00    0.0000E+00    2.861200E+08  0.02000  9.013E-04    0   0.6714   age125_m62            0.0000     6.2902E-06    19.5138   0.9025   130.9800
 44      0.0000     0.0000E+00    0.0000E+00    5.088000E+08  0.02000  5.028E-04    0   0.6449   age130_m62            0.0000     6.1445E-06    19.2793   0.5504   132.5554
 45      0.0000     0.0000E+00    0.0000E+00    9.047900E+08  0.02000  2.428E-04    0   0.6179   age135_m62            0.0000     5.8055E-06    18.9164  -0.0545   132.6129
 46     16.4899     2.2107E+00    2.5367E+00    1.434000E+09  0.02000  1.263E-04    0   0.5908   age139_m62            0.0000     5.5812E-06    18.6996  -0.5317   132.3767
 47      0.0000     0.0000E+00    0.0000E+00    2.500000E+09  0.02000  5.985E-05    0   0.5673   age150_m62            0.0000     5.4148E-06    18.4774  -0.9273   131.7723
 48      0.0000     0.0000E+00    0.0000E+00    4.250000E+09  0.02000  3.271E-05    0   0.5468   age158_m62            0.0000     5.5189E-06    19.7210  -1.0000   122.2464
 49      0.0000     0.0000E+00    0.0000E+00    1.000000E+10  0.02000  1.360E-05    0   0.5167   age181_m62            0.0000     6.2042E-06    22.9816  -1.0000   109.2209
 50      1.7056     4.0538E+00    3.9469E+00    1.800000E+10  0.02000  7.124E-06    0   0.5013   age213_m62            0.0000     6.9563E-06    25.2746  -1.0000   100.9141
 51      0.0000     0.0000E+00    0.0000E+00    1.000000E+06  0.05000  2.592E-02    0   0.9998   age020_m72            0.0000     6.1504E-06    19.1567   2.3482   121.0182
 52      0.3645     1.2740E-04    2.3697E-04    3.160000E+06  0.05000  4.845E-02    0   0.9577   age045_m72            0.0000     6.1642E-06    19.1460   2.2144   121.7916
 53      0.0000     0.0000E+00    0.0000E+00    5.010000E+06  0.05000  3.072E-02    0   0.9147   age055_m72            0.0000     6.2664E-06    19.4958   1.7663   126.4357
 54      0.0000     0.0000E+00    0.0000E+00    6.610000E+06  0.05000  1.455E-02    0   0.8877   age061_m72            0.0000     7.0212E-06    21.9358   1.0253   135.7694
 55      0.0000     0.0000E+00    0.0000E+00    1.000000E+07  0.05000  9.074E-03    0   0.8524   age070_m72            0.0000     6.3529E-06    19.7552   1.9454   125.8850
 56      0.0000     0.0000E+00    0.0000E+00    2.512000E+07  0.05000  4.250E-03    0   0.7902   age090_m72            0.0000     6.4005E-06    19.8052   1.6924   126.1322
 57      0.0000     0.0000E+00    0.0000E+00    4.000000E+07  0.05000  3.087E-03    0   0.7618   age104_m72            0.0000     6.4655E-06    20.0150   1.4854   127.3313
 58      0.0000     0.0000E+00    0.0000E+00    1.015200E+08  0.05000  1.700E-03    0   0.7096   age116_m72            0.0000     6.3773E-06    19.7129   1.2647   128.6902
 59      0.7492     1.7181E-02    2.2134E-02    2.861200E+08  0.05000  7.384E-04    0   0.6633   age125_m72            0.0000     6.1434E-06    19.3821   0.7839   131.8001
 60      3.7090     1.6445E-01    2.0352E-01    5.088000E+08  0.05000  3.819E-04    0   0.6372   age130_m72            0.0000     5.8254E-06    19.0468   0.2870   133.8621
 61      3.5953     3.6323E-01    4.3104E-01    9.047900E+08  0.05000  1.676E-04    0   0.6110   age135_m72            0.0000     5.4384E-06    18.6338  -0.4540   133.4341
 62      9.0298     1.7302E+00    1.9739E+00    1.434000E+09  0.05000  8.837E-05    0   0.5874   age139_m72            0.0000     5.3959E-06    18.5122  -0.9160   132.9983
 63     48.6154     1.9447E+01    2.1144E+01    2.500000E+09  0.05000  4.233E-05    0   0.5598   age150_m72            0.0000     5.4283E-06    19.7527  -1.0000   123.3942
 64      1.0000     1.1799E+00    1.2029E+00    6.250000E+09  0.05000  1.435E-05    0   0.5249   age166_m72            0.0000     6.5227E-06    24.1137  -1.0000   105.3935
 65      6.9170     1.7983E+01    1.7589E+01    1.300000E+10  0.05000  6.513E-06    0   0.5036   age193_m72            0.0000     7.8015E-06    27.3260  -1.0000    96.4249
 66     10.4335     3.9025E+01    3.7481E+01    1.800000E+10  0.05000  4.527E-06    0   0.4945   age213_m72            0.0000     8.7231E-06    29.1084  -1.0000    90.5682


## Synthesis Results - Average & Chains ##

# j      x_j: min, <> & last-chain-values for 1 ...  7 chains
  1      0.0000      5.9528      3.2286      6.4869      6.4748      4.4923      5.8912      5.8112      4.6670
  2      0.0000      0.4916      0.0000      0.0000      0.1984      0.0000      0.0000      0.2861      1.3154
  3      0.0000      0.6857      1.6150      0.0000      3.3298      2.2796      0.0000      0.0000      2.9612
  4      0.1734      0.7771      4.9731      2.7857      2.7754      1.3110      0.7437      2.8891      0.0000
  5      0.0000      0.7920      0.8118      0.3848      0.0000      0.0000      0.1951      0.0000      0.8973
  6      0.0000      0.8829      0.0000      1.3890      0.6021      2.0422      1.1524      0.6565      0.0000
  7      0.1737      1.0927      1.5695      2.8414      1.1958      1.7569      0.9905      1.2748      1.1211
  8      0.0000      1.0416      0.7733      1.3369      2.7150      1.4876      4.0645      3.2645      0.3285
  9      0.0000      0.8543      0.2698      2.6349      2.6833      0.8805      0.0000      1.2712      0.0000
 10      0.0000      0.5032      3.0315      0.0000      0.0000      0.3549      0.0000      0.2313      2.7826
 11      2.5604      0.9562      0.4724      0.0000      1.2224      0.0000      5.2937      3.5473      2.4980
 12      0.0000      1.0019      0.0000      2.4414      1.3101      0.4828      2.7731      4.3307      0.0000
 13      0.0000      0.7543      0.0000      3.0703      4.0429      0.9739      0.4070      0.0000      2.0429
 14      0.0000      1.1291      0.0000      2.4486      1.2815      4.8018      2.1738      0.0000      1.7322
 15      0.0000      0.8301      2.3254      0.0000      1.2263      0.0524      0.0000      1.9313      0.0096
 16      0.0000      1.1129      1.1055      0.7907      0.0000      0.7950      0.0000      0.0000      4.6023
 17      0.0000      0.6820      0.0000      1.3945      0.1000      0.8119      1.3275      0.0000      4.1802
 18      0.5858      4.9417      2.8607      2.6711     10.0689      1.3997      8.4575      4.5350      3.0462
 19      0.0000      0.7343      1.3339      0.4583      0.0000      0.0000      1.9782      0.0000      1.5193
 20      0.0000      0.9991      2.2399      0.0000      0.0000      4.6448      0.1905      4.2803      2.0919
 21      0.0000      0.8665      1.7183      4.8038      1.7223      0.8824      0.0000      1.1968      4.3333
 22      0.0000      1.1182      2.2010      3.4859      1.2915      2.4620      1.4933      0.0637      2.8882
 23      0.0000      0.7649      1.2657      0.1418      0.0000      1.1916      0.2175      2.1225      2.7052
 24      0.0000      1.0079      2.7115      0.0000      2.3754      0.0000      0.0000      0.3361      1.6815
 25      0.0000      0.8117      3.0993      0.9604      0.0000      1.1141      0.0000      0.0788      2.4943
 26      0.0000      1.2415      1.4089      2.8818      0.5776      4.7139      0.8941      1.0248      1.1146
 27      3.4522      0.9020      0.9473      1.4393      0.6457      0.9386      1.7161      3.2126      0.0000
 28      0.0000      0.9275      0.4180      0.0000      3.6913      4.8111      0.0000      0.0000      5.6828
 29      0.0000      0.7077      0.9959      0.1335      0.2272      0.0000      0.0000      1.5474      2.8588
 30      0.0044      0.5865      0.0000      0.0000      1.3872      0.8866      1.3804      1.2327      0.1241
 31      0.0000      1.3737      6.6250      3.3912      1.7934      4.5269      0.0000      0.1991      0.1835
 32      0.0000      1.1701      3.2548      0.4830      0.7015      1.5582      0.3825      1.6711      0.3244
 33      0.0000      0.7896      1.2156      0.0000      0.0000      0.8362      0.4967      3.9289      0.0000
 34      7.9711      0.7369      0.0180      0.0000      0.0000      0.0000      2.0834      0.0000      2.6206
 35      0.0000      0.6239      0.0000      0.0000      3.4953      1.7404      4.9167      0.0000      0.0000
 36      0.0000      0.9578      1.4341      0.0588      1.9520      1.0190      0.0180      4.1566      2.1509
 37      0.0000      0.6538      0.8254      0.4187      4.4719      1.5116      0.9205      0.8307      0.0000
 38      0.1086      0.9284      0.0000      0.4471      0.0000      1.5753      1.6223      1.0162      0.0000
 39      0.0000      0.7183      0.9740      1.6658      1.6647      0.0000      1.7518      0.0000      1.9847
 40      2.2038      0.7265      0.0000      1.2236      0.0000      0.0023      0.8382      1.9354      2.5129
 41     10.1573      1.0121      0.1287      3.3058      2.0991      1.9740      1.7011      0.0000      3.2002
 42      0.0000      0.6864      0.8636      2.4473      1.0352      2.7261      1.1306      0.7973      1.0711
 43      0.0000      0.7498      0.0317      2.3581      0.0000      0.3442      0.0000      0.0000      1.2274
 44      0.0000     11.1820      9.7275      5.9262      7.6765      8.3311      2.6488      7.9803      6.3380
 45      0.0000      0.9111      0.3928      2.1302      0.0000      3.7501      1.2391      0.7911      0.1470
 46     16.4899      1.0232      1.6663      0.0000      2.0153      0.0000      3.2748      1.9607      1.5365
 47      0.0000      0.9557      0.0000      1.4515      0.0000      1.6165      0.0000      3.9525      0.0000
 48      0.0000      0.6947      0.0000      1.7314      0.4715      0.0000      1.1133      0.0000      0.7276
 49      0.0000      1.0302      0.0000      4.2549      2.2603      0.0000      2.3631      0.0000      0.1926
 50      1.7056      1.3836      2.2261      0.5749      0.1468      0.0000      0.9718      0.0000      2.3182
 51      0.0000      0.6314      0.8323      0.4722      0.1107      0.0083      0.0000      1.0119      2.4568
 52      0.3645      0.7903      2.4541      3.1126      0.9033      0.6058      1.0305      0.0000      0.0000
 53      0.0000      0.6949      1.6549      0.7614      0.0000      0.0000      1.5275      3.3610      1.0510
 54      0.0000      0.7643      0.6744      2.0318      0.2197      1.7630      4.9336      1.0256      2.0826
 55      0.0000      0.7696      3.1399      0.4467      3.5212      1.6640      1.3455      2.0402      1.2640
 56      0.0000      1.0423      4.4689      1.2769      2.0105      3.7707      4.2171      3.8257      2.2467
 57      0.0000      0.7533      2.5794      0.6333      0.9728      0.8138      0.0000      1.5011      0.3932
 58      0.0000      0.6915      1.1154      1.4792      1.0443      0.4788      0.0000      1.2437      1.2468
 59      0.7492      1.5506      0.0000      0.0000      3.2142      1.4474      5.4293      1.8477      0.0476
 60      3.7090     10.2012      9.2699     10.6425      4.1171      5.6687      6.7241      8.9210      4.3079
 61      3.5953      0.7311      0.0000      0.0000      0.8879      2.2385      3.2081      0.0000      0.0000
 62      9.0298      0.9173      1.6393      2.1641      3.7336      1.2081      1.4562      1.3985      2.7615
 63     48.6154      0.8894      0.0000      2.3177      1.1948      0.0000      3.3945      0.8484      2.0949
 64      1.0000      0.7955      1.1900      2.7851      1.2669      0.6419      0.5751      0.4528      0.0000
 65      6.9170      7.2385      4.6205      0.0000      4.8583      4.5691      3.0167      3.1096      6.0959
 66     10.4335     26.3570     13.0444     14.5978     10.2531     16.5712     12.8097     13.7646      6.4619

# j      m_j: min, <> & last-chain-values for 1 ...  7 chains
  1  8.0727E-08  1.4025E-02  1.2895E-02  2.7235E-02  3.2437E-02  1.6545E-02  2.5026E-02  2.5404E-02  2.2768E-02
  2  0.0000E+00  3.1617E-04  0.0000E+00  0.0000E+00  2.7128E-04  0.0000E+00  0.0000E+00  3.4140E-04  1.7519E-03
  3  0.0000E+00  6.6051E-04  2.6371E-03  0.0000E+00  6.8196E-03  3.4324E-03  0.0000E+00  0.0000E+00  5.9058E-03
  4  2.0067E-04  7.0485E-04  7.6469E-03  4.5028E-03  5.3528E-03  1.8589E-03  1.2163E-03  4.8624E-03  0.0000E+00
  5  0.0000E+00  1.3685E-03  2.3778E-03  1.1848E-03  0.0000E+00  0.0000E+00  6.0775E-04  0.0000E+00  3.2101E-03
  6  0.0000E+00  2.4743E-03  0.0000E+00  6.9367E-03  3.5880E-03  8.9466E-03  5.8231E-03  3.4135E-03  0.0000E+00
  7  8.8927E-04  4.3843E-03  1.0675E-02  2.0316E-02  1.0202E-02  1.1019E-02  7.1654E-03  9.4906E-03  9.3139E-03
  8  0.0000E+00  5.7766E-03  7.2697E-03  1.3212E-02  3.2015E-02  1.2896E-02  4.0641E-02  3.3591E-02  3.7717E-03
  9  0.0000E+00  5.4224E-03  2.9025E-03  2.9803E-02  3.6214E-02  8.7365E-03  0.0000E+00  1.4971E-02  0.0000E+00
 10  0.0000E+00  4.1958E-03  4.2847E-02  0.0000E+00  0.0000E+00  4.6256E-03  0.0000E+00  3.5776E-03  4.8038E-02
 11  5.1214E-02  1.4990E-02  1.2555E-02  0.0000E+00  4.0750E-02  0.0000E+00  1.4964E-01  1.0319E-01  8.1088E-02
 12  0.0000E+00  2.4918E-02  0.0000E+00  1.0820E-01  6.9277E-02  1.8769E-02  1.2434E-01  1.9983E-01  0.0000E+00
 13  0.0000E+00  5.2872E-02  0.0000E+00  3.8352E-01  6.0258E-01  1.0672E-01  5.1439E-02  0.0000E+00  2.9652E-01
 14  0.0000E+00  2.6546E-01  0.0000E+00  1.0259E+00  6.4063E-01  1.7647E+00  9.2147E-01  0.0000E+00  8.4324E-01
 15  0.0000E+00  3.1770E-01  1.5088E+00  0.0000E+00  9.9799E-01  3.1333E-02  0.0000E+00  1.3715E+00  7.5810E-03
 16  0.0000E+00  7.2020E-01  1.2127E+00  9.1180E-01  0.0000E+00  8.0421E-01  0.0000E+00  0.0000E+00  6.1670E+00
 17  0.0000E+00  5.7252E-01  0.0000E+00  2.0862E+00  1.7852E-01  1.0654E+00  2.0094E+00  0.0000E+00  7.2664E+00
 18  1.5562E-03  1.0289E-02  1.0097E-02  9.9103E-03  4.4575E-02  4.5553E-03  3.1749E-02  1.7519E-02  1.3132E-02
 19  0.0000E+00  6.1365E-04  1.8896E-03  6.8241E-04  0.0000E+00  0.0000E+00  2.9806E-03  0.0000E+00  2.6289E-03
 20  0.0000E+00  9.1151E-04  3.4640E-03  0.0000E+00  0.0000E+00  6.6238E-03  3.1332E-04  7.2452E-03  3.9515E-03
 21  0.0000E+00  9.5959E-04  3.2258E-03  9.4799E-03  4.0554E-03  1.5274E-03  0.0000E+00  2.4592E-03  9.9361E-03
 22  0.0000E+00  2.0940E-03  6.9870E-03  1.1632E-02  5.1423E-03  7.2067E-03  5.0417E-03  2.2117E-04  1.1199E-02
 23  0.0000E+00  1.9341E-03  5.4259E-03  6.3878E-04  0.0000E+00  4.7105E-03  9.9184E-04  9.9590E-03  1.4164E-02
 24  0.0000E+00  3.7919E-03  1.7293E-02  0.0000E+00  1.9002E-02  0.0000E+00  0.0000E+00  2.3460E-03  1.3099E-02
 25  0.0000E+00  4.2106E-03  2.7254E-02  8.8780E-03  0.0000E+00  9.0346E-03  0.0000E+00  7.5854E-04  2.6792E-02
 26  0.0000E+00  1.0765E-02  2.0709E-02  4.4529E-02  1.0650E-02  6.3894E-02  1.3978E-02  1.6488E-02  2.0011E-02
 27  7.6447E-02  1.5656E-02  2.7871E-02  4.4516E-02  2.3829E-02  2.5464E-02  5.3702E-02  1.0345E-01  0.0000E+00
 28  0.0000E+00  4.6716E-02  3.5691E-02  0.0000E+00  3.9534E-01  3.7881E-01  0.0000E+00  0.0000E+00  5.9269E-01
 29  0.0000E+00  6.2113E-02  1.4817E-01  2.0885E-02  4.2401E-02  0.0000E+00  0.0000E+00  2.5198E-01  5.1951E-01
 30  1.0358E-03  1.0755E-01  0.0000E+00  0.0000E+00  5.4085E-01  2.5412E-01  4.5637E-01  4.1940E-01  4.7132E-02
 31  0.0000E+00  4.4308E-01  3.6224E+00  1.9492E+00  1.2300E+00  2.2825E+00  0.0000E+00  1.1916E-01  1.2254E-01
 32  0.0000E+00  5.0782E-01  2.3946E+00  3.7351E-01  6.4734E-01  1.0571E+00  2.9929E-01  1.3456E+00  2.9152E-01
 33  0.0000E+00  7.5866E-01  1.9799E+00  0.0000E+00  0.0000E+00  1.2558E+00  8.6050E-01  7.0037E+00  0.0000E+00
 34  1.3232E+01  9.5879E-01  3.9730E-02  0.0000E+00  0.0000E+00  0.0000E+00  4.8872E+00  0.0000E+00  7.0597E+00
 35  0.0000E+00  1.0415E-03  0.0000E+00  0.0000E+00  1.2407E-02  4.5416E-03  1.4799E-02  0.0000E+00  0.0000E+00
 36  0.0000E+00  6.4693E-04  1.6420E-03  7.0801E-05  2.8033E-03  1.0759E-03  2.1912E-05  5.2091E-03  3.0081E-03
 37  0.0000E+00  4.7766E-04  1.0222E-03  5.4507E-04  6.9466E-03  1.7263E-03  1.2125E-03  1.1260E-03  0.0000E+00
 38  2.7417E-04  1.8375E-03  0.0000E+00  1.5770E-03  0.0000E+00  4.8738E-03  5.7891E-03  3.7316E-03  0.0000E+00
 39  0.0000E+00  2.0469E-03  4.7050E-03  8.4593E-03  1.0087E-02  0.0000E+00  9.0006E-03  0.0000E+00  1.1711E-02
 40  1.2952E-02  3.3465E-03  0.0000E+00  1.0044E-02  0.0000E+00  1.6833E-05  6.9612E-03  1.6542E-02  2.3967E-02
 41  9.2830E-02  7.2497E-03  1.5622E-03  4.2196E-02  3.1970E-02  2.2103E-02  2.1969E-02  0.0000E+00  4.7464E-02
 42  0.0000E+00  9.0273E-03  1.9253E-02  5.7355E-02  2.8947E-02  5.6043E-02  2.6810E-02  1.9455E-02  2.9166E-02
 43  0.0000E+00  1.4397E-02  1.0318E-03  8.0685E-02  0.0000E+00  1.0330E-02  0.0000E+00  0.0000E+00  4.8799E-02
 44  0.0000E+00  3.6968E-01  5.4516E-01  3.4913E-01  5.3963E-01  4.3054E-01  1.5789E-01  4.8952E-01  4.3386E-01
 45  0.0000E+00  5.9767E-02  4.3681E-02  2.4901E-01  0.0000E+00  3.8453E-01  1.4655E-01  9.6282E-02  1.9966E-02
 46  2.5367E+00  1.2337E-01  3.4059E-01  0.0000E+00  5.1666E-01  0.0000E+00  7.1191E-01  4.3864E-01  3.8360E-01
 47  0.0000E+00  2.3350E-01  0.0000E+00  6.3194E-01  0.0000E+00  6.1736E-01  0.0000E+00  1.7918E+00  0.0000E+00
 48  0.0000E+00  2.9932E-01  0.0000E+00  1.3294E+00  4.3195E-01  0.0000E+00  8.6492E-01  0.0000E+00  6.4912E-01
 49  0.0000E+00  1.0088E+00  0.0000E+00  7.4250E+00  4.7065E+00  0.0000E+00  4.1723E+00  0.0000E+00  3.9063E-01
 50  3.9469E+00  2.5095E+00  6.8444E+00  1.8580E+00  5.6615E-01  0.0000E+00  3.1781E+00  0.0000E+00  8.7062E+00
 51  0.0000E+00  6.2771E-04  1.4027E-03  8.3667E-04  2.3404E-04  1.2824E-05  0.0000E+00  1.8667E-03  5.0576E-03
 52  2.3697E-04  4.0267E-04  2.1196E-03  2.8260E-03  9.7862E-04  4.8252E-04  9.4662E-04  0.0000E+00  0.0000E+00
 53  0.0000E+00  5.3329E-04  2.1531E-03  1.0414E-03  0.0000E+00  0.0000E+00  2.1138E-03  4.7862E-03  1.6702E-03
 54  0.0000E+00  1.2019E-03  1.7977E-03  5.6938E-03  7.3476E-04  4.3338E-03  1.3989E-02  2.9924E-03  6.7812E-03
 55  0.0000E+00  1.8634E-03  1.2888E-02  1.9274E-03  1.8129E-02  6.2984E-03  5.8739E-03  9.1661E-03  6.3373E-03
 56  0.0000E+00  4.9953E-03  3.6305E-02  1.0904E-02  2.0488E-02  2.8248E-02  3.6439E-02  3.4018E-02  2.2294E-02
 57  0.0000E+00  4.7915E-03  2.7813E-02  7.1786E-03  1.3157E-02  8.0913E-03  0.0000E+00  1.7717E-02  5.1784E-03
 58  0.0000E+00  7.4399E-03  2.0343E-02  2.8360E-02  2.3891E-02  8.0524E-03  0.0000E+00  2.4828E-02  2.7776E-02
 59  2.2134E-02  3.5902E-02  0.0000E+00  0.0000E+00  1.5824E-01  5.2388E-02  2.2666E-01  7.9381E-02  2.2812E-03
 60  2.0352E-01  4.3872E-01  6.7582E-01  8.1561E-01  3.7649E-01  3.8109E-01  5.2139E-01  7.1187E-01  3.8362E-01
 61  4.3104E-01  6.8695E-02  0.0000E+00  0.0000E+00  1.7740E-01  3.2881E-01  5.4353E-01  0.0000E+00  0.0000E+00
 62  1.9739E+00  1.5716E-01  4.7611E-01  6.6073E-01  1.3602E+00  3.2356E-01  4.4983E-01  4.4457E-01  9.7967E-01
 63  2.1144E+01  3.0317E-01  0.0000E+00  1.4078E+00  8.6601E-01  0.0000E+00  2.0863E+00  5.3659E-01  1.4786E+00
 64  1.2029E+00  7.5002E-01  1.9019E+00  4.6792E+00  2.5398E+00  9.4608E-01  9.7768E-01  7.9210E-01  0.0000E+00
 65  1.7589E+01  1.4427E+01  1.5610E+01  0.0000E+00  2.0588E+01  1.4235E+01  1.0840E+01  1.1499E+01  2.5156E+01
 66  3.7481E+01  7.4210E+01  6.2260E+01  7.3242E+01  6.1382E+01  7.2934E+01  6.5028E+01  7.1908E+01  3.7672E+01

# AV, chi2 & Mass for <> & i_chain = 1 ...  7 solutions
AV      -1.0000      0.9143      0.7696      0.7273      0.7568      0.6275      0.5782      0.7233      0.7533
chi2 5.4010E-06  3.8378E-05  1.3248E-05  1.3601E-05  1.0034E-05  1.2194E-05  9.4171E-06  1.0973E-05  1.1808E-05
Mass 4.8419E-14  8.0805E-13  3.9248E-13  3.5273E-13  3.0755E-13  3.5166E-13  2.8535E-13  3.3694E-13  3.1435E-13
 128.53                                  [v0_min (km/s) before EX0s...]
 236.08                                  [vd_min (km/s) before EX0s...]


## Synthetic spectrum (Best Model) ##l_obs f_obs f_syn wei
 3478    [Nl_obs]
 3741.00    0.86329   0.67797    0.000
 3742.00    0.80944   0.69981    0.000
 3743.00    0.63454   0.70868    0.000
 3744.00    0.24014   0.70285    0.000
 3745.00   -0.28216   0.68389    0.000
 3746.00   -0.23465   0.65521    0.000
 3747.00    0.10222   0.62351   -1.000
 3748.00   -0.10603   0.59686    0.000
 3749.00   -0.55399   0.58044    0.000
 3750.00   -0.18706   0.57713    0.000
 3751.00    0.48752   0.58861   -1.000
 3752.00    0.93205   0.61367   -1.000
 3753.00    1.30286   0.64970   -1.000
 3754.00    1.09073   0.69127   -1.000
 3755.00    0.72239   0.72903   -1.000
 3756.00    0.51550   0.75555   -1.000
 3757.00    0.34406   0.76969   -1.000
 3758.00    0.17776   0.77364   -1.000
 3759.00    0.01235   0.76931   -1.000
 3760.00   -0.01270   0.75937    0.000
 3761.00   -0.01910   0.74820    0.000
 3762.00   -0.15530   0.74159    0.000
 3763.00   -0.30370   0.74145    0.000
 3764.00   -0.18151   0.74286    0.000
 3765.00   -0.04370   0.74156    0.000
 3766.00    0.42201   0.73791   -1.000
 3767.00    0.89149   0.73259   -1.000
 3768.00    0.87322   0.72719   -1.000
 3769.00    0.85709   0.72432   -1.000
 3770.00    0.89279   0.72501   -1.000
 3771.00    0.91155   0.73134   -1.000
 3772.00    0.70834   0.74475   -1.000
 3773.00    0.49282   0.76279   -1.000
 3774.00    0.16918   0.78355   -1.000
 3775.00   -0.09453   0.80777    0.000
 3776.00    0.03035   0.83380   -1.000
 3777.00    0.10519   0.85879   -1.000
 3778.00   -0.07325   0.88221    0.000
 3779.00   -0.17081   0.90452    0.000
 3780.00    0.06264   0.92567   -1.000
 3781.00    0.27522   0.94452   -1.000
 3782.00    0.41702   0.95901   -1.000
 3783.00    0.43396   0.96652   -1.000
 3784.00    0.09378   0.96418   -1.000
 3785.00   -0.16448   0.95153    0.000
 3786.00   -0.22260   0.93076    0.000
 3787.00   -0.28101   0.90455    0.000
 3788.00   -0.34003   0.87525    0.000
 3789.00   -0.18751   0.84473    0.000
 3790.00    0.35250   0.81588   -1.000
 3791.00    0.86547   0.79167   -1.000
 3792.00    1.33517   0.77039   -1.000
 3793.00    1.64149   0.74977   -1.000
 3794.00    1.71834   0.72932   -1.000
 3795.00    1.59966   0.70751   -1.000
 3796.00    1.23933   0.68376   -1.000
 3797.00    0.92254   0.66253   -1.000
 3798.00    0.65317   0.64983   -1.000
 3799.00    0.23826   0.64851   -1.000
 3800.00   -0.31651   0.65892    0.000
 3801.00   -0.67539   0.68028    0.000
 3802.00   -0.86828   0.71138    0.000
 3803.00   -0.64655   0.74890    0.000
 3804.00   -0.11542   0.78615    0.000
 3805.00    0.31845   0.81779   -1.000
 3806.00    0.68856   0.84347   -1.000
 3807.00    0.97978   0.86397   -1.000
 3808.00    1.22572   0.87861   -1.000
 3809.00    1.39985   0.88770   -1.000
 3810.00    1.53808   0.89189   -1.000
 3811.00    0.88757   0.89184   -1.000
 3812.00   -0.10403   0.88752    0.000
 3813.00   -0.30607   0.87683    0.000
 3814.00   -0.21531   0.85941    0.000
 3815.00    0.24700   0.83834   -1.000
 3816.00    0.82610   0.81574   -1.000
 3817.00    0.65406   0.79309   -1.000
 3818.00    0.28499   0.77293   -1.000
 3819.00    0.38615   0.75753   -1.000
 3820.00    0.58807   0.74719   -1.000
 3821.00    0.59245   0.73839   -1.000
 3822.00    0.56331   0.72629   -1.000
 3823.00    0.34952   0.71116   -1.000
 3824.00    0.11203   0.69698   -1.000
 3825.00    0.13088   0.68530   -1.000
 3826.00    0.17275   0.67298   -1.000
 3827.00    0.23861   0.65739   -1.000
 3828.00    0.30575   0.64062   -1.000
 3829.00   -0.10147   0.62511    0.000
 3830.00   -0.51025   0.60991    0.000
 3831.00   -0.24796   0.59373    0.000
 3832.00    0.02153   0.57628   -1.000
 3833.00    0.45071   0.55867   -1.000
 3834.00    0.84142   0.54237   -1.000
 3835.00    0.75362   0.52803   -1.000
 3836.00    0.65970   0.51788   -1.000
 3837.00    0.51411   0.51540   -1.000
 3838.00    0.42912   0.52151   -1.000
 3839.00    0.72542   0.53625   -1.000
 3840.00    0.95394   0.55905   -1.000
 3841.00    0.84809   0.58733   -1.000
 3842.00    0.71227   0.61972   -1.000
 3843.00    0.45652   0.65514   -1.000
 3844.00    0.23083   0.69134   -1.000
 3845.00    0.10505   0.72653   -1.000
 3846.00    0.04431   0.75709   -1.000
 3847.00    0.16620   0.77907    0.000
 3848.00    0.28897   0.79346    0.000
 3849.00    0.41385   0.80385    0.000
 3850.00    0.46551   0.81177    0.000
 3851.00    0.36534   0.81630    0.000
 3852.00    0.28261   0.81667    0.000
 3853.00    0.23133   0.81415    0.000
 3854.00    0.08819   0.81125    0.000
 3855.00   -0.19984   0.80812    0.000
 3856.00   -0.25544   0.80115    0.000
 3857.00    0.01071   0.78991    0.000
 3858.00    0.21232   0.77879    0.000
 3859.00    0.33528   0.77176    0.000
 3860.00    0.50526   0.77063    0.000
 3861.00    0.72574   0.77452    0.000
 3862.00    0.97436   0.78159    0.000
 3863.00    1.24964   0.79235    0.000
 3864.00    1.19619   0.80672    0.000
 3865.00    0.86811   0.82108    0.000
 3866.00    0.86583   0.83080    0.000
 3867.00    1.10317   0.83356    0.000
 3868.00    0.92355   0.82959    0.000
 3869.00    0.47461   0.82097    0.000
 3870.00    0.55844   0.81000    0.000
 3871.00    0.94335   0.79944    0.000
 3872.00    0.84931   0.79175    0.000
 3873.00    0.51966   0.78722    0.000
 3874.00    0.44770   0.78504    0.000
 3875.00    0.48530   0.78443    0.000
 3876.00    0.70497   0.78489    0.000
 3877.00    0.99096   0.78678    0.000
 3878.00    0.78529   0.78726    0.000
 3879.00    0.42806   0.78129    0.000
 3880.00    0.47544   0.76893    0.000
 3881.00    0.62669   0.75533   -1.000
 3882.00    0.82097   0.74456   -1.000
 3883.00    1.02425   0.73402   -1.000
 3884.00    0.76902   0.71910   -1.000
 3885.00    0.43818   0.70134   -1.000
 3886.00    0.17707   0.68529   -1.000
 3887.00   -0.07540   0.67222    0.000
 3888.00   -0.02922   0.66197    0.000
 3889.00    0.04251   0.65727   -1.000
 3890.00    0.02474   0.66288   -1.000
 3891.00    0.00250   0.67898   -1.000
 3892.00    0.38436   0.70229   -1.000
 3893.00    0.76505   0.73056   -1.000
 3894.00    0.64252   0.76168   -1.000
 3895.00    0.51597   0.79164   -1.000
 3896.00    0.30727   0.81589   -1.000
 3897.00    0.11001   0.83365   -1.000
 3898.00    0.04802   0.84769   -1.000
 3899.00    0.00433   0.86125   -1.000
 3900.00    0.10972   0.87318   -1.000
 3901.00    0.21032   0.88041   -1.000
 3902.00    0.28169   0.88432   -1.000
 3903.00    0.33978   0.88709   -1.000
 3904.00    0.33399   0.88994   -1.000
 3905.00    0.37532   0.89324   -1.000
 3906.00    0.60119   0.89778   -1.000
 3907.00    0.82171   0.90623   -1.000
 3908.00    1.02479   0.91854   -1.000
 3909.00    1.02380   0.93460   -1.000
 3910.00    0.46007   0.95502   -1.000
 3911.00    0.28692   0.97586   -1.000
 3912.00    1.03609   0.99231   -1.000
 3913.00    1.40960   1.00259   -1.000
 3914.00    1.01641   1.00646   -1.000
 3915.00    0.70718   1.00440   -1.000
 3916.00    0.54707   0.99607   -1.000
 3917.00    0.61254   0.98201   -1.000
 3918.00    1.02851   0.96394   -1.000
 3919.00    1.20316   0.94310   -1.000
 3920.00    1.04853   0.92198   -1.000
 3921.00    1.01162   0.90207   -1.000
 3922.00    1.11614   0.88307   -1.000
 3923.00    1.11421   0.86416   -1.000
 3924.00    0.99955   0.84507   -1.000
 3925.00    1.11251   0.82499   -1.000
 3926.00    1.43812   0.80087   -1.000
 3927.00    1.49563   0.77029   -1.000
 3928.00    1.33233   0.73201   -1.000
 3929.00    1.03845   0.68717   -1.000
 3930.00    0.64989   0.63897   -1.000
 3931.00    0.53902   0.59055   -1.000
 3932.00    0.60489   0.54630   -1.000
 3933.00    0.52107   0.51067   -1.000
 3934.00    0.35394   0.48692   -1.000
 3935.00    0.15230   0.47709   -1.000
 3936.00   -0.06605   0.48212    0.000
 3937.00    0.09217   0.50200   -1.000
 3938.00    0.40782   0.53436   -1.000
 3939.00    0.51403   0.57459   -1.000
 3940.00    0.54533   0.61792   -1.000
 3941.00    0.42315   0.66012   -1.000
 3942.00    0.25458   0.69874   -1.000
 3943.00    0.46220   0.73385   -1.000
 3944.00    0.76429   0.76591   -1.000
 3945.00    1.01278   0.79424   -1.000
 3946.00    1.25034   0.81874   -1.000
 3947.00    1.25665   0.84258   -1.000
 3948.00    1.22593   0.86933   -1.000
 3949.00    0.98665   0.89601   -1.000
 3950.00    0.72248   0.91600   -1.000
 3951.00    0.20510   0.93022   -1.000
 3952.00   -0.33290   0.94443    0.000
 3953.00    0.03177   0.95724   -1.000
 3954.00    0.43793   0.96260   -1.000
 3955.00    0.62526   0.95984   -1.000
 3956.00    0.81074   0.95459   -1.000
 3957.00    1.04514   0.94858   -1.000
 3958.00    1.24594   0.93472   -1.000
 3959.00    0.81007   0.90898   -1.000
 3960.00    0.40156   0.87636    0.000
 3961.00    0.30129   0.84068    0.000
 3962.00    0.25071   0.79911    0.000
 3963.00    0.59080   0.74807    0.000
 3964.00    0.85774   0.68947    0.000
 3965.00    0.69074   0.63041    0.000
 3966.00    0.50780   0.57540    0.000
 3967.00    0.25005   0.52488    0.000
 3968.00   -0.00906   0.48100    0.000
 3969.00   -0.27342   0.44843    0.000
 3970.00   -0.27078   0.43154    0.000
 3971.00    0.58525   0.43242    0.000
 3972.00    1.13497   0.45150    0.000
 3973.00    0.85507   0.48784    0.000
 3974.00    0.62164   0.53777    0.000
 3975.00    0.49609   0.59621    0.000
 3976.00    0.55835   0.65905    0.000
 3977.00    0.99786   0.72355    0.000
 3978.00    1.31450   0.78650    0.000
 3979.00    1.41620   0.84312    0.000
 3980.00    1.35465   0.89140    0.000
 3981.00    1.04319   0.93243   -1.000
 3982.00    0.84625   0.96665   -1.000
 3983.00    0.80333   0.99378   -1.000
 3984.00    0.76374   1.01345   -1.000
 3985.00    0.72812   1.02879   -1.000
 3986.00    0.66998   1.04451   -1.000
 3987.00    0.58834   1.06036   -1.000
 3988.00    0.76023   1.07472   -1.000
 3989.00    1.16565   1.08761   -1.000
 3990.00    1.30491   1.10053   -1.000
 3991.00    1.22807   1.11337   -1.000
 3992.00    1.11657   1.12172   -1.000
 3993.00    0.98030   1.12580   -1.000
 3994.00    1.13299   1.12894   -1.000
 3995.00    1.46686   1.13041   -1.000
 3996.00    1.63000   1.12998   -1.000
 3997.00    1.69958   1.12986   -1.000
 3998.00    1.45448   1.13225   -1.000
 3999.00    1.05949   1.13651   -1.000
 4000.00    0.85801   1.14242   -1.000
 4001.00    0.73606   1.15180   -1.000
 4002.00    1.16835   1.16219   -1.000
 4003.00    1.79529   1.16581   -1.000
 4004.00    1.89891   1.16178   -1.000
 4005.00    1.84748   1.15727   -1.000
 4006.00    1.62438   1.15443   -1.000
 4007.00    1.35910   1.14935   -1.000
 4008.00    0.93476   1.14405   -1.000
 4009.00    0.47879   1.14758   -1.000
 4010.00    0.78796   1.16079   -1.000
 4011.00    1.21601   1.17608   -1.000
 4012.00    1.36477   1.18934   -1.000
 4013.00    1.48142   1.20223   -1.000
 4014.00    0.67891   1.21520   -1.000
 4015.00   -0.19466   1.22523    0.000
 4016.00    0.02714   1.23237   -1.000
 4017.00    0.29507   1.23891   -1.000
 4018.00    0.80347   1.24531   -1.000
 4019.00    1.29862   1.24833   -1.000
 4020.00    1.11688   1.24710   -1.000
 4021.00    0.94106   1.24632   -1.000
 4022.00    0.86961   1.24630   -1.000
 4023.00    0.81238   1.24233   -1.000
 4024.00    0.90820   1.23599   -1.000
 4025.00    1.03747   1.23162   -1.000
 4026.00    1.42075   1.22856   -1.000
 4027.00    1.65163   1.22271   -1.000
 4028.00    1.00343   1.21298   -1.000
 4029.00    0.51907   1.20074   -1.000
 4030.00    0.78550   1.18566   -1.000
 4031.00    0.99657   1.16724   -1.000
 4032.00    1.00000   1.14618   -1.000
 4033.00    0.93906   1.12636   -1.000
 4034.00    0.67632   1.11696   -1.000
 4035.00    0.56756   1.12176   -1.000
 4036.00    0.86841   1.13622   -1.000
 4037.00    1.09134   1.15704   -1.000
 4038.00    1.13633   1.18069   -1.000
 4039.00    1.22900   1.20323   -1.000
 4040.00    1.41592   1.22056   -1.000
 4041.00    1.45662   1.22747   -1.000
 4042.00    1.24541   1.22015   -1.000
 4043.00    0.99199   1.19988   -1.000
 4044.00    0.67487   1.17544   -1.000
 4045.00    0.45873   1.15605   -1.000
 4046.00    0.37644   1.14054   -1.000
 4047.00    0.49647   1.12623   -1.000
 4048.00    0.85271   1.11996   -1.000
 4049.00    1.10650   1.12978   -1.000
 4050.00    1.25482   1.15154   -1.000
 4051.00    1.47840   1.17096   -1.000
 4052.00    1.77032   1.18230   -1.000
 4053.00    2.02681   1.18871   -1.000
 4054.00    2.25493   1.18979   -1.000
 4055.00    2.08034   1.18302   -1.000
 4056.00    1.62217   1.17029   -1.000
 4057.00    1.28231   1.15657   -1.000
 4058.00    1.01553   1.14640   -1.000
 4059.00    0.88512   1.13962   -1.000
 4060.00    0.82828   1.13069   -1.000
 4061.00    0.94700   1.11907   -1.000
 4062.00    1.14801   1.11063   -1.000
 4063.00    1.12760   1.10703   -1.000
 4064.00    1.01772   1.10263   -1.000
 4065.00    0.82158   1.09381   -1.000
 4066.00    0.59570   1.08779   -1.000
 4067.00    0.67459   1.09465   -1.000
 4068.00    0.84198   1.10942   -1.000
 4069.00    0.92159   1.11752   -1.000
 4070.00    0.98011   1.11981   -1.000
 4071.00    0.85024   1.12681   -1.000
 4072.00    0.68386   1.13520   -1.000
 4073.00    0.96884   1.13296   -1.000
 4074.00    1.32184   1.12054   -1.000
 4075.00    1.78801   1.11023   -1.000
 4076.00    2.26670   1.10660   -1.000
 4077.00    1.40211   1.10328   -1.000
 4078.00    0.43916   1.09930   -1.000
 4079.00    0.77415   1.10001   -1.000
 4080.00    1.15884   1.10860   -1.000
 4081.00    1.64843   1.12390   -1.000
 4082.00    2.11770   1.14243   -1.000
 4083.00    1.79895   1.16102   -1.000
 4084.00    1.47875   1.17740   -1.000
 4085.00    1.13467   1.19004   -1.000
 4086.00    0.80622   1.20070   -1.000
 4087.00    0.63863   1.21151   -1.000
 4088.00    0.49554   1.22135   -1.000
 4089.00    0.53224   1.22944   -1.000
 4090.00    0.59579   1.23538   -1.000
 4091.00    0.80996   1.23709   -1.000
 4092.00    0.99686   1.23191    0.000
 4093.00    1.06180   1.21848    0.000
 4094.00    1.13799   1.19704    0.000
 4095.00    1.25548   1.16972    0.000
 4096.00    1.46090   1.13966    0.000
 4097.00    1.93673   1.10591    0.000
 4098.00    2.26064   1.06631    0.000
 4099.00    2.18747   1.02521    0.000
 4100.00    1.98154   0.98948    0.000
 4101.00    1.47743   0.96224    0.000
 4102.00    1.04410   0.94324    0.000
 4103.00    0.74849   0.93245    0.000
 4104.00    0.52485   0.93364    0.000
 4105.00    0.42334   0.95003    0.000
 4106.00    0.57094   0.97671    0.000
 4107.00    1.08885   1.00555    0.000
 4108.00    1.28575   1.03370    0.000
 4109.00    1.06322   1.06015    0.000
 4110.00    0.91958   1.08237    0.000
 4111.00    0.86673   1.10019    0.000
 4112.00    1.02222   1.11512    0.000
 4113.00    1.38918   1.12833   -1.000
 4114.00    1.73704   1.14121   -1.000
 4115.00    2.06782   1.15405   -1.000
 4116.00    2.09246   1.16432   -1.000
 4117.00    1.87557   1.16956   -1.000
 4118.00    1.47535   1.17179   -1.000
 4119.00    0.94791   1.17291   -1.000
 4120.00    0.61702   1.16993   -1.000
 4121.00    0.40572   1.16278   -1.000
 4122.00    0.33533   1.15817   -1.000
 4123.00    0.33979   1.15915   -1.000
 4124.00    0.53759   1.15985   -1.000
 4125.00    0.82453   1.15719   -1.000
 4126.00    1.15231   1.15438   -1.000
 4127.00    1.49630   1.15270   -1.000
 4128.00    1.38473   1.14814   -1.000
 4129.00    1.11898   1.13792   -1.000
 4130.00    0.72804   1.12464   -1.000
 4131.00    0.30149   1.11245   -1.000
 4132.00    0.47725   1.10402   -1.000
 4133.00    0.79442   1.09938   -1.000
 4134.00    0.73133   1.09932   -1.000
 4135.00    0.59646   1.10478   -1.000
 4136.00    0.88243   1.11640   -1.000
 4137.00    1.22986   1.13235   -1.000
 4138.00    1.20443   1.14922   -1.000
 4139.00    1.13938   1.16182   -1.000
 4140.00    0.86026   1.16595   -1.000
 4141.00    0.56634   1.16183   -1.000
 4142.00    1.15202   1.15198   -1.000
 4143.00    1.76803   1.13973   -1.000
 4144.00    1.12545   1.12611   -1.000
 4145.00    0.50195   1.11156   -1.000
 4146.00    0.59117   1.10128   -1.000
 4147.00    0.70276   1.10044   -1.000
 4148.00    1.16017   1.10523   -1.000
 4149.00    1.55163   1.10887   -1.000
 4150.00    1.29297   1.11080   -1.000
 4151.00    1.06242   1.11181   -1.000
 4152.00    1.03148   1.11029   -1.000
 4153.00    1.01849   1.10678   -1.000
 4154.00    1.10347   1.10358   -1.000
 4155.00    1.15480   1.10075   -1.000
 4156.00    1.05902   1.09976   -1.000
 4157.00    0.87604   1.10334    0.111
 4158.00    0.37942   1.11154    0.020
 4159.00    0.09983   1.12168    0.012
 4160.00    0.47516   1.13456    0.012
 4161.00    0.79470   1.15072    0.013
 4162.00    0.97098   1.16517    0.013
 4163.00    1.15084   1.17449    0.013
 4164.00    1.33861   1.18081    0.013
 4165.00    1.35195   1.18457    0.013
 4166.00    1.03117   1.18204    0.013
 4167.00    1.03005   1.17454    0.013
 4168.00    1.56320   1.16581    0.013
 4169.00    1.83698   1.15403    0.013
 4170.00    1.73084   1.13744    0.013
 4171.00    1.41872   1.12013    0.013
 4172.00    0.84132   1.10511    0.013
 4173.00    0.47802   1.09011    0.012
 4174.00    0.35769   1.07424    0.012
 4175.00    0.18730   1.06111    0.012
 4176.00   -0.03321   1.05453    0.000
 4177.00   -0.02936   1.05450    0.000
 4178.00    0.17252   1.05852    0.012
 4179.00    0.57597   1.06394    0.012
 4180.00    1.13621   1.06991    0.012
 4181.00    1.53686   1.07801    0.012
 4182.00    1.82839   1.08845    0.012
 4183.00    1.43998   1.09828    0.012
 4184.00    0.64401   1.10511    0.012
 4185.00    0.56332   1.10913    0.012
 4186.00    0.85674   1.11298    0.012
 4187.00    1.27453   1.11924    0.012
 4188.00    1.74874   1.12548    0.012
 4189.00    1.54675   1.12678    0.012
 4190.00    1.08090   1.12719    0.012
 4191.00    1.16045   1.13441    0.012
 4192.00    1.42115   1.14358    0.012
 4193.00    1.29382   1.14468    0.012
 4194.00    1.05835   1.13995    0.012
 4195.00    0.78276   1.13621    0.012
 4196.00    0.49796   1.12909    0.012
 4197.00    0.74694   1.11301    0.012
 4198.00    1.09403   1.09452    0.012
 4199.00    0.85145   1.08038    0.012
 4200.00    0.52550   1.06841    0.012
 4201.00    0.70818   1.05944    0.011
 4202.00    0.94273   1.05921    0.011
 4203.00    1.43322   1.06570    0.011
 4204.00    1.94038   1.07442    0.011
 4205.00    1.46982   1.08806    0.011
 4206.00    0.96982   1.10733    0.011
 4207.00    0.85503   1.12628    0.011
 4208.00    0.75445   1.14179    0.011
 4209.00    1.07131   1.15569    0.011
 4210.00    1.37346   1.16786    0.012
 4211.00    1.46164   1.17526    0.012
 4212.00    1.53883   1.17651    0.012
 4213.00    1.51208   1.17376    0.012
 4214.00    1.51031   1.17013    0.012
 4215.00    1.68022   1.16815    0.012
 4216.00    1.77116   1.16813    0.012
 4217.00    1.44246   1.16821    0.012
 4218.00    1.05524   1.17031    0.012
 4219.00    0.41812   1.17824    0.011
 4220.00    0.08757   1.18645    0.011
 4221.00    0.83712   1.18485    0.011
 4222.00    1.31876   1.17333    0.012
 4223.00    1.00701   1.15544    0.012
 4224.00    0.89216   1.12801    0.012
 4225.00    1.27420   1.09138    0.012
 4226.00    1.64270   1.05724    0.012
 4227.00    1.98176   1.03389    0.012
 4228.00    2.16533   1.01947    0.012
 4229.00    2.05565   1.01631    0.012
 4230.00    1.72075   1.03012    0.012
 4231.00    1.01505   1.05424    0.011
 4232.00    0.61997   1.07779    0.011
 4233.00    0.67331   1.09895    0.011
 4234.00    0.65336   1.11522    0.011
 4235.00    0.54037   1.12266    0.011
 4236.00    0.51803   1.12630    0.011
 4237.00    0.59713   1.12959    0.011
 4238.00    0.87073   1.13061    0.011
 4239.00    1.33625   1.13440    0.011
 4240.00    1.60508   1.14553    0.011
 4241.00    1.70273   1.15843    0.011
 4242.00    1.88028   1.17171    0.011
 4243.00    2.11908   1.18910    0.011
 4244.00    1.99514   1.20441    0.011
 4245.00    1.62674   1.21037    0.012
 4246.00    1.37632   1.21135    0.012
 4247.00    1.19555   1.20978    0.012
 4248.00    1.15127   1.19892    0.012
 4249.00    1.17726   1.17929    0.012
 4250.00    1.35070   1.16200    0.012
 4251.00    1.58994   1.14979    0.012
 4252.00    1.17616   1.13582    0.012
 4253.00    0.51199   1.12270    0.012
 4254.00    0.58623   1.11972    0.012
 4255.00    0.90112   1.12349    0.011
 4256.00    1.19342   1.12393    0.011
 4257.00    1.47955   1.12248    0.012
 4258.00    1.31016   1.12550    0.012
 4259.00    1.03868   1.13046    0.012
 4260.00    1.49504   1.13346    0.012
 4261.00    2.08158   1.13798    0.012
 4262.00    1.99538   1.14665    0.012
 4263.00    1.81715   1.15882    0.012
 4264.00    1.37393   1.17522    0.012
 4265.00    0.90484   1.19233    0.012
 4266.00    0.88706   1.20188    0.011
 4267.00    0.89689   1.20294    0.011
 4268.00    1.24417   1.19744    0.011
 4269.00    1.59771   1.17989    0.011
 4270.00    1.39521   1.15000    0.011
 4271.00    1.20004   1.11946    0.011
 4272.00    1.19901   1.09308    0.011
 4273.00    1.20936   1.06720    0.011
 4274.00    1.37620   1.04957    0.011
 4275.00    1.50292   1.05013    0.011
 4276.00    1.26514   1.06209    0.011
 4277.00    1.07880   1.07704    0.011
 4278.00    1.23512   1.09708    0.011
 4279.00    1.35208   1.12091    0.011
 4280.00    1.26528   1.14076    0.011
 4281.00    1.24219   1.15258    0.011
 4282.00    1.48510   1.15751   -2.000
 4283.00    1.70977   1.15744   -2.000
 4284.00    1.87147   1.15197   -2.000
 4285.00    1.96748   1.14208   -2.000
 4286.00    1.87250   1.13024   -2.000
 4287.00    1.67242   1.11520   -2.000
 4288.00    1.21163   1.09639   -2.000
 4289.00    0.88264   1.07976   -2.000
 4290.00    0.83542   1.06859   -2.000
 4291.00    0.78030   1.05876   -2.000
 4292.00    0.71053   1.04998   -2.000
 4293.00    0.66362   1.04680   -2.000
 4294.00    0.65382   1.04910   -2.000
 4295.00    0.75589   1.04952   -2.000
 4296.00    1.01711   1.04263   -2.000
 4297.00    1.18621   1.02998   -2.000
 4298.00    1.24003   1.01304    0.011
 4299.00    1.13932   0.99187    0.011
 4300.00    0.86818   0.96710    0.011
 4301.00    0.78345   0.94037    0.011
 4302.00    0.88011   0.91703    0.011
 4303.00    0.93626   0.90155    0.011
 4304.00    0.95764   0.88998    0.011
 4305.00    0.75022   0.87947    0.011
 4306.00    0.36988   0.87335    0.011
 4307.00    0.33235   0.87128    0.011
 4308.00    0.52247   0.87164    0.011
 4309.00    1.26378   0.87614    0.011
 4310.00    2.32562   0.88690    0.011
 4311.00    2.24369   0.90618    0.011
 4312.00    1.58211   0.93529    0.011
 4313.00    1.14476   0.97217    0.011
 4314.00    0.80582   1.01643    0.011
 4315.00    0.85796   1.06737    0.011
 4316.00    1.05743   1.11739    0.011
 4317.00    0.96409   1.16285    0.011
 4318.00    0.77714   1.20424    0.011
 4319.00    0.89195   1.23446    0.011
 4320.00    1.08740   1.24709    0.011
 4321.00    1.16289   1.24622    0.011
 4322.00    1.21212   1.23390    0.011
 4323.00    0.89788   1.20876    0.011
 4324.00    0.52040   1.17746    0.011
 4325.00    0.44233   1.14879    0.011
 4326.00    0.40385   1.12742    0.011
 4327.00    0.61488   1.11531    0.011
 4328.00    0.84921   1.11475    0.011
 4329.00    1.34773   1.12716    0.011
 4330.00    1.86136   1.14997    0.000
 4331.00    1.32107   1.17420    0.000
 4332.00    0.76047   1.19211    0.000
 4333.00    0.68468   1.20521    0.000
 4334.00    0.64145   1.21256    0.000
 4335.00    1.38026   1.20467    0.000
 4336.00    2.05810   1.18033    0.000
 4337.00    1.94230   1.15019    0.000
 4338.00    1.80681   1.11519    0.000
 4339.00    1.49912   1.07152    0.000
 4340.00    1.20954   1.03295    0.000
 4341.00    1.03681   1.01022    0.000
 4342.00    0.90788   0.99632    0.000
 4343.00    0.99990   0.99399    0.000
 4344.00    1.09121   1.01343    0.000
 4345.00    1.17964   1.04348    0.000
 4346.00    1.31624   1.07143    0.000
 4347.00    1.61584   1.10404    0.000
 4348.00    1.75901   1.13896    0.000
 4349.00    1.45583   1.16023    0.000
 4350.00    1.23974   1.16851    0.000
 4351.00    1.23597   1.17649   -1.000
 4352.00    1.22668   1.18187   -1.000
 4353.00    1.20577   1.17690   -1.000
 4354.00    1.21974   1.17168   -1.000
 4355.00    1.29750   1.17874   -1.000
 4356.00    1.41185   1.19088   -1.000
 4357.00    1.58468   1.19867   -1.000
 4358.00    1.67241   1.20979   -1.000
 4359.00    1.64085   1.22991   -1.000
 4360.00    1.59825   1.24893    0.048
 4361.00    1.54205   1.26098    0.015
 4362.00    1.57182   1.27394    0.011
 4363.00    1.69509   1.29113    0.011
 4364.00    1.57352   1.30419    0.011
 4365.00    1.21707   1.30828    0.011
 4366.00    1.17005   1.30943    0.011
 4367.00    1.38474   1.31028    0.011
 4368.00    1.43758   1.30437    0.011
 4369.00    1.36985   1.28941    0.011
 4370.00    1.46899   1.27388    0.011
 4371.00    1.67732   1.26172    0.011
 4372.00    1.63896   1.24694    0.011
 4373.00    1.45929   1.22941    0.011
 4374.00    1.31354   1.21650    0.011
 4375.00    1.18469   1.20896    0.011
 4376.00    1.33716   1.20200    0.011
 4377.00    1.61102   1.19583    0.011
 4378.00    1.43787   1.19212    0.011
 4379.00    1.09932   1.18846    0.011
 4380.00    1.08058   1.18044    0.011
 4381.00    1.16213   1.16396    0.011
 4382.00    1.10558   1.13937    0.011
 4383.00    1.01291   1.11405    0.011
 4384.00    1.00256   1.09104    0.011
 4385.00    1.00978   1.06771    0.011
 4386.00    0.86887   1.05003    0.011
 4387.00    0.70291   1.04824    0.011
 4388.00    1.15623   1.05890    0.011
 4389.00    1.68867   1.07118    0.011
 4390.00    1.54658   1.08662    0.011
 4391.00    1.34431   1.10926    0.011
 4392.00    1.58950   1.13140    0.011
 4393.00    1.85852   1.14727    0.011
 4394.00    1.98124   1.16260    0.011
 4395.00    2.09368   1.17995    0.011
 4396.00    1.60356   1.19347    0.011
 4397.00    1.13948   1.20256    0.011
 4398.00    1.24801   1.21156    0.011
 4399.00    1.35461   1.21660    0.011
 4400.00    1.43744   1.21453    0.011
 4401.00    1.48914   1.20923    0.011
 4402.00    1.27910   1.19776    0.011
 4403.00    1.09430   1.17940    0.011
 4404.00    1.06767   1.16513    0.011
 4405.00    1.05624   1.15519    0.011
 4406.00    1.11955   1.14020    0.011
 4407.00    1.21021   1.13045    0.011
 4408.00    1.41002   1.13879    0.011
 4409.00    1.60139   1.15249    0.011
 4410.00    1.76478   1.16200    0.011
 4411.00    1.95395   1.17887    0.011
 4412.00    2.21533   1.20217    0.011
 4413.00    2.19866   1.21534    0.011
 4414.00    1.51559   1.22048    0.011
 4415.00    1.12509   1.22796    0.011
 4416.00    1.34014   1.23061    0.011
 4417.00    1.43858   1.22658    0.011
 4418.00    1.32713   1.22886    0.011
 4419.00    1.28629   1.23618    0.011
 4420.00    1.35661   1.23967    0.011
 4421.00    1.45205   1.24308    0.011
 4422.00    1.58220   1.25010    0.011
 4423.00    1.35741   1.25453    0.011
 4424.00    0.70089   1.25304    0.011
 4425.00    0.51493   1.25083    0.011
 4426.00    0.83355   1.25075    0.011
 4427.00    1.15654   1.25000    0.011
 4428.00    1.48369   1.24631    0.011
 4429.00    1.63945   1.24135    0.011
 4430.00    1.65229   1.23953    0.011
 4431.00    1.66372   1.23755    0.011
 4432.00    1.67411   1.22947    0.011
 4433.00    1.65421   1.22132    0.011
 4434.00    1.61478   1.21838    0.011
 4435.00    1.48702   1.21661    0.011
 4436.00    1.30942   1.21486    0.011
 4437.00    1.38453   1.21755    0.011
 4438.00    1.58370   1.22603    0.011
 4439.00    1.33771   1.23567    0.011
 4440.00    0.90284   1.24314    0.011
 4441.00    0.86582   1.24916    0.011
 4442.00    0.97340   1.25317    0.011
 4443.00    1.33450   1.25556    0.011
 4444.00    1.77355   1.25874    0.011
 4445.00    1.69418   1.26205    0.011
 4446.00    1.48208   1.26655    0.011
 4447.00    1.49723   1.27665    0.011
 4448.00    1.55974   1.28645    0.011
 4449.00    1.43439   1.28904    0.011
 4450.00    1.27817   1.29117    0.011
 4451.00    1.40861   1.29183    0.011
 4452.00    1.57438   1.28151    0.011
 4453.00    1.72596   1.26390    0.011
 4454.00    1.87633   1.24599    0.011
 4455.00    1.57974   1.22638    0.011
 4456.00    1.26109   1.20292    0.011
 4457.00    1.40203   1.17976    0.011
 4458.00    1.54500   1.16374    0.011
 4459.00    1.35717   1.15364    0.011
 4460.00    1.18805   1.14374    0.010
 4461.00    1.39779   1.13899    0.000
 4462.00    1.58419   1.14530    0.000
 4463.00    1.49620   1.15295    0.000
 4464.00    1.39326   1.15908    0.000
 4465.00    1.16915   1.17279    0.000
 4466.00    1.08717   1.18856    0.000
 4467.00    1.87015   1.19815    0.000
 4468.00    2.41472   1.20717    0.000
 4469.00    1.81546   1.21978    0.000
 4470.00    1.36021   1.23084    0.000
 4471.00    1.46736   1.24012    0.000
 4472.00    1.59525   1.25422    0.000
 4473.00    1.79056   1.27154    0.000
 4474.00    1.90224   1.28702    0.000
 4475.00    1.78382   1.30270    0.000
 4476.00    1.69047   1.31834    0.000
 4477.00    1.65618   1.32728    0.000
 4478.00    1.65928   1.32917    0.000
 4479.00    1.73855   1.32789    0.000
 4480.00    1.82489   1.32186    0.000
 4481.00    1.92376   1.31126    0.000
 4482.00    1.93093   1.30203    0.010
 4483.00    1.79587   1.29631    0.010
 4484.00    1.66529   1.29379    0.010
 4485.00    1.54082   1.29651    0.010
 4486.00    1.42577   1.30179    0.010
 4487.00    1.32202   1.30523    0.010
 4488.00    1.40139   1.30697    0.010
 4489.00    1.67435   1.30633    0.010
 4490.00    1.85017   1.30138    0.011
 4491.00    1.93539   1.29388    0.010
 4492.00    1.85868   1.28597    0.010
 4493.00    1.64884   1.27819    0.010
 4494.00    1.58950   1.27348    0.010
 4495.00    1.63907   1.27152    0.010
 4496.00    1.55180   1.27034    0.010
 4497.00    1.37761   1.27408    0.010
 4498.00    1.39319   1.28371    0.010
 4499.00    1.51418   1.29517    0.010
 4500.00    1.60750   1.30785    0.010
 4501.00    1.68746   1.32504    0.010
 4502.00    1.80739   1.34477    0.010
 4503.00    1.94400   1.36049    0.010
 4504.00    1.94897   1.37562    0.010
 4505.00    1.90695   1.39291    0.010
 4506.00    1.67875   1.40501    0.010
 4507.00    1.39440   1.41088    0.010
 4508.00    1.39871   1.41505    0.010
 4509.00    1.47532   1.41614    0.010
 4510.00    1.35472   1.41179    0.010
 4511.00    1.19402   1.40464    0.010
 4512.00    1.05804   1.39694    0.010
 4513.00    0.92599   1.38676    0.010
 4514.00    1.33570   1.37480    0.010
 4515.00    1.80979   1.36481    0.010
 4516.00    1.89548   1.35535    0.010
 4517.00    1.94975   1.34668    0.010
 4518.00    1.54611   1.34252    0.010
 4519.00    1.12165   1.33975    0.010
 4520.00    1.09215   1.33628    0.010
 4521.00    1.06968   1.33282    0.010
 4522.00    1.15907   1.32774    0.010
 4523.00    1.26133   1.32019    0.010
 4524.00    1.60498   1.30600    0.010
 4525.00    1.87679   1.28663    0.010
 4526.00    1.34383   1.26730    0.010
 4527.00    0.92406   1.24501    0.010
 4528.00    1.39011   1.22151    0.010
 4529.00    1.77411   1.20249    0.010
 4530.00    1.67298   1.18764    0.010
 4531.00    1.54317   1.17822    0.010
 4532.00    1.27905   1.17497    0.010
 4533.00    1.10768   1.17591    0.010
 4534.00    1.29078   1.18256    0.010
 4535.00    1.40747   1.19417    0.010
 4536.00    1.31241   1.20824    0.010
 4537.00    1.23085   1.22300    0.010
 4538.00    1.18574   1.23970    0.010
 4539.00    1.14338   1.25795    0.010
 4540.00    1.10737   1.27123    0.010
 4541.00    1.13807   1.28066    0.010
 4542.00    1.30250   1.28866    0.010
 4543.00    1.42154   1.29080    0.010
 4544.00    1.46131   1.28936    0.010
 4545.00    1.41407   1.28817    0.010
 4546.00    1.23387   1.28350    0.010
 4547.00    1.15769   1.27573    0.010
 4548.00    1.22116   1.26888    0.010
 4549.00    1.13409   1.26378    0.010
 4550.00    0.86907   1.25864    0.000
 4551.00    0.81382   1.25141    0.000
 4552.00    0.97723   1.24826    0.000
 4553.00    1.08338   1.25028    0.000
 4554.00    1.13688   1.25066    0.000
 4555.00    1.30468   1.25442    0.000
 4556.00    1.56512   1.26456    0.000
 4557.00    1.63890   1.27505    0.000
 4558.00    1.57958   1.28720    0.000
 4559.00    1.53973   1.30191    0.000
 4560.00    1.51208   1.31436    0.000
 4561.00    1.43021   1.32374    0.000
 4562.00    1.31867   1.32922    0.000
 4563.00    1.10554   1.33083    0.000
 4564.00    0.84411   1.33038    0.000
 4565.00    0.91843   1.32748    0.000
 4566.00    1.13044   1.32444    0.000
 4567.00    1.26140   1.32258    0.000
 4568.00    1.36396   1.32309    0.000
 4569.00    1.38104   1.32687    0.000
 4570.00    1.37286   1.32814    0.000
 4571.00    1.50610   1.32965    0.000
 4572.00    1.67398   1.33547    0.000
 4573.00    1.41721   1.33552    0.000
 4574.00    1.07627   1.33284    0.000
 4575.00    1.24888   1.33581    0.000
 4576.00    1.50098   1.33430    0.000
 4577.00    1.58213   1.32666    0.000
 4578.00    1.64372   1.32033    0.000
 4579.00    1.43425   1.31181    0.000
 4580.00    1.20396   1.29977    0.000
 4581.00    1.35242   1.28798    0.000
 4582.00    1.51665   1.27649    0.000
 4583.00    1.88902   1.26775    0.000
 4584.00    2.24311   1.26379    0.000
 4585.00    1.73446   1.26162    0.000
 4586.00    1.25115   1.26312    0.000
 4587.00    1.21046   1.26915    0.000
 4588.00    1.17753   1.27516    0.000
 4589.00    1.22757   1.28143    0.000
 4590.00    1.28806   1.28715    0.000
 4591.00    1.42750   1.28964    0.000
 4592.00    1.55615   1.28975    0.000
 4593.00    1.62273   1.28649    0.000
 4594.00    1.57086   1.28031    0.000
 4595.00    0.97775   1.27527    0.000
 4596.00    0.61296   1.26974    0.000
 4597.00    1.10236   1.26375    0.000
 4598.00    1.50752   1.26174    0.000
 4599.00    1.64923   1.26014    0.000
 4600.00    1.61773   1.25914    0.000
 4601.00    1.12649   1.26248    0.000
 4602.00    0.82910   1.26455    0.000
 4603.00    0.97344   1.26730    0.000
 4604.00    1.02551   1.27449    0.000
 4605.00    0.89551   1.28205    0.000
 4606.00    0.85056   1.29093    0.000
 4607.00    0.95182   1.30268    0.000
 4608.00    1.03805   1.31565    0.000
 4609.00    1.10165   1.32792    0.000
 4610.00    1.23206   1.33970    0.000
 4611.00    1.45086   1.35029    0.000
 4612.00    1.62751   1.35576    0.000
 4613.00    1.75504   1.35923    0.000
 4614.00    1.76629   1.36258    0.000
 4615.00    1.65806   1.36092    0.000
 4616.00    1.51260   1.36049    0.000
 4617.00    1.33338   1.36275    0.000
 4618.00    1.25055   1.35982    0.000
 4619.00    1.24472   1.36005    0.000
 4620.00    1.20222   1.36403    0.000
 4621.00    1.13395   1.36148    0.000
 4622.00    1.08160   1.36102    0.000
 4623.00    1.03906   1.36519    0.000
 4624.00    0.93206   1.36291    0.000
 4625.00    0.79034   1.35967    0.000
 4626.00    0.71773   1.36117    0.000
 4627.00    0.67745   1.35879    0.000
 4628.00    0.67507   1.35299    0.000
 4629.00    0.68797   1.35123    0.000
 4630.00    0.95725   1.34985    0.000
 4631.00    1.31474   1.34344    0.000
 4632.00    1.33965   1.33737    0.000
 4633.00    1.26824   1.33423    0.000
 4634.00    1.23553   1.32714    0.000
 4635.00    1.21208   1.31655    0.000
 4636.00    1.12560   1.30770    0.000
 4637.00    1.02695   1.29937    0.000
 4638.00    1.30712   1.28953    0.000
 4639.00    1.64416   1.27926    0.000
 4640.00    1.92727   1.27242    0.000
 4641.00    2.20444   1.26696    0.000
 4642.00    2.31864   1.25836    0.000
 4643.00    2.42100   1.25250    0.000
 4644.00    1.69369   1.24792    0.000
 4645.00    0.93502   1.23786    0.000
 4646.00    0.90865   1.22945    0.000
 4647.00    0.88916   1.22434    0.000
 4648.00    0.98596   1.21751    0.000
 4649.00    1.10633   1.21487    0.000
 4650.00    1.61206   1.21763    0.000
 4651.00    2.03986   1.22244    0.000
 4652.00    1.67005   1.23087    0.000
 4653.00    1.32696   1.23967    0.000
 4654.00    1.17913   1.24869    0.000
 4655.00    1.05747   1.25933    0.000
 4656.00    1.08202   1.26684    0.000
 4657.00    1.08526   1.27459    0.000
 4658.00    0.99340   1.28412    0.000
 4659.00    0.95389   1.29062    0.000
 4660.00    1.10611   1.29638    0.000
 4661.00    1.24989   1.30014    0.000
 4662.00    1.36780   1.29693    0.000
 4663.00    1.46305   1.28877    0.000
 4664.00    1.49920   1.27655    0.000
 4665.00    1.44018   1.25775    0.000
 4666.00    1.16785   1.23684    0.000
 4667.00    1.14182   1.21952    0.000
 4668.00    1.59411   1.20333    0.000
 4669.00    1.72335   1.19034    0.000
 4670.00    1.30548   1.18767    0.000
 4671.00    0.98575   1.19175    0.000
 4672.00    0.81165   1.19864    0.000
 4673.00    0.86118   1.21075    0.000
 4674.00    1.20241   1.22439    0.000
 4675.00    1.33831   1.23622    0.000
 4676.00    1.23829   1.24607    0.000
 4677.00    1.19978   1.25196    0.000
 4678.00    1.22361   1.25546    0.000
 4679.00    1.30735   1.25612    0.000
 4680.00    1.44463   1.25236    0.000
 4681.00    1.40466   1.24900    0.000
 4682.00    1.22508   1.24755    0.000
 4683.00    1.23433   1.24462    0.000
 4684.00    1.37438   1.24312    0.000
 4685.00    1.38097   1.24595    0.000
 4686.00    1.30648   1.24757    0.000
 4687.00    1.31977   1.24777    0.000
 4688.00    1.37959   1.25089    0.000
 4689.00    1.48692   1.25210    0.000
 4690.00    1.61610   1.25042    0.000
 4691.00    1.39380   1.25162    0.000
 4692.00    1.03224   1.25255    0.000
 4693.00    1.17151   1.25107    0.000
 4694.00    1.47988   1.25193    0.000
 4695.00    1.39761   1.25330    0.000
 4696.00    1.20449   1.25147    0.000
 4697.00    1.10537   1.24832    0.000
 4698.00    1.02827   1.24454    0.000
 4699.00    0.80519   1.23800    0.000
 4700.00    0.55465   1.22850    0.000
 4701.00    0.77391   1.21927    0.000
 4702.00    1.06149   1.21123    0.000
 4703.00    0.99553   1.20357    0.000
 4704.00    0.89219   1.19778    0.000
 4705.00    1.25419   1.19400    0.000
 4706.00    1.64815   1.19282    0.000
 4707.00    1.28550   1.19404    0.000
 4708.00    0.89712   1.19484    0.000
 4709.00    1.24326   1.19732    0.000
 4710.00    1.57684   1.20270    0.000
 4711.00    1.46512   1.20695    0.000
 4712.00    1.34475   1.21225    0.000
 4713.00    1.09163   1.22006    0.000
 4714.00    0.86549   1.22728    0.000
 4715.00    0.90379   1.23662    0.000
 4716.00    0.97457   1.24717    0.000
 4717.00    1.27495   1.25761    0.000
 4718.00    1.50921   1.27146    0.000
 4719.00    1.38382   1.28451    0.000
 4720.00    1.26753   1.29527    0.000
 4721.00    1.19096   1.30676    0.000
 4722.00    1.20295   1.31489    0.000
 4723.00    1.53265   1.31775    0.000
 4724.00    1.74438   1.31726    0.000
 4725.00    1.60098   1.31268    0.000
 4726.00    1.36284   1.30278    0.000
 4727.00    0.88191   1.28947    0.000
 4728.00    0.70314   1.27534    0.000
 4729.00    1.19043   1.25915    0.000
 4730.00    1.45381   1.24394    0.000
 4731.00    1.28912   1.23459    0.000
 4732.00    1.28245   1.22691    0.000
 4733.00    1.53937   1.22233    0.000
 4734.00    1.71700   1.22636    0.000
 4735.00    1.77871   1.23073    0.000
 4736.00    1.64872   1.23472    0.000
 4737.00    1.27224   1.24539    0.000
 4738.00    1.20654   1.25326    0.000
 4739.00    1.49288   1.25766    0.000
 4740.00    1.60912   1.26715    0.000
 4741.00    1.55541   1.27403    0.000
 4742.00    1.44634   1.27769    0.000
 4743.00    1.28848   1.28421    0.000
 4744.00    1.12770   1.28928    0.000
 4745.00    0.96467   1.29356    0.000
 4746.00    0.97681   1.29828    0.000
 4747.00    1.10852   1.30059    0.000
 4748.00    1.34740   1.30354    0.000
 4749.00    1.65040   1.30574    0.000
 4750.00    1.86157   1.30354    0.000
 4751.00    2.02481   1.30090    0.000
 4752.00    1.80734   1.29795    0.000
 4753.00    1.41754   1.29126    0.000
 4754.00    1.42100   1.28386    0.000
 4755.00    1.57759   1.27781    0.000
 4756.00    1.69031   1.27124    0.000
 4757.00    1.78850   1.26483    0.000
 4758.00    2.00186   1.25974    0.000
 4759.00    2.24723   1.25554    0.000
 4760.00    2.13103   1.25012    0.000
 4761.00    1.93211   1.24308    0.010
 4762.00    1.57358   1.23674    0.010
 4763.00    1.18582   1.22873    0.010
 4764.00    1.20339   1.21838    0.010
 4765.00    1.27804   1.21114    0.010
 4766.00    1.21506   1.20655    0.009
 4767.00    1.13812   1.20232    0.009
 4768.00    1.49512   1.20319    0.009
 4769.00    1.88017   1.20963    0.010
 4770.00    1.83724   1.21662    0.010
 4771.00    1.78132   1.22602    0.010
 4772.00    1.70167   1.23864    0.010
 4773.00    1.62109   1.25027    0.010
 4774.00    1.51366   1.26081    0.010
 4775.00    1.42975   1.27092    0.009
 4776.00    1.68567   1.28037    0.010
 4777.00    1.89439   1.28735    0.010
 4778.00    1.65914   1.29041    0.010
 4779.00    1.42567   1.29246    0.009
 4780.00    1.20445   1.29268    0.009
 4781.00    1.02729   1.28777    0.009
 4782.00    1.08350   1.28020    0.009
 4783.00    1.09266   1.27404    0.009
 4784.00    0.90140   1.26619    0.009
 4785.00    0.76093   1.25457    0.009
 4786.00    0.79899   1.24808    0.009
 4787.00    0.83361   1.24508    0.009
 4788.00    0.85807   1.23826    0.009
 4789.00    0.91260   1.23793    0.009
 4790.00    1.04285   1.24385    0.009
 4791.00    1.10786   1.24669    0.009
 4792.00    1.03143   1.25423    0.009
 4793.00    0.97335   1.26653    0.009
 4794.00    0.94982   1.27519    0.009
 4795.00    1.02360   1.28384    0.009
 4796.00    1.25727   1.29283    0.009
 4797.00    1.38101   1.29708    0.009
 4798.00    1.34638   1.29812    0.009
 4799.00    1.29739   1.29800    0.009
 4800.00    1.23021   1.29545    0.009
 4801.00    1.19470   1.29142    0.009
 4802.00    1.19457   1.28812    0.009
 4803.00    1.31671   1.28467    0.009
 4804.00    1.55929   1.28059    0.009
 4805.00    1.67936   1.27792    0.009
 4806.00    1.69300   1.27436    0.009
 4807.00    1.59097   1.26929    0.009
 4808.00    1.40043   1.26687    0.009
 4809.00    1.35059   1.26439    0.009
 4810.00    1.39540   1.26148    0.009
 4811.00    1.39048   1.26252    0.009
 4812.00    1.35627   1.26501    0.009
 4813.00    1.34259   1.26789    0.009
 4814.00    1.33948   1.27320    0.009
 4815.00    1.31474   1.27968    0.009
 4816.00    1.28038   1.28574    0.009
 4817.00    1.29522   1.29152    0.009
 4818.00    1.32887   1.29719    0.009
 4819.00    1.45035   1.29994    0.009
 4820.00    1.60039   1.30026    0.009
 4821.00    1.57008   1.29977    0.009
 4822.00    1.49067   1.29426    0.009
 4823.00    1.27103   1.28700    0.009
 4824.00    1.02007   1.28117    0.009
 4825.00    1.13837   1.27200    0.009
 4826.00    1.32249   1.26418    0.009
 4827.00    1.22759   1.25954    0.009
 4828.00    1.09467   1.25369    0.009
 4829.00    0.97891   1.25060    0.009
 4830.00    0.86481   1.24872    0.009
 4831.00    1.10591   1.24536    0.009
 4832.00    1.36854   1.24488    0.009
 4833.00    1.25725   1.24448    0.009
 4834.00    1.13759   1.24234    0.009
 4835.00    1.29581   1.24200    0.009
 4836.00    1.44420   1.24209    0.009
 4837.00    1.33614   1.24049    0.009
 4838.00    1.23486   1.23798    0.009
 4839.00    1.22608   1.23544    0.009
 4840.00    1.20929   1.23279    0.009
 4841.00    1.12007   1.22900    0.009
 4842.00    1.04310   1.22487    0.009
 4843.00    1.04745   1.22322    0.009
 4844.00    1.06163   1.22212    0.009
 4845.00    1.12661   1.22005    0.009
 4846.00    1.18960   1.22045    0.009
 4847.00    1.24434   1.22004    0.009
 4848.00    1.28107   1.21738    0.000
 4849.00    1.25576   1.21619    0.000
 4850.00    1.30535   1.21138    0.000
 4851.00    1.57214   1.20302    0.000
 4852.00    1.64629   1.19595    0.000
 4853.00    1.24367   1.18408    0.000
 4854.00    0.92309   1.16686    0.000
 4855.00    0.77752   1.15061    0.000
 4856.00    0.82837   1.13094    0.000
 4857.00    1.24320   1.10547    0.000
 4858.00    1.39355   1.08170    0.000
 4859.00    1.11577   1.05831    0.000
 4860.00    1.05877   1.03217    0.000
 4861.00    1.31530   1.01282    0.000
 4862.00    1.35135   1.00036    0.000
 4863.00    1.11196   0.98954    0.000
 4864.00    0.90444   0.98907    0.000
 4865.00    0.73203   0.99801    0.000
 4866.00    0.85755   1.00802    0.000
 4867.00    1.27243   1.02234    0.000
 4868.00    1.42988   1.04050    0.000
 4869.00    1.36684   1.05530    0.000
 4870.00    1.22353   1.06571    0.000
 4871.00    1.01966   1.07633    0.000
 4872.00    0.98415   1.08585    0.000
 4873.00    1.06025   1.09133    0.000
 4874.00    1.14536   1.09825    0.000
 4875.00    1.23569   1.10933    0.010
 4876.00    1.12830   1.12012    0.010
 4877.00    0.92091   1.13076    0.009
 4878.00    1.11603   1.14554    0.010
 4879.00    1.48742   1.15908    0.010
 4880.00    1.51200   1.16679    0.010
 4881.00    1.40623   1.17494    0.010
 4882.00    1.31849   1.18039    0.010
 4883.00    1.23650   1.17820    0.010
 4884.00    1.34192   1.17420    0.010
 4885.00    1.49728   1.16882    0.010
 4886.00    1.37885   1.16013    0.010
 4887.00    1.20068   1.15097    0.010
 4888.00    1.39921   1.14416    0.010
 4889.00    1.66304   1.13908    0.010
 4890.00    1.61175   1.13535    0.010
 4891.00    1.51896   1.13919    0.010
 4892.00    1.53507   1.14787    0.010
 4893.00    1.56130   1.15786    0.010
 4894.00    1.15747   1.17572    0.010
 4895.00    0.72926   1.19516    0.010
 4896.00    0.88405   1.21241    0.010
 4897.00    1.05214   1.23194    0.010
 4898.00    1.22093   1.24601    0.010
 4899.00    1.39395   1.25392    0.010
 4900.00    1.66753   1.26127    0.010
 4901.00    1.89845   1.26259    0.010
 4902.00    1.57773   1.25896    0.010
 4903.00    1.28213   1.25659    0.009
 4904.00    1.20494   1.25309    0.010
 4905.00    1.14280   1.24826    0.010
 4906.00    1.17750   1.24390    0.010
 4907.00    1.18896   1.23964    0.010
 4908.00    1.08354   1.23514    0.010
 4909.00    1.02659   1.22905    0.009
 4910.00    1.16697   1.22334    0.009
 4911.00    1.30103   1.21880    0.009
 4912.00    1.41382   1.21320    0.009
 4913.00    1.43074   1.20851    0.009
 4914.00    1.17473   1.20516    0.009
 4915.00    1.07976   1.20019    0.009
 4916.00    1.37654   1.19333    0.009
 4917.00    1.55415   1.18415    0.009
 4918.00    1.48159   1.17202    0.009
 4919.00    1.36242   1.15780    0.009
 4920.00    1.15822   1.14308    0.009
 4921.00    0.99705   1.13112    0.009
 4922.00    0.90453   1.12261    0.009
 4923.00    0.93572   1.11812    0.009
 4924.00    1.14005   1.12163    0.009
 4925.00    1.20352   1.13240    0.009
 4926.00    1.09352   1.14560    0.009
 4927.00    1.09485   1.16263    0.009
 4928.00    1.21703   1.18319    0.009
 4929.00    1.28379   1.19953    0.009
 4930.00    1.29750   1.21335    0.009
 4931.00    1.35909   1.22560    0.009
 4932.00    1.46112   1.22849    0.009
 4933.00    1.40324   1.22726    0.009
 4934.00    1.22647   1.22508    0.009
 4935.00    1.15289   1.21553    0.009
 4936.00    1.14669   1.20460    0.009
 4937.00    1.10371   1.19570    0.009
 4938.00    1.03969   1.18591    0.009
 4939.00    1.02739   1.18116    0.009
 4940.00    1.04085   1.18110    0.000
 4941.00    1.25383   1.18229    0.000
 4942.00    1.55272   1.19006    0.000
 4943.00    1.52547   1.20207    0.000
 4944.00    1.37780   1.21267    0.000
 4945.00    1.21333   1.22524    0.000
 4946.00    1.04360   1.23891    0.000
 4947.00    1.19639   1.24909    0.000
 4948.00    1.43333   1.25706    0.000
 4949.00    1.54335   1.26340    0.000
 4950.00    1.62635   1.26686    0.000
 4951.00    1.57468   1.26677    0.000
 4952.00    1.50033   1.26326    0.000
 4953.00    1.23361   1.25646    0.000
 4954.00    0.94242   1.24711    0.000
 4955.00    0.91686   1.23555    0.000
 4956.00    0.91487   1.21929    0.000
 4957.00    1.07341   1.20513    0.000
 4958.00    1.24042   1.19647    0.000
 4959.00    1.21134   1.18643    0.000
 4960.00    1.18038   1.18068    0.000
 4961.00    1.29606   1.18090    0.000
 4962.00    1.40624   1.18272    0.000
 4963.00    1.39670   1.18665    0.000
 4964.00    1.37841   1.18885    0.000
 4965.00    1.25278   1.19089    0.000
 4966.00    1.14620   1.19313    0.000
 4967.00    1.19915   1.19144    0.000
 4968.00    1.23745   1.19045    0.000
 4969.00    1.18432   1.19022    0.000
 4970.00    1.16018   1.19021    0.000
 4971.00    1.27823   1.19329    0.000
 4972.00    1.36588   1.19612    0.000
 4973.00    1.33250   1.20028    0.000
 4974.00    1.31809   1.20477    0.000
 4975.00    1.36640   1.20587    0.000
 4976.00    1.35950   1.20579    0.000
 4977.00    1.19828   1.20105    0.000
 4978.00    1.10384   1.19176    0.000
 4979.00    1.16909   1.18098    0.000
 4980.00    1.19459   1.16581    0.000
 4981.00    1.13798   1.14801    0.000
 4982.00    1.14530   1.13184    0.000
 4983.00    1.26751   1.11825    0.000
 4984.00    1.37536   1.10683    0.000
 4985.00    1.46066   1.09999    0.000
 4986.00    1.42371   1.10003    0.000
 4987.00    1.21814   1.10320    0.000
 4988.00    1.17838   1.11002    0.000
 4989.00    1.33994   1.12019    0.000
 4990.00    1.34925   1.12917    0.000
 4991.00    1.19560   1.14002    0.000
 4992.00    1.20532   1.14883    0.000
 4993.00    1.36929   1.15279    0.000
 4994.00    1.39150   1.15881    0.000
 4995.00    1.29570   1.16083    0.000
 4996.00    1.32561   1.15873    0.000
 4997.00    1.44764   1.15780    0.000
 4998.00    1.36778   1.15178    0.000
 4999.00    1.15800   1.14391    0.000
 5000.00    0.96196   1.13616    0.000
 5001.00    0.77366   1.12439    0.000
 5002.00    1.02406   1.11342    0.000
 5003.00    1.48939   1.10330    0.000
 5004.00    1.64790   1.09196    0.000
 5005.00    1.67650   1.08280    0.000
 5006.00    1.51509   1.07672    0.000
 5007.00    1.28478   1.07298    0.000
 5008.00    1.32286   1.06987    0.000
 5009.00    1.44327   1.06804    0.000
 5010.00    1.39185   1.06776    0.000
 5011.00    1.29656   1.06554    0.000
 5012.00    1.11360   1.06280    0.000
 5013.00    0.91243   1.05880    0.000
 5014.00    1.05040   1.05366    0.000
 5015.00    1.24389   1.05035    0.000
 5016.00    1.21698   1.04535    0.000
 5017.00    1.16303   1.04144    0.000
 5018.00    1.20093   1.04201    0.000
 5019.00    1.24659   1.04335    0.000
 5020.00    1.36498   1.04632    0.000
 5021.00    1.48692   1.05069    0.000
 5022.00    1.41005   1.05711    0.000
 5023.00    1.32876   1.06528    0.000
 5024.00    1.16492   1.07186    0.000
 5025.00    1.00543   1.07997    0.000
 5026.00    0.93305   1.08746    0.000
 5027.00    0.87483   1.09450    0.000
 5028.00    0.98209   1.10444    0.000
 5029.00    1.08498   1.11132    0.009
 5030.00    1.15258   1.11844    0.009
 5031.00    1.22274   1.12742    0.009
 5032.00    1.30849   1.13294    0.009
 5033.00    1.36282   1.13768    0.009
 5034.00    1.26697   1.13826    0.009
 5035.00    1.14859   1.13392    0.009
 5036.00    0.94250   1.12995    0.009
 5037.00    0.79868   1.12018    0.009
 5038.00    0.85684   1.10646    0.009
 5039.00    0.93749   1.09468    0.009
 5040.00    1.07992   1.08135    0.009
 5041.00    1.19329   1.07307    0.009
 5042.00    1.23837   1.07026    0.009
 5043.00    1.23232   1.06819    0.009
 5044.00    1.12236   1.07409    0.009
 5045.00    1.10975   1.08412    0.009
 5046.00    1.26939   1.09317    0.009
 5047.00    1.38276   1.10296    0.009
 5048.00    1.42451   1.11050    0.009
 5049.00    1.33103   1.11666    0.009
 5050.00    1.05370   1.12055    0.009
 5051.00    0.89481   1.12113    0.009
 5052.00    0.87767   1.12264    0.009
 5053.00    0.92604   1.12541    0.009
 5054.00    1.04353   1.12933    0.009
 5055.00    1.14036   1.13497    0.009
 5056.00    1.21795   1.14246    0.009
 5057.00    1.24615   1.15245    0.009
 5058.00    1.23383   1.16141    0.009
 5059.00    1.31831   1.16890    0.009
 5060.00    1.47271   1.17580    0.009
 5061.00    1.41955   1.17907    0.009
 5062.00    1.23479   1.17940    0.009
 5063.00    1.07747   1.17533    0.009
 5064.00    0.93536   1.16781    0.009
 5065.00    0.75219   1.16103    0.009
 5066.00    0.54921   1.15097    0.009
 5067.00    0.68307   1.13948    0.009
 5068.00    0.95715   1.13102    0.009
 5069.00    1.03757   1.12407    0.009
 5070.00    1.04902   1.11823    0.009
 5071.00    1.16655   1.11266    0.009
 5072.00    1.31597   1.10980    0.009
 5073.00    1.15034   1.10896    0.009
 5074.00    0.90601   1.10594    0.009
 5075.00    0.88753   1.10222    0.009
 5076.00    0.91481   1.09866    0.009
 5077.00    1.03217   1.09387    0.009
 5078.00    1.16384   1.08575    0.009
 5079.00    1.19455   1.07687    0.009
 5080.00    1.21332   1.07049    0.009
 5081.00    1.16321   1.06448    0.009
 5082.00    1.10756   1.05897    0.009
 5083.00    1.17922   1.05690    0.009
 5084.00    1.25660   1.05951    0.009
 5085.00    1.21234   1.06501    0.009
 5086.00    1.17122   1.07174    0.009
 5087.00    1.35815   1.08085    0.009
 5088.00    1.54573   1.09256    0.009
 5089.00    1.74532   1.10397    0.009
 5090.00    1.89695   1.11330    0.009
 5091.00    1.51436   1.12198    0.009
 5092.00    1.17600   1.12924    0.009
 5093.00    1.18235   1.13303    0.009
 5094.00    1.20003   1.13370    0.009
 5095.00    1.28444   1.13148    0.009
 5096.00    1.31294   1.12682    0.009
 5097.00    1.08049   1.11966    0.008
 5098.00    0.89080   1.11006    0.008
 5099.00    0.86415   1.10193    0.008
 5100.00    0.82027   1.09524    0.008
 5101.00    0.72155   1.08850    0.008
 5102.00    0.65828   1.08414    0.008
 5103.00    0.69057   1.08152    0.008
 5104.00    0.77740   1.08043    0.008
 5105.00    0.99028   1.08046    0.008
 5106.00    1.09772   1.07855    0.008
 5107.00    0.99419   1.07768    0.008
 5108.00    0.94528   1.07824    0.008
 5109.00    0.99154   1.07638    0.008
 5110.00    1.00169   1.07684    0.008
 5111.00    0.95677   1.07947    0.008
 5112.00    1.03348   1.08202    0.008
 5113.00    1.27315   1.08876    0.009
 5114.00    1.45080   1.09567    0.009
 5115.00    1.55526   1.10277    0.009
 5116.00    1.47631   1.11215    0.009
 5117.00    1.20652   1.11793    0.009
 5118.00    0.98776   1.12183    0.009
 5119.00    0.81585   1.12385    0.009
 5120.00    0.82501   1.12064    0.008
 5121.00    0.98067   1.11513    0.009
 5122.00    1.17901   1.10565    0.009
 5123.00    1.40773   1.09317    0.009
 5124.00    1.37915   1.08150    0.009
 5125.00    1.18985   1.06890    0.009
 5126.00    1.09832   1.05728    0.009
 5127.00    1.06018   1.04838    0.009
 5128.00    0.94492   1.04180    0.009
 5129.00    0.79308   1.03936    0.009
 5130.00    0.79908   1.03978    0.009
 5131.00    0.86968   1.04195    0.009
 5132.00    0.97817   1.04644    0.009
 5133.00    1.09992   1.05156    0.009
 5134.00    0.95237   1.05774    0.009
 5135.00    0.72541   1.06219    0.009
 5136.00    0.75376   1.06371    0.009
 5137.00    0.84448   1.06551    0.009
 5138.00    0.95539   1.06354    0.009
 5139.00    1.07030   1.06110    0.009
 5140.00    1.30576   1.05860    0.009
 5141.00    1.55982   1.05093    0.009
 5142.00    1.29977   1.04661    0.009
 5143.00    0.98118   1.04392    0.009
 5144.00    0.71294   1.03836    0.009
 5145.00    0.44855   1.03558    0.009
 5146.00    0.73763   1.03256    0.009
 5147.00    1.04949   1.02991    0.009
 5148.00    1.11837   1.03058    0.009
 5149.00    1.18217   1.02892    0.009
 5150.00    1.11680   1.02710    0.009
 5151.00    1.04894   1.02882    0.009
 5152.00    0.93800   1.03007    0.009
 5153.00    0.84161   1.03198    0.009
 5154.00    0.90015   1.03649    0.009
 5155.00    0.96051   1.04142    0.009
 5156.00    1.03464   1.04812    0.009
 5157.00    1.11792   1.05572    0.009
 5158.00    1.25361   1.06121    0.009
 5159.00    1.33515   1.06659    0.009
 5160.00    1.17004   1.06924    0.009
 5161.00    1.03151   1.06559    0.009
 5162.00    0.99222   1.05868    0.009
 5163.00    1.00892   1.04616    0.009
 5164.00    1.20034   1.02691    0.009
 5165.00    1.26085   1.00365    0.009
 5166.00    0.97467   0.97527    0.009
 5167.00    0.74654   0.94681    0.009
 5168.00    0.65038   0.92111    0.009
 5169.00    0.66717   0.89698    0.009
 5170.00    0.90637   0.87681    0.009
 5171.00    1.10398   0.86152    0.009
 5172.00    1.23021   0.85499    0.009
 5173.00    1.38439   0.85774    0.009
 5174.00    1.58058   0.86530    0.009
 5175.00    1.57792   0.87663    0.009
 5176.00    1.31261   0.89175    0.009
 5177.00    1.08823   0.90911    0.009
 5178.00    0.91149   0.92545    0.009
 5179.00    0.84695   0.93748    0.008
 5180.00    0.89753   0.94440    0.008
 5181.00    0.97483   0.94711    0.008
 5182.00    1.07628   0.94423    0.008
 5183.00    1.01054   0.93893    0.008
 5184.00    0.81147   0.93584    0.008
 5185.00    0.72853   0.93268    0.008
 5186.00    0.72707   0.93279    0.008
 5187.00    0.78972   0.93682    0.008
 5188.00    0.89183   0.94477    0.008
 5189.00    0.83552   0.95839    0.008
 5190.00    0.69407   0.96927    0.000
 5191.00    0.82298   0.97827    0.000
 5192.00    1.07809   0.98921    0.000
 5193.00    1.33409   0.99750    0.000
 5194.00    1.59045   1.00304    0.000
 5195.00    1.50434   1.00753    0.000
 5196.00    1.30070   1.01162    0.000
 5197.00    1.23903   1.01737    0.000
 5198.00    1.21838   1.02384    0.000
 5199.00    1.17872   1.02792    0.000
 5200.00    1.13452   1.03186    0.000
 5201.00    1.23937   1.03471    0.000
 5202.00    1.37292   1.03375    0.000
 5203.00    1.28066   1.02970    0.000
 5204.00    1.15464   1.02148    0.000
 5205.00    0.84994   1.01185    0.000
 5206.00    0.52567   1.00222    0.000
 5207.00    0.43171   0.99113    0.000
 5208.00    0.35438   0.98303    0.000
 5209.00    0.75678   0.97882    0.000
 5210.00    1.17709   0.97838    0.000
 5211.00    1.23304   0.98413    0.009
 5212.00    1.28477   0.99200    0.009
 5213.00    1.24418   1.00275    0.009
 5214.00    1.19580   1.01583    0.009
 5215.00    1.02111   1.02816    0.009
 5216.00    0.86673   1.04091    0.009
 5217.00    0.91895   1.05189    0.009
 5218.00    0.95073   1.06074    0.009
 5219.00    0.83377   1.06692    0.009
 5220.00    0.76792   1.07083    0.009
 5221.00    0.98678   1.07254    0.009
 5222.00    1.16638   1.07109    0.009
 5223.00    1.17131   1.06652    0.009
 5224.00    1.11608   1.05868    0.009
 5225.00    0.84101   1.04925    0.009
 5226.00    0.72386   1.03865    0.009
 5227.00    1.09003   1.03037    0.009
 5228.00    1.28923   1.02425    0.009
 5229.00    1.05398   1.01939    0.009
 5230.00    0.86419   1.02005    0.009
 5231.00    0.77605   1.02275    0.008
 5232.00    0.69943   1.02855    0.008
 5233.00    0.64512   1.03823    0.008
 5234.00    0.66284   1.04634    0.008
 5235.00    0.80230   1.05677    0.009
 5236.00    0.93239   1.06738    0.009
 5237.00    1.04863   1.07601    0.008
 5238.00    1.15500   1.08655    0.008
 5239.00    1.24855   1.09563    0.008
 5240.00    1.32678   1.10386    0.008
 5241.00    1.38746   1.11081    0.008
 5242.00    1.28906   1.11491    0.008
 5243.00    1.02974   1.11797    0.008
 5244.00    0.83675   1.11813    0.008
 5245.00    0.70293   1.11515    0.008
 5246.00    0.69334   1.10954    0.008
 5247.00    0.78143   1.10311    0.008
 5248.00    0.98133   1.09613    0.008
 5249.00    1.25852   1.08711    0.008
 5250.00    1.30610   1.07928    0.008
 5251.00    1.21448   1.07304    0.008
 5252.00    1.15025   1.06925    0.008
 5253.00    1.10051   1.06825    0.009
 5254.00    1.01689   1.06711    0.009
 5255.00    0.91771   1.06992    0.009
 5256.00    1.11059   1.07493    0.009
 5257.00    1.41893   1.07823    0.009
 5258.00    1.42785   1.08075    0.009
 5259.00    1.33591   1.07942    0.009
 5260.00    1.03513   1.07536    0.009
 5261.00    0.67525   1.06767    0.009
 5262.00    0.78535   1.05390    0.009
 5263.00    1.00516   1.03599    0.009
 5264.00    1.00182   1.01517    0.009
 5265.00    0.95664   0.99325    0.009
 5266.00    1.12560   0.97314    0.009
 5267.00    1.32559   0.95496    0.009
 5268.00    1.11637   0.93840    0.009
 5269.00    0.86411   0.92788    0.009
 5270.00    0.69980   0.92489    0.009
 5271.00    0.54147   0.92779    0.009
 5272.00    0.71313   0.93466    0.009
 5273.00    0.89585   0.94446    0.009
 5274.00    0.79552   0.95792    0.009
 5275.00    0.70885   0.97646    0.009
 5276.00    1.06973   0.99705    0.009
 5277.00    1.39876   1.01441    0.009
 5278.00    1.24300   1.03065    0.009
 5279.00    1.08889   1.04498    0.009
 5280.00    0.95087   1.05699    0.009
 5281.00    0.84884   1.06843    0.009
 5282.00    1.00033   1.07612    0.009
 5283.00    1.13811   1.08173    0.009
 5284.00    1.20152   1.08856    0.009
 5285.00    1.20000   1.09564    0.009
 5286.00    0.91633   1.10349    0.009
 5287.00    0.76069   1.11207    0.009
 5288.00    1.06313   1.12090    0.009
 5289.00    1.26336   1.13117    0.009
 5290.00    1.15659   1.13993    0.009
 5291.00    1.07572   1.14503    0.009
 5292.00    1.06106   1.14676    0.009
 5293.00    1.04106   1.14583    0.009
 5294.00    1.00931   1.14201    0.009
 5295.00    1.00188   1.13410    0.009
 5296.00    1.04081   1.12321    0.008
 5297.00    1.11415   1.11129    0.008
 5298.00    1.24477   1.10167    0.008
 5299.00    1.15714   1.09382    0.008
 5300.00    0.75101   1.08698    0.008
 5301.00    0.65920   1.08396    0.008
 5302.00    0.97077   1.08557    0.008
 5303.00    1.18395   1.09265    0.008
 5304.00    1.28587   1.10226    0.008
 5305.00    1.23475   1.11173    0.008
 5306.00    1.03100   1.12219    0.008
 5307.00    0.91548   1.13351    0.008
 5308.00    0.87757   1.14455    0.008
 5309.00    0.87930   1.15309    0.008
 5310.00    0.91175   1.15834    0.008
 5311.00    0.92366   1.16136    0.008
 5312.00    0.92159   1.16274    0.008
 5313.00    0.99287   1.16269    0.008
 5314.00    1.10795   1.16058    0.008
 5315.00    0.98332   1.15593    0.008
 5316.00    0.73382   1.15048    0.008
 5317.00    0.76402   1.14482    0.008
 5318.00    0.92057   1.13822    0.008
 5319.00    0.85807   1.13152    0.008
 5320.00    0.71046   1.12348    0.008
 5321.00    0.76896   1.11435    0.008
 5322.00    0.89559   1.10498    0.008
 5323.00    1.06855   1.09338    0.008
 5324.00    1.25435   1.08153    0.008
 5325.00    1.08004   1.06876    0.008
 5326.00    0.82360   1.05461    0.008
 5327.00    0.77368   1.04059    0.009
 5328.00    0.76147   1.02958    0.009
 5329.00    0.84456   1.02379    0.009
 5330.00    0.94101   1.02142    0.009
 5331.00    1.05781   1.02181    0.009
 5332.00    1.17666   1.02456    0.009
 5333.00    1.18801   1.03390    0.009
 5334.00    1.19247   1.04724    0.009
 5335.00    1.08828   1.05944    0.009
 5336.00    0.98151   1.06949    0.008
 5337.00    1.13813   1.07672    0.008
 5338.00    1.29170   1.08331    0.008
 5339.00    1.35795   1.08710    0.008
 5340.00    1.40608   1.08783    0.008
 5341.00    1.19414   1.08766    0.008
 5342.00    1.03863   1.08610    0.008
 5343.00    1.41127   1.08477    0.008
 5344.00    1.69556   1.08291    0.008
 5345.00    1.37721   1.08195    0.008
 5346.00    1.09629   1.08473    0.008
 5347.00    1.01298   1.08677    0.008
 5348.00    0.95167   1.08918    0.008
 5349.00    0.98381   1.09313    0.008
 5350.00    1.02347   1.09809    0.008
 5351.00    1.08947   1.10637    0.008
 5352.00    1.10433   1.11451    0.008
 5353.00    0.96844   1.12325    0.008
 5354.00    0.85991   1.13425    0.008
 5355.00    0.82009   1.14511    0.008
 5356.00    0.82001   1.15538    0.008
 5357.00    0.90591   1.16319    0.008
 5358.00    0.97456   1.16894    0.008
 5359.00    1.01083   1.17279    0.008
 5360.00    1.07774   1.17279    0.008
 5361.00    1.19494   1.16943    0.008
 5362.00    1.25461   1.16343    0.008
 5363.00    1.23156   1.15507    0.008
 5364.00    1.14167   1.14434    0.008
 5365.00    0.96722   1.13262    0.008
 5366.00    0.89319   1.11966    0.008
 5367.00    0.93111   1.10743    0.008
 5368.00    0.98223   1.09588   -2.000
 5369.00    1.04632   1.08409   -2.000
 5370.00    1.13283   1.07571   -2.000
 5371.00    1.23877   1.07013   -2.000
 5372.00    1.34761   1.06866   -2.000
 5373.00    1.45868   1.06965   -2.000
 5374.00    1.31644   1.07256   -2.000
 5375.00    1.00412   1.07850   -2.000
 5376.00    0.85438   1.08706   -2.000
 5377.00    0.80027   1.09809   -2.000
 5378.00    0.90097   1.10715   -2.000
 5379.00    1.08106   1.11422   -2.000
 5380.00    1.11457   1.11920   -2.000
 5381.00    1.08296   1.12229   -2.000
 5382.00    0.95676   1.12435   -2.000
 5383.00    0.79446   1.12488    0.008
 5384.00    0.81838   1.12370    0.009
 5385.00    0.90270   1.12102    0.009
 5386.00    1.07689   1.11797    0.008
 5387.00    1.27548   1.11377    0.008
 5388.00    1.33623   1.10897    0.008
 5389.00    1.36627   1.10384    0.008
 5390.00    1.19741   1.09710    0.008
 5391.00    0.99324   1.08947    0.008
 5392.00    0.92103   1.08166    0.008
 5393.00    0.86673   1.07300    0.008
 5394.00    0.93156   1.06469    0.008
 5395.00    1.00790   1.05704    0.008
 5396.00    0.88479   1.04952    0.008
 5397.00    0.74967   1.04436    0.008
 5398.00    0.68415   1.04023    0.008
 5399.00    0.62176   1.03678    0.008
 5400.00    0.77694   1.03369    0.008
 5401.00    0.92827   1.03005    0.008
 5402.00    0.98008   1.02795    0.008
 5403.00    1.02463   1.02541    0.008
 5404.00    0.97064   1.02110    0.008
 5405.00    0.94848   1.01677    0.008
 5406.00    1.21259   1.01372    0.008
 5407.00    1.42489   1.01092    0.008
 5408.00    1.29479   1.00838    0.008
 5409.00    1.18698   1.00793    0.008
 5410.00    1.19375   1.01163    0.008
 5411.00    1.19002   1.01920    0.008
 5412.00    1.14268   1.02826    0.008
 5413.00    1.11395   1.03771    0.008
 5414.00    1.14909   1.04775    0.008
 5415.00    1.18970   1.05995    0.008
 5416.00    1.24614   1.07199    0.008
 5417.00    1.29707   1.08154    0.008
 5418.00    1.33442   1.08879    0.008
 5419.00    1.37111   1.09394    0.008
 5420.00    1.40643   1.09791    0.008
 5421.00    1.38603   1.10030    0.008
 5422.00    1.26257   1.10007    0.008
 5423.00    1.14389   1.09784    0.008
 5424.00    1.03295   1.09542    0.008
 5425.00    0.98941   1.09266    0.008
 5426.00    1.04138   1.08955    0.008
 5427.00    1.11264   1.08519    0.008
 5428.00    1.20793   1.07842    0.008
 5429.00    1.16731   1.07297    0.008
 5430.00    0.97732   1.06905    0.008
 5431.00    0.89848   1.06358    0.008
 5432.00    0.92742   1.05809    0.008
 5433.00    0.96387   1.05204    0.008
 5434.00    1.00674   1.04883    0.008
 5435.00    1.04862   1.05068    0.008
 5436.00    1.08976   1.05313    0.008
 5437.00    1.07603   1.05813    0.008
 5438.00    1.02600   1.06490    0.008
 5439.00    0.88533   1.07307    0.008
 5440.00    0.69217   1.08270    0.008
 5441.00    0.82362   1.09102    0.008
 5442.00    1.11895   1.09837    0.008
 5443.00    1.12935   1.10211    0.008
 5444.00    1.01525   1.10245    0.008
 5445.00    1.11166   1.10000    0.008
 5446.00    1.28703   1.09507    0.008
 5447.00    1.36624   1.09028    0.008
 5448.00    1.41487   1.08419    0.008
 5449.00    1.18832   1.07801    0.008
 5450.00    0.88863   1.07231    0.008
 5451.00    0.80265   1.06756    0.008
 5452.00    0.76315   1.06547    0.008
 5453.00    0.74151   1.06363    0.007
 5454.00    0.72295   1.06156    0.007
 5455.00    0.86527   1.05986    0.007
 5456.00    1.02869   1.05915    0.008
 5457.00    0.95653   1.05858    0.007
 5458.00    0.86261   1.05836    0.007
 5459.00    0.91445   1.05771    0.007
 5460.00    0.97449   1.05810    0.008
 5461.00    1.15595   1.06017    0.008
 5462.00    1.33889   1.06131    0.008
 5463.00    1.39346   1.06277    0.007
 5464.00    1.43732   1.06359    0.007
 5465.00    1.22982   1.06363    0.007
 5466.00    1.03987   1.06386    0.007
 5467.00    1.07533   1.06339    0.008
 5468.00    1.09499   1.06351    0.008
 5469.00    0.97786   1.06315    0.008
 5470.00    0.87694   1.06111    0.008
 5471.00    0.88000   1.05870    0.008
 5472.00    0.89895   1.05478    0.008
 5473.00    0.99760   1.04944    0.008
 5474.00    1.05458   1.04356    0.008
 5475.00    0.94239   1.03681    0.008
 5476.00    0.84742   1.03086    0.008
 5477.00    0.81038   1.02569    0.008
 5478.00    0.81027   1.02158   -2.000
 5479.00    0.91506   1.01945   -2.000
 5480.00    1.05253   1.01739   -2.000
 5481.00    1.26934   1.01813   -2.000
 5482.00    1.39318   1.02204   -2.000
 5483.00    1.32226   1.02685   -2.000
 5484.00    1.26527   1.03208   -2.000
 5485.00    1.23363   1.03638   -2.000
 5486.00    1.37114   1.04117   -2.000
 5487.00    1.77790   1.04573   -2.000
 5488.00    1.79232   1.05025   -2.000
 5489.00    1.25865   1.05396   -2.000
 5490.00    0.60738   1.05638   -2.000
 5491.00   -0.18848   1.05769   -2.000
 5492.00   -0.55210   1.05825   -2.000
 5493.00   -0.44733   1.05937   -2.000
 5494.00   -0.11003   1.05984   -2.000
 5495.00    0.44953   1.06048   -2.000
 5496.00    0.94169   1.06057   -2.000
 5497.00    1.37702   1.05998   -2.000
 5498.00    1.42210   1.05954   -2.000
 5499.00    1.17755   1.05866   -2.000
 5500.00    1.08457   1.05715   -2.000
 5501.00    1.09041   1.05471   -2.000
 5502.00    1.18663   1.05258    0.007
 5503.00    1.33440   1.05021    0.007
 5504.00    1.33867   1.04726    0.007
 5505.00    1.27165   1.04353    0.007
 5506.00    1.22929   1.04021    0.007
 5507.00    1.19752   1.03781    0.007
 5508.00    1.17472   1.03505    0.007
 5509.00    1.15523   1.03282    0.007
 5510.00    1.04121   1.03053    0.007
 5511.00    0.89769   1.02858    0.007
 5512.00    0.96150   1.02795    0.007
 5513.00    1.07927   1.02767    0.007
 5514.00    1.12658   1.02853    0.007
 5515.00    1.15892   1.03070    0.007
 5516.00    1.34955   1.03324    0.007
 5517.00    1.56675   1.03779    0.008
 5518.00    1.43923   1.04317    0.008
 5519.00    1.26805   1.04901    0.007
 5520.00    1.00657   1.05502    0.008
 5521.00    0.73712   1.05991    0.008
 5522.00    0.74187   1.06405    0.008
 5523.00    0.76095   1.06619    0.007
 5524.00    0.80535   1.06613    0.007
 5525.00    0.85146   1.06435    0.007
 5526.00    0.99213   1.06115    0.008
 5527.00    1.12567   1.05704    0.008
 5528.00    1.10570   1.05314    0.008
 5529.00    1.07872   1.04958    0.008
 5530.00    0.96606   1.04653    0.008
 5531.00    0.88846   1.04436    0.008
 5532.00    1.10298   1.04293    0.007
 5533.00    1.28748   1.04359    0.007
 5534.00    1.28520   1.04507    0.007
 5535.00    1.26602   1.04737    0.007
 5536.00    1.16420   1.05024    0.007
 5537.00    1.06135   1.05279    0.007
 5538.00    0.95442   1.05589    0.007
 5539.00    0.88397   1.05857    0.007
 5540.00    0.93389   1.06178    0.007
 5541.00    0.96279   1.06476    0.007
 5542.00    0.93307   1.06712    0.007
 5543.00    0.94156   1.06971    0.007
 5544.00    1.04123   1.07197    0.007
 5545.00    1.08968   1.07409    0.007
 5546.00    1.03254   1.07607    0.007
 5547.00    1.04427   1.07804    0.007
 5548.00    1.17951   1.08003    0.007
 5549.00    1.25531   1.08194    0.007
 5550.00    1.23787   1.08350    0.007
 5551.00    1.15580   1.08484    0.007
 5552.00    0.98474   1.08566    0.007
 5553.00    0.86768   1.08547    0.007
 5554.00    0.81607   1.08467    0.007
 5555.00    0.84100   1.08299    0.007
 5556.00    0.94771   1.08054    0.007
 5557.00    0.92671   1.07741    0.007
 5558.00    0.78534   1.07411    0.007
 5559.00    0.72947   1.07054    0.007
 5560.00    0.74465   1.06692    0.007
 5561.00    0.78104   1.06326    0.007
 5562.00    0.83296   1.05925    0.007
 5563.00    0.85167   1.05561    0.007
 5564.00    0.84903   1.05155    0.007
 5565.00    0.80256   1.04772    0.007
 5566.00    0.73145   1.04412    0.007
 5567.00    0.71749   1.04075    0.007
 5568.00    0.73146   1.03844    0.007
 5569.00    0.85476   1.03605    0.007
 5570.00    1.02425   1.03500    0.007
 5571.00    0.95648   1.03455    0.007
 5572.00    0.80288   1.03448    0.007
 5573.00    0.77907   1.03570    0.007
 5574.00    0.79498   1.03739    0.007
 5575.00    0.84290   1.03960    0.007
 5576.00    0.89898   1.04173    0.007
 5577.00    1.03781   1.04411    0.007
 5578.00    1.19379   1.04620    0.007
 5579.00    1.20637   1.04742    0.007
 5580.00    1.19557   1.04792    0.007
 5581.00    1.19006   1.04718    0.007
 5582.00    1.18519   1.04457    0.007
 5583.00    1.01751   1.04023    0.007
 5584.00    0.83616   1.03433    0.007
 5585.00    0.85079   1.02678    0.007
 5586.00    0.87490   1.01813    0.007
 5587.00    1.01139   1.00975    0.007
 5588.00    1.14944   1.00138    0.007
 5589.00    1.27991   0.99430    0.007
 5590.00    1.39775   0.98892    0.007
 5591.00    1.26464   0.98485    0.007
 5592.00    1.14086   0.98355    0.007
 5593.00    1.12542   0.98407    0.007
 5594.00    1.10305   0.98666    0.007
 5595.00    1.02497   0.99048    0.007
 5596.00    0.97202   0.99425    0.007
 5597.00    1.07083   0.99787    0.007
 5598.00    1.14401   1.00054    0.007
 5599.00    1.09505   1.00295    0.007
 5600.00    1.04541   1.00478    0.007
 5601.00    0.99319   1.00677    0.007
 5602.00    0.95620   1.00909    0.007
 5603.00    0.96852   1.01240    0.007
 5604.00    0.96991   1.01642    0.007
 5605.00    0.94140   1.02172    0.007
 5606.00    0.90913   1.02862    0.007
 5607.00    0.86804   1.03551    0.007
 5608.00    0.84660   1.04306    0.007
 5609.00    0.86502   1.04964    0.007
 5610.00    0.89600   1.05509    0.007
 5611.00    0.94918   1.05814    0.007
 5612.00    0.98891   1.05801    0.007
 5613.00    1.00789   1.05576    0.007
 5614.00    1.02610   1.05103    0.007
 5615.00    1.04327   1.04526    0.007
 5616.00    1.15604   1.03895    0.007
 5617.00    1.38304   1.03227    0.007
 5618.00    1.43243   1.02620    0.007
 5619.00    1.29470   1.02062    0.007
 5620.00    1.18627   1.01651    0.007
 5621.00    1.10505   1.01324    0.007
 5622.00    0.99104   1.01149    0.007
 5623.00    0.85016   1.01137    0.007
 5624.00    0.73161   1.01142    0.007
 5625.00    0.62915   1.01227    0.007
 5626.00    0.66193   1.01380    0.007
 5627.00    0.78030   1.01614    0.007
 5628.00    0.89048   1.01905    0.007
 5629.00    0.99613   1.02240    0.007
 5630.00    1.00003   1.02592    0.007
 5631.00    0.95496   1.02945    0.007
 5632.00    1.00393   1.03301    0.007
 5633.00    1.09197   1.03551    0.007
 5634.00    1.10397   1.03638    0.007
 5635.00    1.08897   1.03612    0.007
 5636.00    0.98837   1.03453    0.007
 5637.00    0.86210   1.03185    0.007
 5638.00    0.84359   1.02834    0.007
 5639.00    0.85193   1.02488    0.007
 5640.00    0.91690   1.02143    0.007
 5641.00    0.99331   1.01868    0.007
 5642.00    0.91033   1.01699    0.007
 5643.00    0.80211   1.01598    0.007
 5644.00    0.75090   1.01628    0.007
 5645.00    0.70639   1.01725    0.007
 5646.00    0.79827   1.01893    0.007
 5647.00    0.90103   1.02063    0.007
 5648.00    0.96258   1.02270    0.007
 5649.00    1.02229   1.02504    0.007
 5650.00    1.07737   1.02662    0.007
 5651.00    1.13060   1.02758    0.007
 5652.00    1.09571   1.02739    0.007
 5653.00    1.05933   1.02638    0.007
 5654.00    0.99547   1.02394    0.007
 5655.00    0.93766   1.02020    0.007
 5656.00    0.94685   1.01573    0.007
 5657.00    0.94055   1.01085    0.007
 5658.00    0.81400   1.00579    0.007
 5659.00    0.72311   1.00096    0.007
 5660.00    0.84153   0.99661    0.007
 5661.00    0.93784   0.99341    0.007
 5662.00    0.93129   0.99206    0.007
 5663.00    0.90489   0.99230    0.007
 5664.00    0.80305   0.99293    0.007
 5665.00    0.73605   0.99533    0.007
 5666.00    0.77959   0.99956    0.007
 5667.00    0.82397   1.00381    0.007
 5668.00    0.87057   1.00804    0.007
 5669.00    0.91348   1.01284    0.007
 5670.00    0.94783   1.01838    0.007
 5671.00    0.98203   1.02360    0.007
 5672.00    1.01594   1.02861    0.007
 5673.00    1.03098   1.03326    0.007
 5674.00    1.01321   1.03779    0.007
 5675.00    1.03837   1.04193    0.007
 5676.00    1.12892   1.04526    0.007
 5677.00    1.17072   1.04739    0.007
 5678.00    1.14731   1.04838    0.007
 5679.00    1.07407   1.04783    0.007
 5680.00    0.94213   1.04594    0.007
 5681.00    0.96004   1.04254    0.007
 5682.00    1.13359   1.03870    0.007
 5683.00    1.17074   1.03456    0.007
 5684.00    1.08291   1.02989    0.007
 5685.00    1.07366   1.02557    0.007
 5686.00    1.12786   1.02195    0.007
 5687.00    1.01877   1.01978    0.007
 5688.00    0.79367   1.01816    0.007
 5689.00    0.65317   1.01835    0.007
 5690.00    0.56543   1.01979    0.007
 5691.00    0.66191   1.02215    0.007
 5692.00    0.85876   1.02487    0.007
 5693.00    0.92989   1.02750    0.007
 5694.00    0.94149   1.03026    0.007
 5695.00    0.92002   1.03200    0.007
 5696.00    0.88505   1.03319    0.007
 5697.00    0.92725   1.03251    0.007
 5698.00    0.99638   1.03049    0.007
 5699.00    0.99674   1.02725    0.007
 5700.00    0.97688   1.02259    0.007
 5701.00    0.99919   1.01750    0.007
 5702.00    1.03176   1.01171    0.007
 5703.00    1.02677   1.00570    0.007
 5704.00    1.01439   0.99931    0.007
 5705.00    0.97804   0.99305    0.007
 5706.00    0.93800   0.98723    0.007
 5707.00    1.07227   0.98184    0.007
 5708.00    1.22630   0.97712    0.007
 5709.00    1.13195   0.97374    0.007
 5710.00    1.01879   0.97191    0.007
 5711.00    0.96276   0.97142    0.007
 5712.00    0.90906   0.97274    0.006
 5713.00    0.94164   0.97609    0.007
 5714.00    0.97673   0.98142    0.007
 5715.00    1.08776   0.98816    0.007
 5716.00    1.19170   0.99663    0.007
 5717.00    1.17383   1.00574    0.007
 5718.00    1.13902   1.01484    0.007
 5719.00    0.92502   1.02422    0.007
 5720.00    0.72651   1.03272    0.007
 5721.00    0.64414   1.03998    0.007
 5722.00    0.57671   1.04619    0.007
 5723.00    0.59460   1.05091    0.007
 5724.00    0.61804   1.05395    0.007
 5725.00    0.66668   1.05615    0.007
 5726.00    0.70653   1.05699    0.007
 5727.00    0.71366   1.05688    0.007
 5728.00    0.76162   1.05584    0.007
 5729.00    0.93661   1.05433    0.007
 5730.00    1.03810   1.05268    0.007
 5731.00    0.94538   1.05104    0.007
 5732.00    0.90540   1.04988    0.007
 5733.00    0.98513   1.04876    0.007
 5734.00    1.05100   1.04844    0.007
 5735.00    1.08966   1.04855    0.007
 5736.00    1.11636   1.04883    0.007
 5737.00    1.12256   1.04916    0.007
 5738.00    1.12746   1.04946    0.007
 5739.00    1.13040   1.04994    0.007
 5740.00    1.11213   1.05001    0.000
 5741.00    1.06590   1.05003    0.000
 5742.00    1.05992   1.04977    0.000
 5743.00    1.10067   1.04925    0.000
 5744.00    1.05990   1.04847    0.000
 5745.00    0.93566   1.04729    0.000
 5746.00    0.84745   1.04615    0.000
 5747.00    0.79177   1.04473    0.000
 5748.00    0.79003   1.04306    0.000
 5749.00    0.83121   1.04083    0.000
 5750.00    0.81592   1.03836    0.000
 5751.00    0.76109   1.03565    0.000
 5752.00    0.79357   1.03312    0.000
 5753.00    0.87966   1.03079    0.000
 5754.00    0.92342   1.02858    0.000
 5755.00    0.94445   1.02718    0.000
 5756.00    0.97046   1.02607    0.000
 5757.00    0.99878   1.02546    0.000
 5758.00    1.03530   1.02492    0.000
 5759.00    1.07511   1.02463    0.000
 5760.00    1.09441   1.02447    0.000
 5761.00    1.10670   1.02509    0.000
 5762.00    1.07849   1.02597    0.000
 5763.00    1.03862   1.02712    0.000
 5764.00    1.02689   1.02873    0.000
 5765.00    1.02186   1.03057    0.000
 5766.00    1.10825   1.03288    0.000
 5767.00    1.21219   1.03543    0.000
 5768.00    1.29867   1.03826    0.000
 5769.00    1.38255   1.04064    0.000
 5770.00    1.34474   1.04306    0.000
 5771.00    1.29367   1.04436    0.000
 5772.00    1.21927   1.04481    0.000
 5773.00    1.14320   1.04426    0.000
 5774.00    1.14515   1.04250    0.000
 5775.00    1.14998   1.03983    0.000
 5776.00    1.13303   1.03609    0.000
 5777.00    1.11398   1.03141    0.000
 5778.00    1.02284   1.02548    0.000
 5779.00    0.94056   1.01920    0.000
 5780.00    1.00073   1.01221    0.000
 5781.00    1.05334   1.00494    0.000
 5782.00    1.02937   0.99754    0.000
 5783.00    1.00081   0.99083    0.000
 5784.00    0.93897   0.98538    0.000
 5785.00    0.90667   0.98116    0.000
 5786.00    1.03837   0.97893    0.000
 5787.00    1.14810   0.97824    0.000
 5788.00    1.16035   0.97964    0.000
 5789.00    1.18155   0.98286    0.000
 5790.00    1.23532   0.98753    0.000
 5791.00    1.25925   0.99317   -2.000
 5792.00    1.19204   0.99929   -2.000
 5793.00    1.12705   1.00548   -2.000
 5794.00    1.06780   1.01121   -2.000
 5795.00    1.02405   1.01669   -2.000
 5796.00    1.01490   1.02183   -2.000
 5797.00    0.96167   1.02626   -2.000
 5798.00    0.82316   1.03035   -2.000
 5799.00    0.76819   1.03378   -2.000
 5800.00    0.85418   1.03678   -2.000
 5801.00    0.92113   1.03914   -2.000
 5802.00    0.95993   1.04084   -2.000
 5803.00    0.99884   1.04202   -2.000
 5804.00    1.03790   1.04257   -2.000
 5805.00    1.01704   1.04262   -2.000
 5806.00    0.92756   1.04221   -2.000
 5807.00    0.88001   1.04176   -2.000
 5808.00    0.87478   1.04114   -2.000
 5809.00    0.87824   1.04028   -2.000
 5810.00    0.88943   1.03947   -2.000
 5811.00    0.97065   1.03882    0.000
 5812.00    1.10682   1.03816    0.000
 5813.00    1.15682   1.03768    0.000
 5814.00    1.14734   1.03759    0.000
 5815.00    1.10271   1.03782    0.000
 5816.00    1.03681   1.03816    0.000
 5817.00    1.06253   1.03882    0.000
 5818.00    1.13663   1.03978    0.000
 5819.00    1.25518   1.04118    0.000
 5820.00    1.39410   1.04286    0.000
 5821.00    1.38270   1.04484    0.000
 5822.00    1.31199   1.04712    0.000
 5823.00    1.29286   1.04920    0.000
 5824.00    1.29108   1.05128    0.000
 5825.00    1.33999   1.05304    0.000
 5826.00    1.40323   1.05471    0.000
 5827.00    1.31748   1.05578    0.000
 5828.00    1.19705   1.05628    0.000
 5829.00    1.00234   1.05652    0.000
 5830.00    0.79375   1.05630    0.000
 5831.00    0.82617   1.05581    0.000
 5832.00    0.89336   1.05494    0.000
 5833.00    0.95662   1.05416    0.000
 5834.00    1.01947   1.05308    0.000
 5835.00    0.93640   1.05187    0.000
 5836.00    0.84345   1.05082    0.000
 5837.00    0.85690   1.05007    0.000
 5838.00    0.87387   1.04957    0.000
 5839.00    0.90215   1.04925    0.000
 5840.00    0.93270   1.04921    0.000
 5841.00    1.03462   1.04927    0.000
 5842.00    1.12703   1.04918    0.000
 5843.00    1.07570   1.04882    0.000
 5844.00    1.01934   1.04804    0.000
 5845.00    0.91418   1.04669    0.000
 5846.00    0.83611   1.04445    0.000
 5847.00    0.94812   1.04153    0.000
 5848.00    1.06834   1.03788    0.000
 5849.00    1.23297   1.03344    0.000
 5850.00    1.35825   1.02829    0.000
 5851.00    1.31307   1.02286    0.000
 5852.00    1.24526   1.01719    0.000
 5853.00    1.09673   1.01131    0.000
 5854.00    0.98215   1.00538    0.000
 5855.00    0.96931   0.99973    0.000
 5856.00    0.96291   0.99487    0.000
 5857.00    0.97293   0.99053    0.000
 5858.00    0.99074   0.98733    0.000
 5859.00    1.02565   0.98476    0.000
 5860.00    1.01512   0.98352    0.000
 5861.00    0.91805   0.98327    0.000
 5862.00    0.87762   0.98425    0.000
 5863.00    0.93131   0.98609    0.000
 5864.00    1.01251   0.98845    0.000
 5865.00    1.13376   0.99153    0.000
 5866.00    1.15787   0.99468    0.000
 5867.00    1.05752   0.99836    0.000
 5868.00    1.00537   1.00162    0.000
 5869.00    1.00763   1.00490    0.000
 5870.00    1.06955   1.00758    0.000
 5871.00    1.19088   1.00996    0.000
 5872.00    1.17713   1.01188    0.000
 5873.00    1.04479   1.01303    0.000
 5874.00    0.95614   1.01349    0.000
 5875.00    0.90129   1.01298    0.000
 5876.00    0.91693   1.01182    0.000
 5877.00    0.98051   1.00957    0.000
 5878.00    0.97741   1.00659    0.000
 5879.00    0.93457   1.00270    0.000
 5880.00    0.95212   0.99783    0.000
 5881.00    1.00107   0.99193    0.000
 5882.00    1.01754   0.98494    0.000
 5883.00    1.01936   0.97664    0.000
 5884.00    0.91202   0.96643    0.000
 5885.00    0.76237   0.95423    0.000
 5886.00    0.73233   0.93975    0.000
 5887.00    0.74173   0.92328    0.000
 5888.00    0.82302   0.90587    0.000
 5889.00    0.92419   0.88764    0.000
 5890.00    0.95638   0.86935    0.000
 5891.00    0.97289   0.85201    0.000
 5892.00    0.96701   0.83657    0.000
 5893.00    0.95706   0.82408    0.000
 5894.00    1.04328   0.81591    0.000
 5895.00    1.14293   0.81211    0.000
 5896.00    1.15181   0.81267    0.000
 5897.00    1.15158   0.81751    0.000
 5898.00    1.14155   0.82631    0.000
 5899.00    1.13089   0.83862    0.000
 5900.00    0.98398   0.85341    0.000
 5901.00    0.83308   0.86991    0.006
 5902.00    0.68621   0.88694    0.007
 5903.00    0.54692   0.90363    0.007
 5904.00    0.62169   0.91922    0.007
 5905.00    0.69792   0.93358    0.007
 5906.00    0.79495   0.94593    0.007
 5907.00    0.88721   0.95629    0.007
 5908.00    0.93499   0.96462    0.007
 5909.00    0.97744   0.97062    0.007
 5910.00    0.98368   0.97483    0.007
 5911.00    0.99063   0.97735    0.007
 5912.00    1.00123   0.97881    0.007
 5913.00    1.00563   0.97913    0.007
 5914.00    0.98370   0.97899    0.007
 5915.00    0.95444   0.97841    0.006
 5916.00    0.89950   0.97775    0.006
 5917.00    0.85548   0.97736    0.006
 5918.00    0.84356   0.97720    0.006
 5919.00    0.84332   0.97759    0.006
 5920.00    0.87237   0.97832    0.006
 5921.00    0.88489   0.97967    0.006
 5922.00    0.86171   0.98108    0.006
 5923.00    0.82774   0.98271    0.006
 5924.00    0.77353   0.98408    0.006
 5925.00    0.75484   0.98525    0.006
 5926.00    0.79428   0.98611    0.006
 5927.00    0.78445   0.98641    0.006
 5928.00    0.70390   0.98649    0.006
 5929.00    0.64772   0.98604    0.006
 5930.00    0.62234   0.98542    0.006
 5931.00    0.64386   0.98463    0.006
 5932.00    0.71759   0.98383    0.007
 5933.00    0.76523   0.98333    0.007
 5934.00    0.78728   0.98300    0.007
 5935.00    0.77949   0.98298    0.007
 5936.00    0.74587   0.98310    0.007
 5937.00    0.73476   0.98352    0.007
 5938.00    0.74079   0.98389    0.007
 5939.00    0.76634   0.98448    0.007
 5940.00    0.80496   0.98503    0.007
 5941.00    0.83112   0.98556    0.007
 5942.00    0.84996   0.98602    0.007
 5943.00    0.88242   0.98619    0.006
 5944.00    0.92187   0.98618    0.006
 5945.00    0.94316   0.98596    0.006
 5946.00    0.95641   0.98563    0.006
 5947.00    0.94688   0.98506    0.006
 5948.00    0.92867   0.98421    0.006
 5949.00    0.92536   0.98316    0.006
 5950.00    0.92686   0.98187    0.006
 5951.00    0.90356   0.98050    0.006
 5952.00    0.87354   0.97912    0.006
 5953.00    0.84752   0.97788    0.006
 5954.00    0.82238   0.97684    0.006
 5955.00    0.85042   0.97621    0.006
 5956.00    0.88787   0.97602    0.006
 5957.00    0.94488   0.97637    0.006
 5958.00    1.00454   0.97724    0.006
 5959.00    0.96500   0.97867    0.006
 5960.00    0.91593   0.98055    0.006
 5961.00    0.86070   0.98282    0.006
 5962.00    0.80511   0.98530    0.006
 5963.00    0.87871   0.98780    0.006
 5964.00    0.95515   0.99042    0.007
 5965.00    0.96120   0.99280    0.007
 5966.00    0.96340   0.99506    0.007
 5967.00    0.86734   0.99692    0.006
 5968.00    0.77814   0.99863    0.006
 5969.00    0.78139   0.99985    0.007
 5970.00    0.79244   1.00075    0.007
 5971.00    0.87335   1.00108    0.007
 5972.00    0.94218   1.00086    0.007
 5973.00    0.93145   1.00002    0.007
 5974.00    0.90597   0.99853    0.007
 5975.00    0.80489   0.99652    0.006
 5976.00    0.71639   0.99390    0.006
 5977.00    0.68001   0.99099    0.006
 5978.00    0.63784   0.98773    0.006
 5979.00    0.57584   0.98441    0.006
 5980.00    0.55654   0.98117    0.006
 5981.00    0.66049   0.97816    0.006
 5982.00    0.76332   0.97544    0.006
 5983.00    0.86339   0.97314    0.006
 5984.00    0.93230   0.97125    0.006
 5985.00    0.93499   0.96991    0.006
 5986.00    0.92622   0.96903    0.006
 5987.00    0.89629   0.96882    0.006
 5988.00    0.86196   0.96918    0.006
 5989.00    0.82051   0.97013    0.006
 5990.00    0.79176   0.97152    0.006
 5991.00    0.78097   0.97316    0.006
 5992.00    0.79066   0.97488    0.006
 5993.00    0.82584   0.97646    0.006
 5994.00    0.88157   0.97780    0.006
 5995.00    0.95984   0.97866    0.006
 5996.00    0.99861   0.97908    0.006
 5997.00    0.99915   0.97887    0.007
 5998.00    0.98270   0.97817    0.007
 5999.00    0.95175   0.97705    0.007
 6000.00    0.95710   0.97552    0.006
 6001.00    0.98971   0.97377    0.006
 6002.00    1.03397   0.97179    0.006
 6003.00    1.08592   0.96969    0.007
 6004.00    1.06720   0.96765    0.007
 6005.00    1.00763   0.96569    0.006
 6006.00    1.00041   0.96380    0.006
 6007.00    1.01955   0.96192    0.006
 6008.00    1.07902   0.96022    0.006
 6009.00    1.15608   0.95876    0.006
 6010.00    1.17512   0.95756    0.006
 6011.00    1.17246   0.95654    0.006
 6012.00    1.12994   0.95568    0.006
 6013.00    1.07478   0.95501    0.006
 6014.00    1.06093   0.95432    0.006
 6015.00    1.05803   0.95363    0.006
 6016.00    1.10287   0.95295    0.006
 6017.00    1.15804   0.95224    0.006
 6018.00    1.10338   0.95163    0.006
 6019.00    1.02981   0.95102    0.006
 6020.00    0.93634   0.95083    0.006
 6021.00    0.84028   0.95088    0.006
 6022.00    0.71639   0.95151    0.006
 6023.00    0.58995   0.95265    0.006
 6024.00    0.61298   0.95444    0.006
 6025.00    0.64433   0.95686    0.006
 6026.00    0.71336   0.95980    0.006
 6027.00    0.78263   0.96336    0.006
 6028.00    0.79484   0.96714    0.006
 6029.00    0.80861   0.97126    0.007
 6030.00    0.85866   0.97530    0.006
 6031.00    0.90897   0.97934    0.006
 6032.00    0.96260   0.98307    0.006
 6033.00    1.00793   0.98649    0.007
 6034.00    0.98177   0.98945    0.007
 6035.00    0.95340   0.99189    0.006
 6036.00    0.91087   0.99389    0.006
 6037.00    0.86602   0.99531    0.006
 6038.00    0.80965   0.99641    0.006
 6039.00    0.78481   0.99704    0.006
 6040.00    0.88766   0.99754    0.006
 6041.00    0.96378   0.99780    0.006
 6042.00    0.95020   0.99812    0.006
 6043.00    0.93471   0.99845    0.006
 6044.00    0.91380   0.99888    0.006
 6045.00    0.90142   0.99947    0.006
 6046.00    0.90974   1.00004    0.006
 6047.00    0.92251   1.00067    0.006
 6048.00    0.94459   1.00101    0.006
 6049.00    0.97133   1.00120    0.006
 6050.00    1.00656   1.00090    0.006
 6051.00    1.01388   1.00019    0.006
 6052.00    0.97688   0.99899    0.006
 6053.00    0.93997   0.99733    0.006
 6054.00    0.90322   0.99538    0.006
 6055.00    0.90663   0.99310    0.006
 6056.00    0.95936   0.99083    0.006
 6057.00    0.98714   0.98848    0.006
 6058.00    0.98793   0.98635    0.006
 6059.00    0.99773   0.98438    0.006
 6060.00    1.01611   0.98265    0.006
 6061.00    1.03049   0.98124    0.006
 6062.00    1.04151   0.98009    0.006
 6063.00    0.98281   0.97931    0.006
 6064.00    0.87245   0.97886    0.006
 6065.00    0.81078   0.97891    0.006
 6066.00    0.78079   0.97951    0.006
 6067.00    0.79828   0.98072    0.006
 6068.00    0.84281   0.98259    0.006
 6069.00    0.85688   0.98495    0.006
 6070.00    0.85586   0.98772    0.006
 6071.00    0.85190   0.99052    0.006
 6072.00    0.84667   0.99317    0.006
 6073.00    0.87884   0.99524    0.006
 6074.00    0.92476   0.99654    0.006
 6075.00    0.97376   0.99681    0.006
 6076.00    1.02371   0.99599    0.006
 6077.00    1.00876   0.99409    0.006
 6078.00    0.97696   0.99124    0.006
 6079.00    0.89610   0.98769    0.006
 6080.00    0.80485   0.98363    0.006
 6081.00    0.79875   0.97946    0.006
 6082.00    0.80688   0.97530    0.006
 6083.00    0.84585   0.97151    0.006
 6084.00    0.88871   0.96813    0.006
 6085.00    0.90638   0.96533    0.006
 6086.00    0.92184   0.96307    0.006
 6087.00    0.92985   0.96137    0.006
 6088.00    0.93748   0.96017    0.006
 6089.00    0.94201   0.95934    0.006
 6090.00    0.94560   0.95890    0.006
 6091.00    0.88474   0.95871    0.006
 6092.00    0.82863   0.95885    0.006
 6093.00    0.87380   0.95914    0.006
 6094.00    0.91634   0.95963    0.006
 6095.00    0.92708   0.96008    0.006
 6096.00    0.92664   0.96049    0.006
 6097.00    0.83347   0.96071    0.006
 6098.00    0.76065   0.96056    0.006
 6099.00    0.81396   0.96002    0.006
 6100.00    0.86916   0.95893    0.006
 6101.00    0.93354   0.95752    0.006
 6102.00    0.97748   0.95577    0.006
 6103.00    0.94047   0.95415    0.006
 6104.00    0.90047   0.95262    0.006
 6105.00    0.85065   0.95171    0.006
 6106.00    0.81927   0.95142    0.006
 6107.00    0.83919   0.95197    0.006
 6108.00    0.86568   0.95324    0.006
 6109.00    0.90779   0.95514    0.006
 6110.00    0.93900   0.95748    0.006
 6111.00    0.94777   0.95994    0.006
 6112.00    0.94523   0.96228    0.006
 6113.00    0.92247   0.96420    0.006
 6114.00    0.94069   0.96554    0.006
 6115.00    1.02306   0.96604    0.006
 6116.00    1.05373   0.96575    0.006
 6117.00    1.01335   0.96454    0.006
 6118.00    0.96748   0.96253    0.006
 6119.00    0.91495   0.95980    0.006
 6120.00    0.89465   0.95662    0.006
 6121.00    0.90871   0.95322    0.006
 6122.00    0.96635   0.94991    0.006
 6123.00    1.06498   0.94698    0.006
 6124.00    1.11285   0.94460    0.006
 6125.00    1.11861   0.94299    0.006
 6126.00    1.08392   0.94207    0.006
 6127.00    1.01967   0.94186    0.006
 6128.00    0.95095   0.94207    0.006
 6129.00    0.87937   0.94248    0.006
 6130.00    0.89390   0.94274    0.006
 6131.00    0.95673   0.94259    0.006
 6132.00    0.97020   0.94174    0.006
 6133.00    0.95957   0.94009    0.006
 6134.00    0.88708   0.93756    0.006
 6135.00    0.78850   0.93442    0.006
 6136.00    0.74949   0.93083    0.006
 6137.00    0.73197   0.92736    0.006
 6138.00    0.73989   0.92431    0.006
 6139.00    0.75558   0.92222    0.006
 6140.00    0.77534   0.92131    0.006
 6141.00    0.79613   0.92179    0.006
 6142.00    0.93927   0.92361    0.006
 6143.00    1.10767   0.92650    0.006
 6144.00    1.17059   0.93017    0.006
 6145.00    1.21636   0.93407    0.006
 6146.00    1.13461   0.93789    0.006
 6147.00    1.03735   0.94114    0.006
 6148.00    1.07422   0.94368    0.006
 6149.00    1.12229   0.94523    0.006
 6150.00    1.13078   0.94588    0.006
 6151.00    1.13738   0.94550    0.006
 6152.00    1.03114   0.94430    0.006
 6153.00    0.92334   0.94223    0.006
 6154.00    0.82081   0.93942    0.006
 6155.00    0.72240   0.93581    0.006
 6156.00    0.70517   0.93137    0.006
 6157.00    0.69000   0.92613    0.006
 6158.00    0.69872   0.92002    0.006
 6159.00    0.70123   0.91322    0.006
 6160.00    0.65403   0.90585    0.006
 6161.00    0.61738   0.89829    0.006
 6162.00    0.64429   0.89089    0.006
 6163.00    0.66673   0.88406    0.006
 6164.00    0.66797   0.87823    0.006
 6165.00    0.67810   0.87365    0.006
 6166.00    0.72265   0.87059    0.006
 6167.00    0.77372   0.86904    0.006
 6168.00    0.84586   0.86896    0.006
 6169.00    0.90756   0.87020    0.006
 6170.00    0.94073   0.87246    0.006
 6171.00    0.96092   0.87559    0.006
 6172.00    0.95074   0.87928    0.006
 6173.00    0.91538   0.88344    0.006
 6174.00    0.82907   0.88781    0.006
 6175.00    0.75787   0.89236    0.006
 6176.00    0.71333   0.89688    0.006
 6177.00    0.67768   0.90128    0.006
 6178.00    0.65574   0.90548    0.006
 6179.00    0.67908   0.90924    0.006
 6180.00    0.76376   0.91258    0.006
 6181.00    0.83524   0.91520    0.006
 6182.00    0.89099   0.91716    0.006
 6183.00    0.88091   0.91816    0.006
 6184.00    0.80161   0.91831    0.006
 6185.00    0.75547   0.91740    0.006
 6186.00    0.74009   0.91564    0.006
 6187.00    0.73395   0.91303    0.006
 6188.00    0.73537   0.90987    0.006
 6189.00    0.77161   0.90637    0.006
 6190.00    0.83292   0.90292    0.006
 6191.00    0.88997   0.89981    0.006
 6192.00    0.94435   0.89739    0.006
 6193.00    0.94125   0.89583    0.006
 6194.00    0.90640   0.89533    0.006
 6195.00    0.76100   0.89576    0.006
 6196.00    0.56251   0.89713   -2.000
 6197.00    0.82117   0.89913   -2.000
 6198.00    1.26935   0.90165   -2.000
 6199.00    1.63842   0.90435   -2.000
 6200.00    1.97944   0.90711   -2.000
 6201.00    1.81559   0.90976   -2.000
 6202.00    1.50065   0.91221   -2.000
 6203.00    0.97622   0.91442   -2.000
 6204.00    0.39976   0.91627   -2.000
 6205.00    0.26099   0.91775   -2.000
 6206.00    0.21034   0.91867   -2.000
 6207.00    0.37887   0.91897   -2.000
 6208.00    0.58198   0.91842    0.006
 6209.00    0.67392   0.91698    0.006
 6210.00    0.75284   0.91448    0.006
 6211.00    0.78235   0.91104    0.006
 6212.00    0.80794   0.90665    0.006
 6213.00    0.86711   0.90160    0.006
 6214.00    0.92776   0.89608    0.006
 6215.00    0.90868   0.89048    0.006
 6216.00    0.88733   0.88508    0.006
 6217.00    0.79900   0.88024    0.006
 6218.00    0.71499   0.87615    0.006
 6219.00    0.70999   0.87298    0.006
 6220.00    0.70989   0.87079    0.006
 6221.00    0.76380   0.86949    0.006
 6222.00    0.81301   0.86897    0.006
 6223.00    0.82583   0.86898    0.006
 6224.00    0.85530   0.86931    0.006
 6225.00    0.98216   0.86971    0.006
 6226.00    1.07034   0.86997    0.006
 6227.00    0.97915   0.86997    0.006
 6228.00    0.90541   0.86960    0.006
 6229.00    0.89784   0.86898    0.006
 6230.00    0.88207   0.86808    0.006
 6231.00    0.84037   0.86728    0.006
 6232.00    0.80829   0.86648    0.006
 6233.00    0.80202   0.86609    0.006
 6234.00    0.83815   0.86591    0.006
 6235.00    0.97192   0.86612    0.006
 6236.00    1.04996   0.86641    0.006
 6237.00    1.01697   0.86673    0.006
 6238.00    0.94553   0.86678    0.006
 6239.00    0.80736   0.86644    0.006
 6240.00    0.75355   0.86560    0.006
 6241.00    0.82796   0.86427    0.006
 6242.00    0.90836   0.86258    0.006
 6243.00    0.99679   0.86071    0.006
 6244.00    1.06097   0.85887    0.006
 6245.00    1.09663   0.85727    0.006
 6246.00    1.08450   0.85602    0.006
 6247.00    1.02280   0.85515    0.006
 6248.00    0.97981   0.85461    0.006
 6249.00    0.95393   0.85417    0.006
 6250.00    0.92969   0.85373    0.006
 6251.00    0.90677   0.85297    0.006
 6252.00    0.90002   0.85188    0.006
 6253.00    0.90472   0.85026    0.006
 6254.00    0.92066   0.84833    0.006
 6255.00    0.94360   0.84613    0.006
 6256.00    0.92868   0.84403    0.006
 6257.00    0.89318   0.84230    0.006
 6258.00    0.88389   0.84121    0.006
 6259.00    0.88698   0.84113    0.006
 6260.00    1.07404   0.84201    0.007
 6261.00    1.33606   0.84412    0.007
 6262.00    1.42653   0.84707    0.008
 6263.00    1.45730   0.85095    0.008
 6264.00    1.29333   0.85520    0.007
 6265.00    1.07225   0.85980    0.007
 6266.00    0.84097   0.86423    0.007
 6267.00    0.60721   0.86845    0.007
 6268.00    0.61233   0.87219    0.006
 6269.00    0.66433   0.87547    0.006
 6270.00    0.70241   0.87823    0.006
 6271.00    0.73837   0.88052    0.006
 6272.00    0.74144   0.88241    0.006
 6273.00    0.74081   0.88391    0.006
 6274.00    0.83576   0.88511    0.006
 6275.00    0.93791   0.88596    0.006
 6276.00    0.95210   0.88657    0.006
 6277.00    0.96276   0.88689    0.006
 6278.00    0.87039   0.88704    0.006
 6279.00    0.77802   0.88702    0.006
 6280.00    0.71649   0.88701    0.000
 6281.00    0.65763   0.88708    0.000
 6282.00    0.64448   0.88738    0.000
 6283.00    0.63848   0.88800    0.000
 6284.00    0.70777   0.88896    0.000
 6285.00    0.77125   0.89030    0.000
 6286.00    0.79132   0.89184    0.000
 6287.00    0.80546   0.89357    0.000
 6288.00    0.78586   0.89516    0.000
 6289.00    0.76550   0.89652    0.000
 6290.00    0.74174   0.89739    0.000
 6291.00    0.72869   0.89766    0.000
 6292.00    0.75538   0.89722    0.000
 6293.00    0.78671   0.89606    0.000
 6294.00    0.83249   0.89422    0.000
 6295.00    0.85528   0.89179    0.000
 6296.00    0.81746   0.88897    0.000
 6297.00    0.77786   0.88591    0.000
 6298.00    0.73424   0.88286    0.000
 6299.00    0.71056   0.87999    0.000
 6300.00    0.72601   0.87755    0.000
 6301.00    0.77760   0.87564    0.000
 6302.00    0.89096   0.87445    0.000
 6303.00    0.94838   0.87396    0.000
 6304.00    0.92204   0.87426    0.000
 6305.00    0.85984   0.87514    0.000
 6306.00    0.75046   0.87658    0.000
 6307.00    0.66928   0.87821    0.000
 6308.00    0.62080   0.87994    0.000
 6309.00    0.58175   0.88134    0.000
 6310.00    0.55233   0.88235    0.000
 6311.00    0.57607   0.88262    0.000
 6312.00    0.64773   0.88221    0.000
 6313.00    0.72852   0.88100    0.000
 6314.00    0.81657   0.87920    0.000
 6315.00    0.85011   0.87691    0.000
 6316.00    0.84554   0.87446    0.000
 6317.00    0.82847   0.87209    0.000
 6318.00    0.80374   0.87012    0.000
 6319.00    0.84812   0.86877    0.000
 6320.00    0.92951   0.86826    0.000
 6321.00    0.93556   0.86866    0.006
 6322.00    0.90658   0.86997    0.006
 6323.00    0.84184   0.87214    0.006
 6324.00    0.76277   0.87492    0.006
 6325.00    0.72817   0.87818    0.006
 6326.00    0.70876   0.88153    0.006
 6327.00    0.71627   0.88484    0.006
 6328.00    0.73152   0.88773    0.006
 6329.00    0.72414   0.89011    0.006
 6330.00    0.71138   0.89174    0.006
 6331.00    0.73595   0.89260    0.006
 6332.00    0.76765   0.89263    0.006
 6333.00    0.80399   0.89190    0.006
 6334.00    0.84101   0.89052    0.006
 6335.00    0.83854   0.88864    0.006
 6336.00    0.83178   0.88644    0.006
 6337.00    0.80511   0.88417    0.006
 6338.00    0.77701   0.88194    0.006
 6339.00    0.76188   0.88002    0.006
 6340.00    0.74723   0.87841    0.006
 6341.00    0.71500   0.87728    0.006
 6342.00    0.68570   0.87659    0.006
 6343.00    0.76162   0.87636    0.006
 6344.00    0.83876   0.87654    0.006
 6345.00    0.93511   0.87704    0.006
 6346.00    1.02416   0.87786    0.006
 6347.00    1.03970   0.87881    0.006
 6348.00    1.04632   0.87992    0.006
 6349.00    0.98855   0.88092    0.006
 6350.00    0.94576   0.88179    0.006
 6351.00    0.98584   0.88223    0.006
 6352.00    1.01097   0.88218    0.006
 6353.00    0.96992   0.88140    0.006
 6354.00    0.92285   0.87985    0.006
 6355.00    0.85393   0.87747    0.006
 6356.00    0.81208   0.87432    0.006
 6357.00    0.85267   0.87053    0.006
 6358.00    0.90495   0.86632    0.006
 6359.00    0.98748   0.86196    0.006
 6360.00    1.06069   0.85779    0.006
 6361.00    1.11315   0.85412    0.006
 6362.00    1.13286   0.85127    0.006
 6363.00    1.08936   0.84947    0.006
 6364.00    1.03094   0.84893    0.006
 6365.00    0.94741   0.84970    0.006
 6366.00    0.91660   0.85177    0.006
 6367.00    0.96360   0.85500    0.006
 6368.00    0.99673   0.85919    0.006
 6369.00    1.01187   0.86405    0.006
 6370.00    1.02064   0.86928    0.006
 6371.00    1.02212   0.87458    0.006
 6372.00    0.99979   0.87967    0.006
 6373.00    0.95346   0.88432    0.006
 6374.00    0.88543   0.88834    0.006
 6375.00    0.79810   0.89163    0.006
 6376.00    0.74607   0.89414    0.006
 6377.00    0.72167   0.89588    0.006
 6378.00    0.71639   0.89693    0.006
 6379.00    0.72429   0.89739    0.006
 6380.00    0.77322   0.89739    0.006
 6381.00    0.84693   0.89710    0.006
 6382.00    0.89416   0.89665    0.006
 6383.00    0.92743   0.89617    0.006
 6384.00    0.89612   0.89570    0.006
 6385.00    0.83528   0.89532    0.006
 6386.00    0.80866   0.89496    0.006
 6387.00    0.79551   0.89459    0.006
 6388.00    0.77429   0.89411    0.006
 6389.00    0.75037   0.89345    0.006
 6390.00    0.76433   0.89251    0.006
 6391.00    0.78895   0.89132    0.006
 6392.00    0.84701   0.88982    0.006
 6393.00    0.91283   0.88814    0.006
 6394.00    0.96821   0.88634    0.006
 6395.00    1.02165   0.88457    0.006
 6396.00    1.01147   0.88291    0.006
 6397.00    0.99215   0.88151    0.006
 6398.00    0.92223   0.88047    0.006
 6399.00    0.84703   0.87974    0.006
 6400.00    0.88967   0.87948    0.006
 6401.00    0.94023   0.87948    0.006
 6402.00    0.98440   0.87989    0.006
 6403.00    1.02836   0.88038    0.006
 6404.00    0.94607   0.88109    0.006
 6405.00    0.86449   0.88170    0.006
 6406.00    0.80539   0.88227    0.006
 6407.00    0.75358   0.88258    0.006
 6408.00    0.81118   0.88267    0.006
 6409.00    0.86716   0.88247    0.006
 6410.00    0.90758   0.88202    0.006
 6411.00    0.93231   0.88141    0.006
 6412.00    0.84752   0.88067    0.006
 6413.00    0.77042   0.87993    0.006
 6414.00    0.73471   0.87918    0.006
 6415.00    0.70916   0.87857    0.006
 6416.00    0.72756   0.87803    0.006
 6417.00    0.74262   0.87768    0.006
 6418.00    0.74582   0.87743    0.006
 6419.00    0.75765   0.87741    0.006
 6420.00    0.79525   0.87758    0.006
 6421.00    0.82583   0.87801    0.006
 6422.00    0.83853   0.87873    0.006
 6423.00    0.83974   0.87966    0.006
 6424.00    0.81577   0.88086    0.006
 6425.00    0.76353   0.88211    0.006
 6426.00    0.65757   0.88344    0.006
 6427.00    0.60569   0.88452    0.006
 6428.00    0.64354   0.88542    0.006
 6429.00    0.73042   0.88588    0.006
 6430.00    0.88860   0.88598    0.006
 6431.00    0.97616   0.88574    0.006
 6432.00    0.97343   0.88518    0.006
 6433.00    0.92480   0.88456    0.006
 6434.00    0.82445   0.88386    0.006
 6435.00    0.79620   0.88342    0.006
 6436.00    0.83960   0.88312    0.006
 6437.00    0.84049   0.88326    0.006
 6438.00    0.80412   0.88365    0.006
 6439.00    0.71054   0.88448    0.006
 6440.00    0.57278   0.88550    0.006
 6441.00    0.52747   0.88678    0.006
 6442.00    0.54491   0.88805    0.006
 6443.00    0.58927   0.88923    0.006
 6444.00    0.64965   0.89011    0.006
 6445.00    0.70465   0.89050    0.006
 6446.00    0.75685   0.89030    0.006
 6447.00    0.78791   0.88936    0.006
 6448.00    0.80945   0.88778    0.006
 6449.00    0.75041   0.88559    0.006
 6450.00    0.66018   0.88310    0.006
 6451.00    0.63295   0.88044    0.006
 6452.00    0.62645   0.87808    0.006
 6453.00    0.70651   0.87602    0.006
 6454.00    0.81046   0.87474    0.006
 6455.00    0.89978   0.87400    0.006
 6456.00    0.98579   0.87411    0.006
 6457.00    0.92720   0.87464    0.006
 6458.00    0.84239   0.87569    0.006
 6459.00    0.78038   0.87681    0.006
 6460.00    0.72154   0.87805    0.006
 6461.00    0.78266   0.87910    0.006
 6462.00    0.85575   0.88000    0.006
 6463.00    0.82614   0.88071    0.006
 6464.00    0.79005   0.88125    0.006
 6465.00    0.74646   0.88177    0.006
 6466.00    0.70282   0.88220    0.006
 6467.00    0.70519   0.88283    0.006
 6468.00    0.70879   0.88335    0.006
 6469.00    0.74660   0.88416    0.006
 6470.00    0.78076   0.88474    0.006
 6471.00    0.76330   0.88551    0.006
 6472.00    0.74777   0.88595    0.006
 6473.00    0.75016   0.88641    0.006
 6474.00    0.74874   0.88652    0.006
 6475.00    0.72165   0.88646    0.006
 6476.00    0.70598   0.88613    0.006
 6477.00    0.75022   0.88549    0.006
 6478.00    0.79723   0.88465    0.006
 6479.00    0.85590   0.88344    0.006
 6480.00    0.88610   0.88210    0.006
 6481.00    0.81703   0.88043    0.006
 6482.00    0.76312   0.87870    0.006
 6483.00    0.75366   0.87675    0.006
 6484.00    0.77617   0.87474    0.006
 6485.00    0.87869   0.87257    0.006
 6486.00    0.94344   0.87020    0.006
 6487.00    0.92681   0.86753    0.006
 6488.00    0.88555   0.86437    0.006
 6489.00    0.79823   0.86061    0.006
 6490.00    0.75596   0.85607    0.006
 6491.00    0.78729   0.85073    0.006
 6492.00    0.80849   0.84466    0.006
 6493.00    0.81515   0.83801    0.005
 6494.00    0.78958   0.83117    0.005
 6495.00    0.72336   0.82452    0.005
 6496.00    0.69087   0.81862    0.005
 6497.00    0.69585   0.81391    0.006
 6498.00    0.73866   0.81077    0.006
 6499.00    0.81855   0.80959    0.006
 6500.00    0.88243   0.81026    0.006
 6501.00    0.93248   0.81303    0.006
 6502.00    0.92274   0.81724    0.006
 6503.00    0.86750   0.82296    0.006
 6504.00    0.85680   0.82927    0.006
 6505.00    0.87591   0.83614    0.006
 6506.00    0.92096   0.84275    0.006
 6507.00    0.98122   0.84904    0.006
 6508.00    0.97776   0.85452    0.006
 6509.00    0.94174   0.85916    0.006
 6510.00    0.83763   0.86280    0.006
 6511.00    0.70338   0.86544    0.006
 6512.00    0.64742   0.86723    0.006
 6513.00    0.62122   0.86816    0.006
 6514.00    0.65365   0.86851    0.006
 6515.00    0.70501   0.86829    0.005
 6516.00    0.71348   0.86783    0.005
 6517.00    0.71036   0.86713    0.006
 6518.00    0.70708   0.86647    0.006
 6519.00    0.70377   0.86589    0.006
 6520.00    0.74352   0.86552    0.006
 6521.00    0.79088   0.86544    0.006
 6522.00    0.81144   0.86554    0.006
 6523.00    0.82840   0.86594    0.006
 6524.00    0.83314   0.86635    0.006
 6525.00    0.83671   0.86694    0.006
 6526.00    0.85265   0.86734    0.006
 6527.00    0.86932   0.86776    0.006
 6528.00    0.83160   0.86790    0.000
 6529.00    0.79322   0.86802    0.000
 6530.00    0.85502   0.86790    0.000
 6531.00    0.91485   0.86780    0.000
 6532.00    0.92519   0.86764    0.000
 6533.00    0.93301   0.86755    0.000
 6534.00    0.90729   0.86754    0.000
 6535.00    0.88547   0.86763    0.000
 6536.00    0.89839   0.86781    0.000
 6537.00    0.90285   0.86798    0.000
 6538.00    0.85182   0.86811    0.000
 6539.00    0.81125   0.86801    0.000
 6540.00    0.82418   0.86765    0.000
 6541.00    0.83378   0.86683    0.000
 6542.00    0.82968   0.86555    0.000
 6543.00    0.84101   0.86376    0.000
 6544.00    0.90510   0.86149    0.000
 6545.00    0.96117   0.85872    0.000
 6546.00    0.99416   0.85560    0.000
 6547.00    0.99206   0.85212    0.000
 6548.00    0.90365   0.84852    0.000
 6549.00    0.81972   0.84465    0.000
 6550.00    0.74530   0.84070    0.000
 6551.00    0.72099   0.83642    0.000
 6552.00    0.78898   0.83193    0.000
 6553.00    0.85088   0.82695    0.000
 6554.00    0.90299   0.82146    0.000
 6555.00    0.96401   0.81521    0.000
 6556.00    1.03761   0.80823    0.000
 6557.00    1.11663   0.80048    0.000
 6558.00    1.20239   0.79202    0.000
 6559.00    1.29779   0.78295    0.000
 6560.00    1.40376   0.77375    0.000
 6561.00    1.41528   0.76470    0.000
 6562.00    1.33556   0.75647    0.000
 6563.00    1.20660   0.74945    0.000
 6564.00    1.03570   0.74424    0.000
 6565.00    0.92448   0.74124    0.000
 6566.00    0.85804   0.74054    0.000
 6567.00    0.80498   0.74237    0.000
 6568.00    0.76073   0.74621    0.000
 6569.00    0.72780   0.75200    0.000
 6570.00    0.70140   0.75893    0.000
 6571.00    0.69752   0.76680    0.000
 6572.00    0.70498   0.77482    0.000
 6573.00    0.72275   0.78286    0.000
 6574.00    0.74502   0.79036    0.000
 6575.00    0.79202   0.79707    0.000
 6576.00    0.84824   0.80302    0.000
 6577.00    0.91478   0.80841    0.000
 6578.00    0.98458   0.81315    0.000
 6579.00    1.00787   0.81755    0.000
 6580.00    1.01885   0.82140    0.000
 6581.00    1.02852   0.82499    0.000
 6582.00    1.03791   0.82805    0.000
 6583.00    1.02602   0.83085    0.000
 6584.00    1.01049   0.83313    0.000
 6585.00    0.93985   0.83496    0.000
 6586.00    0.86205   0.83628    0.000
 6587.00    0.81859   0.83701    0.000
 6588.00    0.77826   0.83725    0.000
 6589.00    0.76960   0.83694    0.000
 6590.00    0.76270   0.83620    0.000
 6591.00    0.82249   0.83502    0.000
 6592.00    0.88177   0.83352    0.000
 6593.00    0.75583   0.83189    0.000
 6594.00    0.63177   0.83021    0.000
 6595.00    0.55045   0.82888    0.000
 6596.00    0.47665   0.82775    0.000
 6597.00    0.49824   0.82721    0.000
 6598.00    0.51837   0.82710    0.000
 6599.00    0.52602   0.82748    0.000
 6600.00    0.54424   0.82824    0.000
 6601.00    0.62967   0.82933    0.000
 6602.00    0.72920   0.83061    0.000
 6603.00    0.89890   0.83165    0.000
 6604.00    1.02430   0.83245    0.000
 6605.00    0.97085   0.83287    0.000
 6606.00    0.93173   0.83298    0.000
 6607.00    0.94058   0.83291    0.000
 6608.00    0.95561   0.83264    0.000
 6609.00    0.98810   0.83241    0.006
 6610.00    1.00588   0.83226    0.006
 6611.00    0.98807   0.83248    0.006
 6612.00    0.97382   0.83301    0.006
 6613.00    0.96698   0.83404    0.006
 6614.00    0.94806   0.83543    0.006
 6615.00    0.90723   0.83705    0.006
 6616.00    0.86714   0.83886    0.006
 6617.00    0.82823   0.84059    0.006
 6618.00    0.80250   0.84237    0.006
 6619.00    0.79510   0.84355    0.006
 6620.00    0.79945   0.84437    0.006
 6621.00    0.81819   0.84456    0.006
 6622.00    0.83324   0.84440    0.006
 6623.00    0.84429   0.84364    0.006
 6624.00    0.83529   0.84233    0.006
 6625.00    0.80718   0.84067    0.006
 6626.00    0.79079   0.83865    0.006
 6627.00    0.78426   0.83651    0.005
 6628.00    0.81282   0.83408    0.005
 6629.00    0.86732   0.83175    0.005
 6630.00    0.88546   0.82929    0.005
 6631.00    0.87999   0.82713    0.005
 6632.00    0.85059   0.82503    0.006
 6633.00    0.80758   0.82335    0.006
 6634.00    0.84504   0.82192    0.006
 6635.00    0.92232   0.82073    0.006
 6636.00    0.95059   0.81999    0.006
 6637.00    0.95788   0.81950    0.006
 6638.00    0.85026   0.81945    0.006
 6639.00    0.70050   0.81956    0.006
 6640.00    0.66685   0.82001    0.006
 6641.00    0.66926   0.82050    0.006
 6642.00    0.68237   0.82117    0.006
 6643.00    0.69825   0.82175    0.006
 6644.00    0.71699   0.82224    0.006
 6645.00    0.73634   0.82264    0.006
 6646.00    0.77067   0.82299    0.006
 6647.00    0.80749   0.82330    0.005
 6648.00    0.82242   0.82360    0.005
 6649.00    0.83460   0.82389    0.005
 6650.00    0.76619   0.82419    0.006
 6651.00    0.69074   0.82438    0.006
 6652.00    0.60979   0.82466    0.006
 6653.00    0.52856   0.82466    0.006
 6654.00    0.57022   0.82458    0.006
 6655.00    0.61389   0.82419    0.006
 6656.00    0.64532   0.82365    0.006
 6657.00    0.67687   0.82275    0.006
 6658.00    0.71089   0.82163    0.006
 6659.00    0.74661   0.82021    0.006
 6660.00    0.80269   0.81860    0.006
 6661.00    0.84436   0.81684    0.006
 6662.00    0.76700   0.81493    0.006
 6663.00    0.70921   0.81319    0.006
 6664.00    0.77226   0.81142    0.006
 6665.00    0.83055   0.81008    0.006
 6666.00    0.86575   0.80895    0.006
 6667.00    0.89116   0.80838    0.006
 6668.00    0.87792   0.80810    0.006
 6669.00    0.85207   0.80834    0.006
 6670.00    0.78484   0.80896    0.006
 6671.00    0.73874   0.80968    0.006
 6672.00    0.75131   0.81051    0.006
 6673.00    0.78101   0.81114    0.005
 6674.00    0.85141   0.81158    0.005
 6675.00    0.90878   0.81167    0.006
 6676.00    0.93940   0.81142    0.006
 6677.00    0.94873   0.81080    0.006
 6678.00    0.92002   0.81002    0.006
 6679.00    0.89229   0.80911    0.006
 6680.00    0.86606   0.80836    0.006
 6681.00    0.85167   0.80777    0.006
 6682.00    0.85353   0.80745    0.006
 6683.00    0.86900   0.80750    0.006
 6684.00    0.90092   0.80805    0.006
 6685.00    0.90809   0.80911    0.006
 6686.00    0.88892   0.81011    0.006
 6687.00    0.85034   0.81138    0.006
 6688.00    0.79354   0.81237    0.006
 6689.00    0.75722   0.81331    0.006
 6690.00    0.73785   0.81387    0.006
 6691.00    0.77647   0.81411    0.006
 6692.00    0.85735   0.81401    0.006
 6693.00    0.88731   0.81347    0.006
 6694.00    0.88468   0.81276    0.006
 6695.00    0.88332   0.81172    0.006
 6696.00    0.88268   0.81061    0.000
 6697.00    0.88348   0.80934    0.000
 6698.00    0.88498   0.80817    0.000
 6699.00    0.92877   0.80703    0.000
 6700.00    0.99034   0.80608    0.000
 6701.00    0.99902   0.80523    0.000
 6702.00    0.98865   0.80462    0.000
 6703.00    0.88687   0.80432    0.000
 6704.00    0.75725   0.80397    0.000
 6705.00    0.70168   0.80384    0.000
 6706.00    0.66485   0.80346    0.000
 6707.00    0.66939   0.80301    0.000
 6708.00    0.68244   0.80231    0.000
 6709.00    0.78818   0.80137    0.000
 6710.00    0.90891   0.80027    0.000
 6711.00    0.92120   0.79890    0.000
 6712.00    0.92035   0.79730    0.000
 6713.00    0.85272   0.79538    0.000
 6714.00    0.77954   0.79339    0.000
 6715.00    0.75296   0.79128    0.000
 6716.00    0.72858   0.78927    0.000
 6717.00    0.78257   0.78759    0.000
 6718.00    0.83690   0.78610    0.000
 6719.00    0.84884   0.78514    0.000
 6720.00    0.85903   0.78468    0.000
 6721.00    0.83507   0.78470    0.000
 6722.00    0.82053   0.78533    0.000
 6723.00    0.91407   0.78629    0.000
 6724.00    0.99469   0.78798    0.000
 6725.00    0.97230   0.78953    0.000
 6726.00    0.94594   0.79124    0.000
 6727.00    0.89573   0.79274    0.000
 6728.00    0.84495   0.79435    0.000
 6729.00    0.79149   0.79571    0.000
 6730.00    0.74901   0.79677    0.000
 6731.00    0.74894   0.79756    0.000
 6732.00    0.76345   0.79813    0.000
 6733.00    0.82489   0.79857    0.000
 6734.00    0.85958   0.79853    0.000
 6735.00    0.82133   0.79838    0.000
 6736.00    0.76920   0.79777    0.000
 6737.00    0.68469   0.79705    0.000
 6738.00    0.67578   0.79595    0.000
 6739.00    0.81965   0.79485    0.000
 6740.00    0.93355   0.79357    0.000
 6741.00    0.99473   0.79225    0.000
 6742.00    0.98179   0.79085    0.000
 6743.00    0.85474   0.78937    0.000
 6744.00    0.73547   0.78807    0.000
 6745.00    0.62672   0.78685    0.000
 6746.00    0.58630   0.78582    0.000
 6747.00    0.62721   0.78476    0.000
 6748.00    0.66982   0.78390    0.000
 6749.00    0.71423   0.78322    0.000
 6750.00    0.73947   0.78292    0.000
 6751.00    0.74696   0.78264    0.000
 6752.00    0.79636   0.78282    0.000
 6753.00    0.87997   0.78323    0.006
 6754.00    0.93028   0.78405    0.007
 6755.00    0.95666   0.78523    0.007
 6756.00    0.88635   0.78661    0.007
 6757.00    0.75506   0.78845    0.007
 6758.00    0.66963   0.79003    0.007
 6759.00    0.60947   0.79199    0.007
 6760.00    0.70034   0.79367    0.007
 6761.00    0.86359   0.79511    0.007
 6762.00    1.01994   0.79629    0.007
 6763.00    1.17344   0.79696    0.007
 6764.00    1.16894   0.79730    0.007
 6765.00    1.10856   0.79707    0.007
 6766.00    0.94107   0.79667    0.007
 6767.00    0.74161   0.79584    0.007
 6768.00    0.81390   0.79508    0.007
 6769.00    0.95351   0.79424    0.007
 6770.00    0.98945   0.79357    0.007
 6771.00    1.00458   0.79314    0.006
 6772.00    0.82402   0.79302    0.006
 6773.00    0.61271   0.79336    0.006
 6774.00    0.62606   0.79398    0.006
 6775.00    0.66560   0.79490    0.006
 6776.00    0.66535   0.79576    0.006
 6777.00    0.66196   0.79677    0.006
 6778.00    0.77528   0.79753    0.006
 6779.00    0.89368   0.79802    0.006
 6780.00    0.84986   0.79802    0.006
 6781.00    0.80516   0.79751    0.006
 6782.00    0.79850   0.79664    0.006
 6783.00    0.78931   0.79523    0.006
 6784.00    0.73411   0.79373    0.006
 6785.00    0.68731   0.79187    0.006
 6786.00    0.73232   0.79008    0.006
 6787.00    0.77470   0.78835    0.006
 6788.00    0.79690   0.78690    0.006
 6789.00    0.81190   0.78584    0.007
 6790.00    0.78495   0.78512    0.007
 6791.00    0.76826   0.78488    0.006
 6792.00    0.79903   0.78470    0.006
 6793.00    0.83746   0.78485    0.006
 6794.00    0.90482   0.78499    0.006
 6795.00    0.95259   0.78523    0.006
 6796.00    0.93854   0.78555    0.006
 6797.00    0.94693   0.78585    0.006
 6798.00    1.01541   0.78627    0.006
 6799.00    1.07653   0.78660    0.006
 6800.00    1.12073   0.78717    0.006
 6801.00    1.10900   0.78761    0.006
 6802.00    0.98600   0.78810    0.006
 6803.00    0.89384   0.78855    0.006
 6804.00    0.85511   0.78887    0.006
 6805.00    0.82342   0.78914    0.006
 6806.00    0.80241   0.78926    0.006
 6807.00    0.81258   0.78923    0.006
 6808.00    0.86431   0.78916    0.006
 6809.00    0.91058   0.78892    0.006
 6810.00    0.95045   0.78867    0.006
 6811.00    0.97721   0.78844    0.006
 6812.00    0.99040   0.78815    0.007
 6813.00    0.92987   0.78793    0.007
 6814.00    0.80204   0.78784    0.007
 6815.00    0.74392   0.78781    0.006
 6816.00    0.74190   0.78791    0.006
 6817.00    0.76131   0.78817    0.006
 6818.00    0.79589   0.78843    0.006
 6819.00    0.74995   0.78893    0.006
 6820.00    0.65398   0.78949    0.006
 6821.00    0.59320   0.79012    0.006
 6822.00    0.55151   0.79079    0.006
 6823.00    0.57860   0.79125    0.006
 6824.00    0.63811   0.79177    0.006
 6825.00    0.70447   0.79214    0.006
 6826.00    0.77363   0.79248    0.006
 6827.00    0.82295   0.79263    0.006
 6828.00    0.86539   0.79262    0.006
 6829.00    0.85941   0.79240    0.006
 6830.00    0.83927   0.79203    0.006
 6831.00    0.78490   0.79141    0.006
 6832.00    0.72223   0.79077    0.006
 6833.00    0.75383   0.78994    0.006
 6834.00    0.80388   0.78907    0.006
 6835.00    0.81911   0.78794    0.006
 6836.00    0.82903   0.78659    0.006
 6837.00    0.89685   0.78502    0.006
 6838.00    0.97116   0.78326    0.006
 6839.00    0.90946   0.78142    0.006
 6840.00    0.83760   0.77947    0.006
 6841.00    0.79236   0.77768    0.006
 6842.00    0.74819   0.77593    0.006
 6843.00    0.73962   0.77465    0.006
 6844.00    0.73201   0.77366    0.006
 6845.00    0.75321   0.77321    0.006
 6846.00    0.77096   0.77329    0.006
 6847.00    0.73034   0.77376    0.006
 6848.00    0.69229   0.77459    0.006
 6849.00    0.68100   0.77539    0.006
 6850.00    0.66766   0.77618    0.006
 6851.00    0.63911   0.77669    0.006
 6852.00    0.61729   0.77694    0.006
 6853.00    0.63357   0.77682    0.006
 6854.00    0.63904   0.77635    0.006
 6855.00    0.59573   0.77559    0.006
 6856.00    0.57344   0.77455    0.006
 6857.00    0.62893   0.77333    0.006
 6858.00    0.66477   0.77188    0.006
 6859.00    0.63974   0.77068    0.006
 6860.00    0.60769   0.76962    0.006
 6861.00    0.55720   0.76874    0.006
 6862.00    0.52659   0.76821    0.006
 6863.00    0.54095   0.76776    0.006
 6864.00    0.60927   0.76744    0.006
 6865.00    0.78320   0.76735    0.006
 6866.00    0.88789   0.76745    0.006
 6867.00    0.87443   0.76767    0.006
 6868.00    0.84676   0.76782    0.006
 6869.00    0.79783   0.76792    0.006
 6870.00    0.75370   0.76792    0.006
 6871.00    0.71585   0.76782    0.006
 6872.00    0.72210   0.76801    0.006
 6873.00    0.77937   0.76823    0.006
 6874.00    0.75830   0.76849    0.006
 6875.00    0.65730   0.76876    0.006
 6876.00    0.56889   0.76912    0.006
 6877.00    0.49181   0.76961    0.006
 6878.00    0.56964   0.77005    0.006
 6879.00    0.77035   0.77065    0.006
 6880.00    0.85883   0.77121    0.006
 6881.00    0.86899   0.77192    0.006
 6882.00    0.82503   0.77246    0.006
 6883.00    0.74793   0.77319    0.006
 6884.00    0.78685   0.77381    0.006
 6885.00    0.88776   0.77459    0.006
 6886.00    0.87459   0.77555    0.006
 6887.00    0.80850   0.77678    0.006
 6888.00    0.77265   0.77822    0.006
 6889.00    0.74890   0.77954    0.006
 6890.00    0.83754   0.78117    0.006
 6891.00    0.96449   0.78262    0.006
 6892.00    0.91648   0.78404    0.006
 6893.00    0.81831   0.78528    0.006
 6894.00    0.81943   0.78641    0.006
 6895.00    0.84407   0.78720    0.006
 6896.00    0.79077   0.78777    0.006
 6897.00    0.72261   0.78830    0.006
 6898.00    0.78102   0.78854    0.006
 6899.00    0.85813   0.78877    0.006
 6900.00    0.84931   0.78900    0.006
 6901.00    0.83122   0.78927    0.006
 6902.00    0.75256   0.78946    0.006
 6903.00    0.66962   0.78960    0.006
 6904.00    0.72704   0.78985    0.006
 6905.00    0.78949   0.79013    0.006
 6906.00    0.80375   0.79029    0.006
 6907.00    0.81679   0.79033    0.006
 6908.00    0.79305   0.79031    0.006
 6909.00    0.76732   0.79007    0.006
 6910.00    0.70998   0.78983    0.006
 6911.00    0.65546   0.78924    0.006
 6912.00    0.62920   0.78861    0.006
 6913.00    0.62085   0.78778    0.006
 6914.00    0.74120   0.78684    0.006
 6915.00    0.83513   0.78580    0.006
 6916.00    0.78339   0.78482    0.006
 6917.00    0.72365   0.78382    0.006
 6918.00    0.62860   0.78306    0.006
 6919.00    0.55712   0.78255    0.006
 6920.00    0.57101   0.78186    0.006
 6921.00    0.57933   0.78156    0.006
 6922.00    0.57065   0.78115    0.006
 6923.00    0.55969   0.78081    0.006
 6924.00    0.54280   0.78041    0.006
 6925.00    0.58086   0.77984    0.006
 6926.00    0.74109   0.77935    0.006
 6927.00    0.86534   0.77855    0.006
 6928.00    0.92024   0.77802    0.006
 6929.00    0.91092   0.77752    0.006
 6930.00    0.79367   0.77737    0.006
 6931.00    0.71207   0.77733    0.006
 6932.00    0.68296   0.77731    0.006
 6933.00    0.69494   0.77755    0.006
 6934.00    0.76012   0.77765    0.006
 6935.00    0.81890   0.77799    0.006
 6936.00    0.87038   0.77809    0.006
 6937.00    0.86165   0.77846    0.006
 6938.00    0.79234   0.77889    0.006
 6939.00    0.75158   0.77907    0.006
 6940.00    0.73618   0.77921    0.006
 6941.00    0.71302   0.77907    0.006
 6942.00    0.68382   0.77896    0.006
 6943.00    0.66310   0.77855    0.006
 6944.00    0.64822   0.77811    0.006
 6945.00    0.70253   0.77735    0.006
 6946.00    0.79855   0.77650    0.006
 6947.00    0.78140   0.77566    0.006
 6948.00    0.70472   0.77478    0.006
 6949.00    0.67969   0.77428    0.006
 6950.00    0.67822   0.77399    0.006
 6951.00    0.63126   0.77375    0.006
 6952.00    0.56643   0.77362    0.006
 6953.00    0.64511   0.77369    0.006
 6954.00    0.77179   0.77363    0.006
 6955.00    0.86797   0.77399    0.006
 6956.00    0.95558   0.77454    0.006
 6957.00    0.87574   0.77523    0.006
 6958.00    0.75715   0.77620    0.006
 6959.00    0.72314   0.77734    0.006
 6960.00    0.70483   0.77865    0.006
 6961.00    0.74214   0.77979    0.006
 6962.00    0.78740   0.78105    0.006
 6963.00    0.64768   0.78211    0.006
 6964.00    0.48881   0.78324    0.006
 6965.00    0.65268   0.78418    0.006
 6966.00    0.83806   0.78490    0.006
 6967.00    0.81998   0.78545    0.006
 6968.00    0.79533   0.78560    0.006
 6969.00    0.64224   0.78541    0.006
 6970.00    0.49789   0.78498    0.006
 6971.00    0.62131   0.78434    0.006
 6972.00    0.73744   0.78314    0.006
 6973.00    0.74486   0.78155    0.006
 6974.00    0.74886   0.77957    0.006
 6975.00    0.71986   0.77747    0.006
 6976.00    0.71056   0.77554    0.006
 6977.00    0.83828   0.77321    0.006
 6978.00    0.94112   0.77109    0.006
 6979.00    0.91038   0.76922    0.006
 6980.00    0.86872   0.76789    0.006
 6981.00    0.77995   0.76690    0.006
 6982.00    0.72488   0.76667    0.006
 6983.00    0.78941   0.76771    0.006
 6984.00    0.82722   0.76914    0.006
 6985.00    0.78535   0.77093    0.006
 6986.00    0.73903   0.77293    0.006
 6987.00    0.68144   0.77497    0.006
 6988.00    0.65766   0.77691    0.006
 6989.00    0.70782   0.77865    0.006
 6990.00    0.74866   0.78016    0.006
 6991.00    0.77182   0.78131    0.006
 6992.00    0.84465   0.78196    0.006
 6993.00    0.99968   0.78239    0.006
 6994.00    1.02939   0.78270    0.006
 6995.00    0.87722   0.78261    0.006
 6996.00    0.80921   0.78209    0.006
 6997.00    0.84863   0.78118    0.006
 6998.00    0.88422   0.78007    0.006
 6999.00    0.91551   0.77894    0.006
 7000.00    0.94043   0.77758    0.006
 7001.00    0.95903   0.77621    0.006
 7002.00    0.97823   0.77456    0.006
 7003.00    0.99795   0.77306    0.006
 7004.00    0.96317   0.77195    0.006
 7005.00    0.88640   0.77110    0.006
 7006.00    0.80657   0.77022    0.006
 7007.00    0.72468   0.76919    0.006
 7008.00    0.68924   0.76842    0.006
 7009.00    0.68139   0.76786    0.006
 7010.00    0.70555   0.76749    0.006
 7011.00    0.74628   0.76713    0.006
 7012.00    0.67222   0.76683    0.006
 7013.00    0.54663   0.76643    0.006
 7014.00    0.64594   0.76583    0.006
 7015.00    0.83205   0.76531    0.007
 7016.00    0.78873   0.76491    0.007
 7017.00    0.67010   0.76437    0.006
 7018.00    0.64562   0.76377    0.006
 7019.00    0.64704   0.76304    0.006
 7020.00    0.73177   0.76291    0.006
 7021.00    0.83533   0.76349    0.006
 7022.00    0.87657   0.76391    0.006
 7023.00    0.90655   0.76430    0.006
 7024.00    0.91500   0.76466    0.006
 7025.00    0.92046   0.76509    0.006
 7026.00    0.95044   0.76530    0.006
 7027.00    0.98284   0.76576    0.006
 7028.00    0.90937   0.76650    0.006
 7029.00    0.82926   0.76751    0.006
 7030.00    0.70012   0.76841    0.007
 7031.00    0.57026   0.76930    0.007
 7032.00    0.61623   0.77030    0.007
 7033.00    0.66188   0.77126    0.007
 7034.00    0.69848   0.77227    0.007
 7035.00    0.74416   0.77322    0.007
 7036.00    0.91721   0.77426    0.007
 7037.00    1.06090   0.77544    0.007
 7038.00    0.93383   0.77672    0.007
 7039.00    0.83103   0.77819    0.006
 7040.00    0.89181   0.77977    0.006
 7041.00    0.93384   0.78102    0.006
 7042.00    0.87789   0.78276    0.007
 7043.00    0.84406   0.78501    0.007
 7044.00    0.90339   0.78694    0.007
 7045.00    0.92267   0.78850    0.006
 7046.00    0.80266   0.78944    0.006
 7047.00    0.71914   0.78994    0.006
 7048.00    0.74244   0.78966    0.007
 7049.00    0.75863   0.78914    0.007
 7050.00    0.75705   0.78793   -2.000
 7051.00    0.75889   0.78597   -2.000
 7052.00    0.76808   0.78335   -2.000
 7053.00    0.72792   0.77980   -2.000
 7054.00    0.59562   0.77583   -2.000
 7055.00    0.59722   0.77127   -2.000
 7056.00    0.81721   0.76645   -2.000
 7057.00    0.90984   0.76194   -2.000
 7058.00    0.82029   0.75761   -2.000
 7059.00    0.80415   0.75374   -2.000
 7060.00    0.88040   0.75006   -2.000
 7061.00    0.85997   0.74667   -2.000
 7062.00    0.73236   0.74347   -2.000
 7063.00    0.64333   0.74068   -2.000
 7064.00    0.59206   0.73860   -2.000
 7065.00    0.67864   0.73709   -2.000
 7066.00    0.88414   0.73587   -2.000
 7067.00    0.92590   0.73512   -2.000
 7068.00    0.84327   0.73474   -2.000
 7069.00    0.76729   0.73439   -2.000
 7070.00    0.69574   0.73447   -2.000
 7071.00    0.82716   0.73483   -2.000
 7072.00    1.07730   0.73575   -2.000
 7073.00    1.08992   0.73718   -2.000
 7074.00    0.98144   0.73873   -2.000
 7075.00    0.92954   0.74002   -2.000
 7076.00    0.90261   0.74115   -2.000
 7077.00    0.98616   0.74211   -2.000
 7078.00    1.11159   0.74252   -2.000
 7079.00    0.94558   0.74261   -2.000
 7080.00    0.68571   0.74216   -2.000
 7081.00    0.66916   0.74125   -2.000
 7082.00    0.71815   0.73965   -2.000
 7083.00    0.80874   0.73743   -2.000
 7084.00    0.90850   0.73463   -2.000
 7085.00    0.91376   0.73116   -2.000
 7086.00    0.90241   0.72732   -2.000
 7087.00    0.84069   0.72327   -2.000
 7088.00    0.77222   0.71938   -2.000
 7089.00    0.97618   0.71601   -2.000
 7090.00    1.20602   0.71281   -2.000
 7091.00    0.96640   0.70973   -2.000
 7092.00    0.69925   0.70731   -2.000
 7093.00    0.81066   0.70538   -2.000
 7094.00    0.93000   0.70386   -2.000
 7095.00    0.85970   0.70320   -2.000
 7096.00    0.79291   0.70253   -2.000
 7097.00    0.81306   0.70267   -2.000
 7098.00    0.82169   0.70307   -2.000
 7099.00    0.67734   0.70369   -2.000
 7100.00    0.55730   0.70451   -2.000
 7101.00    0.65279   0.70522   -2.000
 7102.00    0.72285   0.70625   -2.000
 7103.00    0.62685   0.70686   -2.000
 7104.00    0.56200   0.70749   -2.000
 7105.00    0.65583   0.70773   -2.000
 7106.00    0.74533   0.70795   -2.000
 7107.00    0.81701   0.70811   -2.000
 7108.00    0.86274   0.70812   -2.000
 7109.00    0.82002   0.70784   -2.000
 7110.00    0.82058   0.70740   -2.000
 7111.00    0.94549   0.70701   -2.000
 7112.00    1.03326   0.70668   -2.000
 7113.00    1.02989   0.70626   -2.000
 7114.00    1.01382   0.70577   -2.000
 7115.00    0.97088   0.70562   -2.000
 7116.00    0.89551   0.70552   -2.000
 7117.00    0.76051   0.70564   -2.000
 7118.00    0.69192   0.70543   -2.000
 7119.00    0.73004   0.70521   -2.000
 7120.00    0.69328   0.70491   -2.000
 7121.00    0.55096   0.70434   -2.000
 7122.00    0.52913   0.70381   -2.000
 7123.00    0.65675   0.70274   -2.000
 7124.00    0.79792   0.70179   -2.000
 7125.00    0.95391   0.70044   -2.000
 7126.00    0.90775   0.69917   -2.000
 7127.00    0.66663   0.69790   -2.000
 7128.00    0.66864   0.69637   -2.000
 7129.00    0.87739   0.69495   -2.000
 7130.00    0.96863   0.69368   -2.000
 7131.00    0.97185   0.69285   -2.000
 7132.00    1.08228   0.69211   -2.000
 7133.00    1.26324   0.69165   -2.000
 7134.00    1.02365   0.69144   -2.000
 7135.00    0.54180   0.69209   -2.000
 7136.00    0.46360   0.69288   -2.000
 7137.00    0.58795   0.69380   -2.000
 7138.00    0.59972   0.69491   -2.000
 7139.00    0.56260   0.69579   -2.000
 7140.00    0.69128   0.69693   -2.000
 7141.00    0.88171   0.69770   -2.000
 7142.00    0.90939   0.69819   -2.000
 7143.00    0.88566   0.69860   -2.000
 7144.00    0.93659   0.69912   -2.000
 7145.00    1.00720   0.69936   -2.000
 7146.00    1.03626   0.69918   -2.000
 7147.00    1.05636   0.69921   -2.000
 7148.00    0.89553   0.69898   -2.000
 7149.00    0.70378   0.69875   -2.000
 7150.00    0.70127   0.69878   -2.000
 7151.00    0.72326   0.69877   -2.000
 7152.00    0.85214   0.69920   -2.000
 7153.00    0.99073   0.70009   -2.000
 7154.00    0.96387   0.70085   -2.000
 7155.00    0.92795   0.70179   -2.000
 7156.00    0.60162   0.70272   -2.000
 7157.00    0.27460   0.70343   -2.000
 7158.00    0.43943   0.70388   -2.000
 7159.00    0.60882   0.70406   -2.000
 7160.00    0.88170   0.70459   -2.000
 7161.00    1.14557   0.70452   -2.000
 7162.00    1.29605   0.70438   -2.000
 7163.00    1.45084   0.70406   -2.000
 7164.00    1.64245   0.70368   -2.000
 7165.00    1.71242   0.70347   -2.000
 7166.00    1.01148   0.70314   -2.000
 7167.00    0.50586   0.70308   -2.000
 7168.00    0.97009   0.70314   -2.000
 7169.00    1.34336   0.70401   -2.000
 7170.00    1.35054   0.70498   -2.000
 7171.00    1.32502   0.70605   -2.000
 7172.00    1.19020   0.70717   -2.000
 7173.00    1.00469   0.70805   -2.000
 7174.00    0.67618   0.70887   -2.000
 7175.00    0.50349   0.70941   -2.000
 7176.00    0.70665   0.70979   -2.000
 7177.00    0.79571   0.70983   -2.000
 7178.00    0.64719   0.70954   -2.000
 7179.00    0.68782   0.70892   -2.000
 7180.00    1.07092   0.70798   -2.000
 7181.00    1.21953   0.70691   -2.000
 7182.00    0.99697   0.70545   -2.000
 7183.00    0.81063   0.70377   -2.000
 7184.00    0.67461   0.70229   -2.000
 7185.00    0.61306   0.70100   -2.000
 7186.00    0.64257   0.69991   -2.000
 7187.00    0.78608   0.69873   -2.000
 7188.00    1.05247   0.69732   -2.000
 7189.00    1.16273   0.69628   -2.000
 7190.00    1.12454   0.69512   -2.000
 7191.00    1.12456   0.69427   -2.000
 7192.00    1.15660   0.69414   -2.000
 7193.00    1.03081   0.69409   -2.000
 7194.00    0.78852   0.69451   -2.000
 7195.00    0.73496   0.69471   -2.000
 7196.00    0.80376   0.69509   -2.000
 7197.00    0.72514   0.69573   -2.000
 7198.00    0.56289   0.69650   -2.000
 7199.00    0.70892   0.69751   -2.000
 7200.00    1.00719   0.69803   -2.000
 7201.00    1.26143   0.69863   -2.000
 7202.00    1.49688   0.69922   -2.000
 7203.00    1.52593   0.69936   -2.000
 7204.00    1.47947   0.69962   -2.000
 7205.00    1.14113   0.69965   -2.000
 7206.00    0.71237   0.69964   -2.000
 7207.00    0.79372   0.69953   -2.000
 7208.00    1.00673   0.69897   -2.000
 7209.00    0.83673   0.69868   -2.000
 7210.00    0.58617   0.69807   -2.000
 7211.00    0.58860   0.69819   -2.000
 7212.00    0.63304   0.69881   -2.000
 7213.00    0.81371   0.69930   -2.000
 7214.00    1.01141   0.70031   -2.000
 7215.00    1.03073   0.70089   -2.000
 7216.00    1.03460   0.70164   -2.000
 7217.00    0.97373   0.70235   -2.000
 7218.00    0.90956   0.70342   -2.000
