###################################################################
## OUTPUT of StarlightChains_v04.for    [Cid@UFSC - 01/Apr/2007] ##
###################################################################

## Some input info
KUG0210-078._28_28.txt                   [arq_obs]
Base.CB07.vall.4m                        [arq_base]
Masks.EmLines.NEW.gm                     [arq_masks]
StCv04.C11.config                        [arq_config]
   66                                    [N_base]
    0                                    [N_YAV_components = # of components with extra extinction!]
    0                                    [i_FitPowerLaw (1/0 = Yes/No)]
-9.99                                    [alpha_PowerLaw]
CCM                                      [red_law_option]
 1.458241                                [q_norm = A(l_norm)/A(V)]

## (Re)Sampling Parameters
 3741.00                                 [l_ini (A)]
 7218.00                                 [l_fin (A)]
    1.00                                 [dl    (A)]     (OBS: dl_cushion =    50.00 A)

## Normalization info
 4020.00                                 [l_norm (A) - for base]
 4010.00                                 [llow_norm (A) - window for f_obs]
 4060.00                                 [lupp_norm (A) - window for f_obs]
3.500793E-17                             [fobs_norm (in input units)]

## S/N
 3691.00                                 [llow_SN (A) - window for S/N]
 7268.00                                 [lupp_SN (A) - window for S/N]
   5.767                                 [S/N in S/N window]
   7.842                                 [S/N in norm. window]
   0.039                                 [S/N_err in S/N window]
   0.053                                 [S/N_err in norm. window]
  1.0000                                 [fscale_chi2]

## etc...
    -2007376                             [idum_orig]
  2432                                   [NOl_eff]
  2142                                   [Nl_eff]
   290    NSIGMA                         [Ntot_cliped & clip_method]
 11077920                                [Nglobal_steps]
   7                                     [N_chains]
  42                                     [NEX0s_base = N_base in EX0s-fits]
 0   0   1      290   2.0   2.645E+04    [Clip-Bug, RC-Crash & Burn-In warning-flags, n_censored_weights, wei_nsig_threshold & wei_limit]
    97     96.570     96.117      0.454  [idt_all, wdt_TotTime, wdt_UsrTime & wdt_SysTime (sec)]

## Synthesis Results - Best model ##

 6.21061E-05                             [chi2/Nl_eff]
     8.86855                             [adev (%)]

    88.79382                             [sum-of-x (%)]
 3.27656E-17                             [Flux_tot (units of input spectrum!)]
 1.73099E-12                             [Mini_tot (???)]
 8.59543E-13                             [Mcor_tot (???)]

 -33.76                                  [v0_min  (km/s)]
  48.41                                  [vd_min  (km/s)]
 0.0392                                  [AV_min  (mag)]
 0.0000                                  [YAV_min (mag)]

# j     x_j(%)      Mini_j(%)     Mcor_j(%)     age_j(yr)     Z_j      (L/M)_j    YAV?  Mstars   component_j        a/Fe...       SSP_chi2r SSP_adev(%)   SSP_AV   SSP_x(%)
  1     12.2491     2.3869E-02    4.8068E-02    1.000000E+06  0.00400  1.094E-02    0   1.0000   age020_m42            0.0000     9.6720E-05    13.9893   2.5529    80.6784
  2      6.4358     3.4239E-03    6.8946E-03    3.160000E+06  0.00400  4.007E-02    0   0.9999   age045_m42            0.0000     9.2347E-05    12.8472   1.9476    82.5340
  3      0.0000     0.0000E+00    0.0000E+00    5.010000E+06  0.00400  2.539E-02    0   0.9488   age055_m42            0.0000     9.2809E-05    13.2523   2.2144    82.0928
  4      0.0000     0.0000E+00    0.0000E+00    6.610000E+06  0.00400  2.620E-02    0   0.9220   age061_m42            0.0000     9.0328E-05    12.5887   1.8810    82.5648
  5      1.4859     2.3961E-03    4.2762E-03    1.000000E+07  0.00400  1.322E-02    0   0.8862   age070_m42            0.0000     8.1026E-05    10.9925   1.6385    83.9116
  6      0.0000     0.0000E+00    0.0000E+00    1.445000E+07  0.00400  7.883E-03    0   0.8571   age078_m42            0.0000     8.4563E-05    11.6080   1.9253    82.8548
  7      0.0000     0.0000E+00    0.0000E+00    2.512000E+07  0.00400  5.251E-03    0   0.8174   age090_m42            0.0000     7.9649E-05    10.6076   1.5261    83.9548
  8      0.0000     0.0000E+00    0.0000E+00    4.000000E+07  0.00400  3.649E-03    0   0.7851   age104_m42            0.0000     7.8749E-05    10.4807   1.3172    84.0596
  9      0.0000     0.0000E+00    0.0000E+00    5.500000E+07  0.00400  3.098E-03    0   0.7629   age110_m42            0.0000     8.2570E-05    11.0622   1.4694    83.6857
 10      0.0000     0.0000E+00    0.0000E+00    1.015200E+08  0.00400  2.228E-03    0   0.7207   age116_m42            0.0000     8.4793E-05    11.3990   1.4891    83.5892
 11      0.0052     1.0226E-04    1.3691E-04    2.861200E+08  0.00400  1.093E-03    0   0.6648   age125_m42            0.0000     7.9803E-05    10.4451   0.9756    84.9086
 12      0.0000     0.0000E+00    0.0000E+00    5.088000E+08  0.00400  6.597E-04    0   0.6365   age130_m42            0.0000     8.1259E-05    10.8205   0.9719    85.0413
 13      0.0000     0.0000E+00    0.0000E+00    1.434000E+09  0.00400  2.132E-04    0   0.5798   age139_m42            0.0000     7.4238E-05    10.2886   0.0305    85.5668
 14      0.0000     0.0000E+00    0.0000E+00    4.250000E+09  0.00400  5.895E-05    0   0.5377   age158_m42            0.0000     7.5609E-05    11.6374  -0.4751    83.8115
 15      0.0000     0.0000E+00    0.0000E+00    7.500000E+09  0.00400  3.510E-05    0   0.5212   age171_m42            0.0000     7.6084E-05    11.9666  -0.6649    83.2433
 16      0.0000     0.0000E+00    0.0000E+00    1.300000E+10  0.00400  2.005E-05    0   0.5034   age193_m42            0.0000     7.6031E-05    12.2965  -0.8297    82.7493
 17      0.0000     0.0000E+00    0.0000E+00    1.800000E+10  0.00400  1.525E-05    0   0.4967   age213_m42            0.0000     7.6619E-05    12.2835  -0.8606    82.6116
 18      0.0000     0.0000E+00    0.0000E+00    1.000000E+06  0.00800  1.238E-02    0   1.0000   age020_m52            0.0000     9.5270E-05    13.9136   2.5543    80.8484
 19      0.0000     0.0000E+00    0.0000E+00    3.160000E+06  0.00800  3.074E-02    0   0.9966   age045_m52            0.0000     9.4619E-05    13.8155   2.4862    81.3876
 20      0.0000     0.0000E+00    0.0000E+00    5.010000E+06  0.00800  2.668E-02    0   0.9443   age055_m52            0.0000     9.2449E-05    13.2666   2.2838    81.8914
 21      0.0000     0.0000E+00    0.0000E+00    6.610000E+06  0.00800  2.136E-02    0   0.9177   age061_m52            0.0000     7.5515E-05    10.8155   1.1396    85.0136
 22      7.0416     1.2355E-02    2.1962E-02    1.000000E+07  0.00800  1.215E-02    0   0.8827   age070_m52            0.0000     8.0646E-05    10.7424   1.8115    84.2358
 23      0.0000     0.0000E+00    0.0000E+00    1.445000E+07  0.00800  8.717E-03    0   0.8552   age078_m52            0.0000     8.3464E-05    11.3521   1.9047    83.6687
 24      0.6368     2.4274E-03    3.9899E-03    2.512000E+07  0.00800  5.592E-03    0   0.8162   age090_m52            0.0000     7.9258E-05    10.3952   1.5987    84.7387
 25      0.0000     0.0000E+00    0.0000E+00    4.000000E+07  0.00800  3.896E-03    0   0.7841   age104_m52            0.0000     7.9460E-05    10.4638   1.5278    84.7089
 26      0.0000     0.0000E+00    0.0000E+00    1.015200E+08  0.00800  2.148E-03    0   0.7226   age116_m52            0.0000     8.1293E-05    10.9643   1.4657    84.2189
 27      0.0000     0.0000E+00    0.0000E+00    2.861200E+08  0.00800  9.925E-04    0   0.6683   age125_m52            0.0000     7.9073E-05    10.6564   1.0349    85.7962
 28      0.0000     0.0000E+00    0.0000E+00    9.047900E+08  0.00800  3.141E-04    0   0.6138   age135_m52            0.0000     7.5609E-05    10.6632   0.2810    87.4260
 29      0.0000     0.0000E+00    0.0000E+00    1.434000E+09  0.00800  1.719E-04    0   0.5853   age139_m52            0.0000     7.0553E-05    10.8704  -0.3267    86.6195
 30      0.0000     0.0000E+00    0.0000E+00    2.500000E+09  0.00800  7.872E-05    0   0.5600   age150_m52            0.0000     7.4559E-05    11.9485  -0.6307    85.2258
 31      0.0000     0.0000E+00    0.0000E+00    4.250000E+09  0.00800  4.336E-05    0   0.5426   age158_m52            0.0000     7.5447E-05    12.1236  -0.6551    84.6354
 32      0.0000     0.0000E+00    0.0000E+00    6.250000E+09  0.00800  3.159E-05    0   0.5319   age166_m52            0.0000     7.6670E-05    12.5930  -0.8591    84.4941
 33      0.0000     0.0000E+00    0.0000E+00    1.300000E+10  0.00800  1.361E-05    0   0.5073   age193_m52            0.0000     9.1945E-05    10.2824  -1.0000    75.5734
 34      4.9467     1.0667E+01    1.0719E+01    1.800000E+10  0.00800  9.886E-06    0   0.4990   age213_m52            0.0000     1.0504E-04    10.1827  -1.0000    72.4656
 35      0.0000     0.0000E+00    0.0000E+00    1.000000E+06  0.02000  1.544E-02    0   1.0000   age020_m62            0.0000     9.4362E-05    13.8808   2.5520    81.1297
 36      6.7502     3.8251E-03    7.5938E-03    3.160000E+06  0.02000  3.762E-02    0   0.9858   age045_m62            0.0000     9.5277E-05    13.9872   2.4848    81.8858
 37      0.0000     0.0000E+00    0.0000E+00    5.010000E+06  0.02000  3.296E-02    0   0.9342   age055_m62            0.0000     9.2217E-05    13.2162   2.1870    82.6431
 38      6.6277     1.2243E-02    2.1848E-02    8.710000E+06  0.02000  1.154E-02    0   0.8861   age067_m62            0.0000     6.9515E-05     8.1380   1.3082    87.1797
 39      0.0000     0.0000E+00    0.0000E+00    1.445000E+07  0.02000  7.663E-03    0   0.8472   age078_m62            0.0000     7.4915E-05     9.7714   1.4894    85.7029
 40      0.0000     0.0000E+00    0.0000E+00    2.512000E+07  0.02000  4.532E-03    0   0.8099   age090_m62            0.0000     7.4524E-05     9.5322   1.4945    85.2367
 41      0.0000     0.0000E+00    0.0000E+00    5.500000E+07  0.02000  2.733E-03    0   0.7595   age110_m62            0.0000     7.8024E-05    10.4296   1.5018    84.5765
 42      0.0000     0.0000E+00    0.0000E+00    1.609000E+08  0.02000  1.369E-03    0   0.6985   age120_m62            0.0000     7.9753E-05    10.6772   1.3725    85.4654
 43      0.0000     0.0000E+00    0.0000E+00    2.861200E+08  0.02000  9.013E-04    0   0.6714   age125_m62            0.0000     7.9278E-05    10.5568   1.1551    86.6243
 44      0.1537     6.5178E-03    8.4648E-03    5.088000E+08  0.02000  5.028E-04    0   0.6449   age130_m62            0.0000     7.9957E-05    11.0236   0.8025    87.4841
 45      0.0000     0.0000E+00    0.0000E+00    9.047900E+08  0.02000  2.428E-04    0   0.6179   age135_m62            0.0000     7.5719E-05    11.2692   0.2025    87.3888
 46      0.0000     0.0000E+00    0.0000E+00    1.434000E+09  0.02000  1.263E-04    0   0.5908   age139_m62            0.0000     7.3923E-05    11.6234  -0.2674    86.9391
 47      0.0000     0.0000E+00    0.0000E+00    2.500000E+09  0.02000  5.985E-05    0   0.5673   age150_m62            0.0000     7.6094E-05    12.4795  -0.6544    86.3290
 48      0.0000     0.0000E+00    0.0000E+00    4.250000E+09  0.02000  3.271E-05    0   0.5468   age158_m62            0.0000     8.0580E-05    13.2902  -0.9725    85.8153
 49      0.0000     0.0000E+00    0.0000E+00    1.000000E+10  0.02000  1.360E-05    0   0.5167   age181_m62            0.0000     9.8240E-05    11.3338  -1.0000    77.2937
 50      1.3011     3.8934E+00    3.9306E+00    1.800000E+10  0.02000  7.124E-06    0   0.5013   age213_m62            0.0000     1.2575E-04    10.9245  -1.0000    71.3393
 51      8.5865     7.0619E-03    1.4219E-02    1.000000E+06  0.05000  2.592E-02    0   0.9998   age020_m72            0.0000     9.2556E-05    13.7131   2.5506    81.4330
 52      0.0000     0.0000E+00    0.0000E+00    3.160000E+06  0.05000  4.845E-02    0   0.9577   age045_m72            0.0000     9.4723E-05    13.8447   2.3925    82.0327
 53      0.0000     0.0000E+00    0.0000E+00    5.010000E+06  0.05000  3.072E-02    0   0.9147   age055_m72            0.0000     8.2780E-05    11.5691   2.0029    84.0484
 54      6.8335     1.0012E-02    1.7898E-02    6.610000E+06  0.05000  1.455E-02    0   0.8877   age061_m72            0.0000     7.3735E-05     9.3566   1.3748    88.0598
 55      0.0000     0.0000E+00    0.0000E+00    1.000000E+07  0.05000  9.074E-03    0   0.8524   age070_m72            0.0000     8.6111E-05    12.1713   2.1870    83.7771
 56      0.0000     0.0000E+00    0.0000E+00    2.512000E+07  0.05000  4.250E-03    0   0.7902   age090_m72            0.0000     8.2267E-05    11.2010   1.9358    83.8226
 57      0.0000     0.0000E+00    0.0000E+00    4.000000E+07  0.05000  3.087E-03    0   0.7618   age104_m72            0.0000     8.0149E-05    10.6968   1.7362    84.4519
 58      0.0000     0.0000E+00    0.0000E+00    1.015200E+08  0.05000  1.700E-03    0   0.7096   age116_m72            0.0000     7.9907E-05    10.5101   1.5106    85.3608
 59      0.0000     0.0000E+00    0.0000E+00    2.861200E+08  0.05000  7.384E-04    0   0.6633   age125_m72            0.0000     8.0144E-05    10.7516   1.0309    87.3489
 60      7.0972     3.9616E-01    5.0837E-01    5.088000E+08  0.05000  3.819E-04    0   0.6372   age130_m72            0.0000     7.8253E-05    11.2028   0.5412    88.3759
 61      0.0000     0.0000E+00    0.0000E+00    9.047900E+08  0.05000  1.676E-04    0   0.6110   age135_m72            0.0000     7.8355E-05    12.4268  -0.1972    87.8634
 62      0.0000     0.0000E+00    0.0000E+00    1.434000E+09  0.05000  8.837E-05    0   0.5874   age139_m72            0.0000     7.7048E-05    12.4929  -0.6491    87.3737
 63      0.0000     0.0000E+00    0.0000E+00    2.500000E+09  0.05000  4.233E-05    0   0.5598   age150_m72            0.0000     8.2727E-05    13.5754  -0.9799    86.8100
 64      0.8777     1.3038E+00    1.3782E+00    6.250000E+09  0.05000  1.435E-05    0   0.5249   age166_m72            0.0000     1.1057E-04    11.0656  -1.0000    74.5356
 65      0.0000     0.0000E+00    0.0000E+00    1.300000E+10  0.05000  6.513E-06    0   0.5036   age193_m72            0.0000     1.5453E-04    11.0550  -1.0000    68.1517
 66     17.7650     8.3656E+01    8.3308E+01    1.800000E+10  0.05000  4.527E-06    0   0.4945   age213_m72            0.0000     1.8769E-04    11.5228  -1.0000    63.9787


## Synthesis Results - Average & Chains ##

# j      x_j: min, <> & last-chain-values for 1 ...  7 chains
  1     12.2491      0.2027      1.3573      0.6583      0.7285      0.0933      3.6867      0.0609      2.9217
  2      6.4358      0.2543      0.0000      0.0000      2.3024      0.0000      0.0000      0.0000      2.3248
  3      0.0000      0.2034      0.0000      0.0000      1.5725      0.6983      0.1373      0.5962      0.5098
  4      0.0000      0.2390      0.3525      0.1104      0.1252      0.3169      0.0000      0.8750      1.5963
  5      1.4859      0.3051      0.2148      0.0000      1.8554      1.7282      1.1776      1.8968      0.9139
  6      0.0000      0.3341      7.0080      0.6009      0.4707      0.0000      0.9676      0.0000      1.1018
  7      0.0000      0.2555      1.7198      0.0898      0.0000      2.9464      0.3228      0.0000      1.7276
  8      0.0000      0.2605      0.0000      0.0000      0.4320      0.0000      0.1407      0.5916      1.7161
  9      0.0000      0.2764      0.9122      3.3588      0.0000      0.0000      1.1848      0.0000      0.0000
 10      0.0000      0.2333      0.6394      0.8163      0.8193      0.0000      0.7596      0.7478      0.1251
 11      0.0052      0.2853      1.1572      0.0644      0.8895      0.0000      4.1013      1.5661      0.6971
 12      0.0000      0.2274      1.0562      0.1748      0.0000      0.0052      1.0579      0.0000      0.9280
 13      0.0000      0.3398      1.0084      0.9157      0.0183      0.7768      0.0000      1.6005      0.0615
 14      0.0000      0.3044      1.4664      0.1039      0.0000      0.3894      1.2397      0.8587      0.2624
 15      0.0000      0.2402      2.2691      1.1200      0.0380      0.0000      3.2391      0.7958      0.0000
 16      0.0000      0.2529      1.0774      1.8156      0.0557      0.8787      1.7118      0.4576      0.0000
 17      0.0000      0.2715      2.9001      1.1373      0.5497      0.0000      1.1599      0.8059      0.1235
 18      0.0000      0.2940      0.0000      0.0000      2.6525      0.1469      0.2084      1.3483      0.4951
 19      0.0000      0.3147      0.0000      1.6722      0.4954      1.8182      0.8903      0.8454      0.5849
 20      0.0000      0.2777      0.1766      3.0950      0.0000      0.0000      0.4805      0.8143      0.2504
 21      0.0000      0.2736      0.0997      0.4189      2.4683      0.8247      0.0000      3.5548      0.0000
 22      7.0416      0.2613      1.4156      0.0000      3.3734      0.0000      0.0000      1.6020      0.2071
 23      0.0000      0.2665      0.0000      0.7107      1.2563      0.3383      2.0877      0.9670      0.0000
 24      0.6368      0.2648      0.5181      0.0000      2.0245      0.1381      1.7966      0.8133      2.1441
 25      0.0000      0.2859      0.0000      2.1232      0.0000      0.0000      0.0000      1.3045      1.1467
 26      0.0000      0.3430      0.0000      0.6002      0.8367      0.0000      0.0000      0.5447      1.7578
 27      0.0000      0.2618      0.6435      1.0336      0.0775      0.3655      0.2735      0.3711      1.2478
 28      0.0000     12.0584      3.2819      0.0000      5.0386     10.4063      5.1958      6.5854      4.4728
 29      0.0000      0.2651      0.3655      2.1306      0.0000      0.1467      0.6176      1.2091      3.0565
 30      0.0000      0.2988      0.0778      1.5965      0.4930      0.7950      0.5672      2.7259      1.3507
 31      0.0000      0.3424      0.0000      4.8120      0.0000      3.9891      0.6883      0.0000      0.5453
 32      0.0000      0.2475      1.8229      1.3280      0.0000      1.5918      0.0000      0.9033      0.0000
 33      0.0000      0.3527      3.3621      4.7830      2.1599      0.0000      0.5051      0.0000      2.0711
 34      4.9467      0.2360      1.5162      1.2388      0.6591      0.0000      1.8657      0.0000      0.0000
 35      0.0000      0.2082      0.5633      0.5125      0.0000      0.0000      0.0000      0.1888      0.2473
 36      6.7502      0.2568      2.1027      0.5190      0.4786      0.6424      0.0000      1.4210      1.2287
 37      0.0000      0.3012      0.0000      0.0000      0.4615      0.9819      0.4298      0.4172      1.1909
 38      6.6277      0.3945      0.2377      0.9262      2.4690      0.2647      1.7822      3.3752      5.5190
 39      0.0000      0.2613      1.8114      0.0000      0.0000      0.3156      0.5081      1.0987      0.0000
 40      0.0000      0.2787      3.4891      0.8271      0.0000      0.8083      0.9094      0.4614      1.9725
 41      0.0000      0.3020      0.3851      0.0000      1.8016      0.0000      0.8007      0.0000      2.8017
 42      0.0000      0.3102      0.4612      1.2323      1.6387      0.4723      0.0000      0.0000      1.7752
 43      0.0000      0.2450      0.0000      1.0934      0.0000      0.0000      0.7670      0.1127      0.8188
 44      0.1537     17.3808      1.4308      8.0157      8.1033     11.0478      9.4859      7.9152      5.6592
 45      0.0000      1.0080      0.6411      0.0396      1.5406      3.7886      2.9649      0.3351      1.8660
 46      0.0000      0.2580      0.1195      0.7640      1.6478      1.7000      0.3971      0.0000      2.2225
 47      0.0000      0.2032      0.0000      0.0000      0.0000      0.4364      1.5781      0.9074      0.6295
 48      0.0000      1.4401      0.0000      1.8051      0.0627      2.3298      0.0000      1.8749      1.6987
 49      0.0000     12.5153      0.8884      4.0785      0.1541      4.2235      0.2909      7.6830      1.5480
 50      1.3011      8.6728      4.3667      2.4246      8.2827      4.5067      5.2890      5.8043      2.5146
 51      8.5865      0.2494      0.0000      0.0000      1.1294      3.4596      1.4744      0.5061      0.2099
 52      0.0000      0.3129      0.0033      3.0506      1.3709      0.4691      0.2591      0.8819      1.2795
 53      0.0000      0.2977      0.5070      0.0000      0.7512      3.4911      1.2417      0.3146      0.8797
 54      6.8335      0.2417      0.7379      0.0000      2.2163      0.8114      0.0000      1.7026      0.0618
 55      0.0000      0.2521      0.7229      0.0000      4.1710      0.0000      0.2302      0.0409      0.3090
 56      0.0000      0.3385      0.4937      2.2115      3.0127      1.3940      3.1870      0.3217      1.0410
 57      0.0000      0.2908      3.2391      0.0000      0.5820      0.5390      0.7498      0.0000      0.0000
 58      0.0000      0.3865      0.0000      0.3225      1.1627      1.6531      5.0783      0.7756      2.3850
 59      0.0000      0.3330      5.1671      1.0483      0.0000      2.9525      0.0000      1.5612      2.2253
 60      7.0972      0.2998      0.0979      2.6309      2.1151      0.7140      4.5902      0.1207      0.9772
 61      0.0000      0.3286      0.6567      0.0000      0.8246      0.0316      0.0000      0.6178      1.1816
 62      0.0000      0.2915      1.5733      2.0699      1.1361      0.0000      2.5256      0.4033      1.3101
 63      0.0000     12.6885      7.8395      5.8635      4.8492      7.6072      1.0413      8.2624      6.1530
 64      0.8777      8.3455     11.9554     10.1310      6.9920      7.9963      7.3876      8.0721      6.7623
 65      0.0000      2.8988      3.8829      2.8650      2.4256      0.9010      1.8992      3.1575      0.0211
 66     17.7650      1.0222      1.7416      2.5187      1.6400      0.0000      1.6443      1.0859      4.3376

# j      m_j: min, <> & last-chain-values for 1 ...  7 chains
  1  4.8068E-02  9.1025E-04  6.8453E-03  3.3740E-03  4.5439E-03  7.3942E-04  2.5106E-02  3.3868E-04  2.1507E-02
  2  6.8946E-03  3.1182E-04  0.0000E+00  0.0000E+00  3.9207E-03  0.0000E+00  0.0000E+00  0.0000E+00  4.6718E-03
  3  0.0000E+00  3.7337E-04  0.0000E+00  0.0000E+00  4.0100E-03  2.2631E-03  3.8233E-04  1.3566E-03  1.5342E-03
  4  0.0000E+00  4.1322E-04  6.8448E-04  2.1789E-04  3.0060E-04  9.6716E-04  0.0000E+00  1.8748E-03  4.5237E-03
  5  4.2762E-03  1.0047E-03  7.9427E-04  0.0000E+00  8.4873E-03  1.0048E-02  5.8809E-03  7.7415E-03  4.9334E-03
  6  0.0000E+00  1.7847E-03  4.2039E-02  3.6630E-03  3.4921E-03  0.0000E+00  7.8380E-03  0.0000E+00  9.6472E-03
  7  0.0000E+00  1.9540E-03  1.4771E-02  7.8360E-04  0.0000E+00  3.9780E-02  3.7437E-03  0.0000E+00  2.1657E-02
  8  0.0000E+00  2.7536E-03  0.0000E+00  0.0000E+00  6.3434E-03  0.0000E+00  2.2557E-03  7.7493E-03  2.9733E-02
  9  0.0000E+00  3.3442E-03  1.2394E-02  4.6374E-02  0.0000E+00  0.0000E+00  2.1736E-02  0.0000E+00  0.0000E+00
 10  0.0000E+00  3.7075E-03  1.1411E-02  1.4804E-02  1.8085E-02  0.0000E+00  1.8305E-02  1.4727E-02  3.2594E-03
 11  1.3691E-04  8.5257E-03  3.8834E-02  2.1963E-03  3.6917E-02  0.0000E+00  1.8584E-01  5.7996E-02  3.4146E-02
 12  0.0000E+00  1.0780E-02  5.6223E-02  9.4579E-03  0.0000E+00  4.3386E-04  7.6045E-02  0.0000E+00  7.2103E-02
 13  0.0000E+00  4.5401E-02  1.5130E-01  1.3962E-01  3.4008E-03  1.8323E-01  0.0000E+00  2.6501E-01  1.3468E-02
 14  0.0000E+00  1.3640E-01  7.3794E-01  5.3116E-02  0.0000E+00  3.0803E-01  8.4242E-01  4.7688E-01  1.9278E-01
 15  0.0000E+00  1.7521E-01  1.8590E+00  9.3243E-01  3.8523E-02  0.0000E+00  3.5833E+00  7.1943E-01  0.0000E+00
 16  0.0000E+00  3.1193E-01  1.4924E+00  2.5558E+00  9.5503E-02  1.9134E+00  3.2019E+00  6.9955E-01  0.0000E+00
 17  0.0000E+00  4.3444E-01  5.2115E+00  2.0769E+00  1.2217E+00  0.0000E+00  2.8146E+00  1.5981E+00  3.2398E-01
 18  0.0000E+00  1.1667E-03  0.0000E+00  0.0000E+00  1.4621E-02  1.0291E-03  1.2541E-03  6.6309E-03  3.2203E-03
 19  0.0000E+00  5.0130E-04  0.0000E+00  3.0396E-03  1.0961E-03  5.1126E-03  2.1505E-03  1.6687E-03  1.5269E-03
 20  0.0000E+00  4.8289E-04  3.4489E-04  6.1417E-03  0.0000E+00  0.0000E+00  1.2670E-03  1.7547E-03  7.1363E-04
 21  0.0000E+00  5.7746E-04  2.3633E-04  1.0091E-03  7.2365E-03  3.0729E-03  0.0000E+00  9.2989E-03  0.0000E+00
 22  2.1962E-02  9.3261E-04  5.6742E-03  0.0000E+00  1.6724E-02  0.0000E+00  0.0000E+00  7.0862E-03  1.2115E-03
 23  0.0000E+00  1.2844E-03  0.0000E+00  3.9090E-03  8.4106E-03  2.8790E-03  1.5259E-02  5.7760E-03  0.0000E+00
 24  3.9899E-03  1.8988E-03  4.1718E-03  0.0000E+00  2.0164E-02  1.7487E-03  1.9537E-02  7.2273E-03  2.5202E-02
 25  0.0000E+00  2.8272E-03  0.0000E+00  2.3957E-02  0.0000E+00  0.0000E+00  0.0000E+00  1.5985E-02  1.8585E-02
 26  0.0000E+00  5.6697E-03  0.0000E+00  1.1320E-02  1.9206E-02  0.0000E+00  0.0000E+00  1.1156E-02  4.7621E-02
 27  0.0000E+00  8.6614E-03  2.3908E-02  3.9021E-02  3.5611E-03  2.1348E-02  1.3721E-02  1.5215E-02  6.7659E-02
 28  0.0000E+00  1.1577E+00  3.5384E-01  0.0000E+00  6.7190E-01  1.7637E+00  7.5644E-01  7.8352E-01  7.0387E-01
 29  0.0000E+00  4.4346E-02  6.8665E-02  4.0672E-01  0.0000E+00  4.3308E-02  1.5666E-01  2.5065E-01  8.3808E-01
 30  0.0000E+00  1.0444E-01  3.0548E-02  6.3678E-01  2.3933E-01  4.9050E-01  3.0059E-01  1.1806E+00  7.7379E-01
 31  0.0000E+00  2.1052E-01  0.0000E+00  3.3761E+00  0.0000E+00  4.3296E+00  6.4166E-01  0.0000E+00  5.4957E-01
 32  0.0000E+00  2.0478E-01  1.6934E+00  1.2537E+00  0.0000E+00  2.3246E+00  0.0000E+00  9.2601E-01  0.0000E+00
 33  0.0000E+00  6.4588E-01  6.9143E+00  9.9956E+00  5.4938E+00  0.0000E+00  1.4026E+00  0.0000E+00  6.2168E+00
 34  1.0719E+01  5.8522E-01  4.2225E+00  3.5059E+00  2.2702E+00  0.0000E+00  7.0158E+00  0.0000E+00  0.0000E+00
 35  0.0000E+00  6.6264E-04  2.0130E-03  1.8609E-03  0.0000E+00  0.0000E+00  0.0000E+00  7.4462E-04  1.2899E-03
 36  7.5938E-03  3.3065E-04  3.0400E-03  7.6255E-04  8.5579E-04  1.4599E-03  0.0000E+00  2.2671E-03  2.5929E-03
 37  0.0000E+00  4.1946E-04  0.0000E+00  0.0000E+00  8.9258E-04  2.4137E-03  9.0764E-04  7.2000E-04  2.7183E-03
 38  2.1848E-02  1.4883E-03  1.0070E-03  3.9872E-03  1.2937E-02  1.7625E-03  1.0195E-02  1.5779E-02  3.4127E-02
 39  0.0000E+00  1.4194E-03  1.1049E-02  0.0000E+00  0.0000E+00  3.0265E-03  4.1853E-03  7.3954E-03  0.0000E+00
 40  0.0000E+00  2.4470E-03  3.4401E-02  8.2869E-03  0.0000E+00  1.2528E-02  1.2108E-02  5.0198E-03  2.8386E-02
 41  0.0000E+00  4.1234E-03  5.9049E-03  0.0000E+00  3.4164E-02  0.0000E+00  1.6577E-02  0.0000E+00  6.2701E-02
 42  0.0000E+00  7.7763E-03  1.2983E-02  3.5252E-02  5.7056E-02  2.0899E-02  0.0000E+00  0.0000E+00  7.2942E-02
 43  0.0000E+00  8.9652E-03  0.0000E+00  4.5664E-02  0.0000E+00  0.0000E+00  4.2568E-02  5.1117E-03  4.9117E-02
 44  8.4648E-03  1.0953E+00  1.0125E-01  5.7642E-01  7.0925E-01  1.2290E+00  9.0642E-01  6.1812E-01  5.8453E-01
 45  0.0000E+00  1.2604E-01  9.0012E-02  5.6535E-03  2.6754E-01  8.3621E-01  5.6213E-01  5.1921E-02  3.8242E-01
 46  0.0000E+00  5.9287E-02  3.0845E-02  2.0036E-01  5.2600E-01  6.8971E-01  1.3839E-01  0.0000E+00  8.3723E-01
 47  0.0000E+00  9.4631E-02  0.0000E+00  0.0000E+00  0.0000E+00  3.5879E-01  1.1144E+00  5.2368E-01  4.8049E-01
 48  0.0000E+00  1.1828E+00  0.0000E+00  1.6918E+00  7.1486E-02  3.3779E+00  0.0000E+00  1.9083E+00  2.2868E+00
 49  0.0000E+00  2.3362E+01  1.8622E+00  8.6876E+00  3.9960E-01  1.3917E+01  8.2335E-01  1.7772E+01  4.7363E+00
 50  3.9306E+00  2.9984E+01  1.6953E+01  9.5656E+00  3.9772E+01  2.7505E+01  2.7727E+01  2.4868E+01  1.4249E+01
 51  1.4219E-02  4.7269E-04  0.0000E+00  0.0000E+00  2.9728E-03  1.1574E-02  4.2368E-03  1.1887E-03  6.5192E-04
 52  0.0000E+00  3.0384E-04  3.6021E-06  3.3808E-03  1.8491E-03  8.0424E-04  3.8160E-04  1.0613E-03  2.0368E-03
 53  0.0000E+00  4.3557E-04  8.3290E-04  0.0000E+00  1.5264E-03  9.0156E-03  2.7544E-03  5.7035E-04  2.1094E-03
 54  1.7898E-02  7.2436E-04  2.4839E-03  0.0000E+00  9.2271E-03  4.2937E-03  0.0000E+00  6.3246E-03  3.0368E-04
 55  0.0000E+00  1.1634E-03  3.7465E-03  0.0000E+00  2.6738E-02  0.0000E+00  1.6113E-03  2.3411E-04  2.3372E-03
 56  0.0000E+00  3.0925E-03  5.0644E-03  2.3054E-02  3.8225E-02  2.2480E-02  4.4145E-02  3.6416E-03  1.5587E-02
 57  0.0000E+00  3.5252E-03  4.4101E-02  0.0000E+00  9.8006E-03  1.1537E-02  1.3786E-02  0.0000E+00  0.0000E+00
 58  0.0000E+00  7.9274E-03  0.0000E+00  7.5464E-03  3.3117E-02  5.9845E-02  1.5792E-01  1.9711E-02  8.0171E-02
 59  0.0000E+00  1.4698E-02  2.5608E-01  5.2798E-02  0.0000E+00  2.3003E-01  0.0000E+00  8.5384E-02  1.6098E-01
 60  5.0837E-01  2.4580E-02  9.0153E-03  2.4611E-01  2.4082E-01  1.0332E-01  5.7057E-01  1.2261E-02  1.3130E-01
 61  0.0000E+00  5.8860E-02  1.3209E-01  0.0000E+00  2.0514E-01  9.9997E-03  0.0000E+00  1.3714E-01  3.4689E-01
 62  0.0000E+00  9.5195E-02  5.7700E-01  7.7140E-01  5.1532E-01  0.0000E+00  1.2507E+00  1.6323E-01  7.0125E-01
 63  0.0000E+00  8.2443E+00  5.7200E+00  4.3476E+00  4.3761E+00  8.7254E+00  1.0260E+00  6.6528E+00  6.5528E+00
 64  1.3782E+00  1.4998E+01  2.4127E+01  2.0777E+01  1.7453E+01  2.5368E+01  2.0132E+01  1.7977E+01  1.9919E+01
 65  0.0000E+00  1.1012E+01  1.6565E+01  1.2420E+01  1.2798E+01  6.0426E+00  1.0940E+01  1.4865E+01  1.3151E-01
 66  8.3308E+01  5.4861E+00  1.0496E+01  1.5425E+01  1.2225E+01  0.0000E+00  1.3381E+01  7.2219E+00  3.8156E+01

# AV, chi2 & Mass for <> & i_chain = 1 ...  7 solutions
AV       0.0392     -0.8498     -0.5070     -0.5643     -0.1288     -0.2625     -0.1765     -0.5053     -0.1747
chi2 6.2106E-05  7.8940E-05  7.0310E-05  7.1300E-05  6.8770E-05  7.1217E-05  7.1183E-05  7.3441E-05  7.4248E-05
Mass 8.5954E-13  2.2758E-13  3.2116E-13  2.9262E-13  4.3153E-13  2.8373E-13  3.7071E-13  2.9169E-13  3.4382E-13
 -33.76                                  [v0_min (km/s) before EX0s...]
  48.41                                  [vd_min (km/s) before EX0s...]


## Synthetic spectrum (Best Model) ##l_obs f_obs f_syn wei
 3478    [Nl_obs]
 3741.00    0.25947   0.76801    0.000
 3742.00    0.26785   0.75321    0.000
 3743.00    0.22808   0.73175    0.000
 3744.00    0.18292   0.70950    0.000
 3745.00    0.13462   0.68583   -1.000
 3746.00    0.13846   0.66062   -1.000
 3747.00    0.16877   0.62843   -1.000
 3748.00    0.20784   0.58812   -1.000
 3749.00    0.25075   0.56224   -1.000
 3750.00    0.34581   0.57577   -1.000
 3751.00    0.46056   0.62158   -1.000
 3752.00    0.42240   0.67265   -1.000
 3753.00    0.33522   0.71525   -1.000
 3754.00    0.41394   0.74817   -1.000
 3755.00    0.53711   0.76497   -1.000
 3756.00    0.52024   0.75780   -1.000
 3757.00    0.47264   0.73681   -1.000
 3758.00    0.42633   0.72444   -1.000
 3759.00    0.38026   0.73012   -1.000
 3760.00    0.33968   0.74649   -1.000
 3761.00    0.29983   0.75834   -1.000
 3762.00    0.31848   0.75659   -1.000
 3763.00    0.34262   0.74800   -1.000
 3764.00    0.37696   0.74051   -1.000
 3765.00    0.41189   0.72704   -1.000
 3766.00    0.36827   0.70184   -1.000
 3767.00    0.32378   0.67579   -1.000
 3768.00    0.39868   0.65364   -1.000
 3769.00    0.47130   0.62878   -1.000
 3770.00    0.48839   0.61355   -1.000
 3771.00    0.49741   0.63026   -1.000
 3772.00    0.40059   0.67084   -1.000
 3773.00    0.32125   0.70848   -1.000
 3774.00    0.39536   0.73470   -1.000
 3775.00    0.45287   0.75632   -1.000
 3776.00    0.40274   0.77580   -1.000
 3777.00    0.35901   0.79120   -1.000
 3778.00    0.34764   0.80551   -1.000
 3779.00    0.35250   0.82246   -1.000
 3780.00    0.42380   0.83640   -1.000
 3781.00    0.50117   0.84199   -1.000
 3782.00    0.59913   0.84410   -1.000
 3783.00    0.67165   0.84574   -1.000
 3784.00    0.67141   0.83857   -1.000
 3785.00    0.66672   0.81675   -1.000
 3786.00    0.65116   0.79089   -1.000
 3787.00    0.61453   0.77310   -1.000
 3788.00    0.53346   0.76264   -1.000
 3789.00    0.47277   0.75549   -1.000
 3790.00    0.44939   0.75105   -1.000
 3791.00    0.40869   0.74550   -1.000
 3792.00    0.34027   0.72981   -1.000
 3793.00    0.35845   0.69977   -1.000
 3794.00    0.49826   0.66131   -1.000
 3795.00    0.53011   0.62064   -1.000
 3796.00    0.42849   0.57762   -1.000
 3797.00    0.33722   0.54167   -1.000
 3798.00    0.25722   0.53875   -1.000
 3799.00    0.27232   0.57899   -1.000
 3800.00    0.37880   0.63902   -1.000
 3801.00    0.40627   0.69216   -1.000
 3802.00    0.36679   0.73200   -1.000
 3803.00    0.38427   0.76025   -1.000
 3804.00    0.44426   0.77332   -1.000
 3805.00    0.58611   0.77016   -1.000
 3806.00    0.78163   0.76364   -1.000
 3807.00    0.81599   0.77110   -1.000
 3808.00    0.75789   0.79203   -1.000
 3809.00    0.64649   0.81197   -1.000
 3810.00    0.50846   0.82140   -1.000
 3811.00    0.38098   0.81741   -1.000
 3812.00    0.25808   0.80150   -1.000
 3813.00    0.33668   0.78209   -1.000
 3814.00    0.49002   0.76783   -1.000
 3815.00    0.52844   0.76092   -1.000
 3816.00    0.53073   0.75953   -1.000
 3817.00    0.50649   0.75152   -1.000
 3818.00    0.47528   0.72220   -1.000
 3819.00    0.42443   0.68860   -1.000
 3820.00    0.36936   0.68693   -1.000
 3821.00    0.30120   0.71621   -1.000
 3822.00    0.23082   0.74213   -1.000
 3823.00    0.22012   0.74404   -1.000
 3824.00    0.21708   0.72939   -1.000
 3825.00    0.27059   0.71544   -1.000
 3826.00    0.32917   0.70814   -1.000
 3827.00    0.35141   0.70277   -1.000
 3828.00    0.37170   0.69522   -1.000
 3829.00    0.35740   0.68400   -1.000
 3830.00    0.34198   0.66494   -1.000
 3831.00    0.29115   0.63222   -1.000
 3832.00    0.24280   0.58782   -1.000
 3833.00    0.24965   0.54091   -1.000
 3834.00    0.26071   0.50480   -1.000
 3835.00    0.32407   0.49691   -1.000
 3836.00    0.37662   0.52004   -1.000
 3837.00    0.33777   0.55590   -1.000
 3838.00    0.29828   0.59068   -1.000
 3839.00    0.25476   0.62268   -1.000
 3840.00    0.21643   0.65345   -1.000
 3841.00    0.20378   0.68616   -1.000
 3842.00    0.18681   0.71786   -1.000
 3843.00    0.15257   0.74066   -1.000
 3844.00    0.14808   0.75287   -1.000
 3845.00    0.24247   0.75912   -1.000
 3846.00    0.33008   0.76484   -1.000
 3847.00    0.39866   0.76953    0.000
 3848.00    0.44661   0.76747    0.000
 3849.00    0.44503   0.76043    0.000
 3850.00    0.43238   0.76036    0.000
 3851.00    0.39681   0.77086    0.000
 3852.00    0.33526   0.77951    0.000
 3853.00    0.22686   0.77780    0.000
 3854.00    0.18249   0.76940    0.000
 3855.00    0.23907   0.75983    0.000
 3856.00    0.35132   0.75444    0.000
 3857.00    0.54063   0.75292    0.000
 3858.00    0.58034   0.74790    0.000
 3859.00    0.43777   0.74154    0.000
 3860.00    0.36084   0.74563    0.000
 3861.00    0.35443   0.76156    0.000
 3862.00    0.38865   0.77642    0.000
 3863.00    0.46136   0.78028    0.000
 3864.00    0.45295   0.77586    0.000
 3865.00    0.37677   0.77006    0.000
 3866.00    0.35019   0.76470    0.000
 3867.00    0.36009   0.76185    0.000
 3868.00    0.38475   0.76334    0.000
 3869.00    0.41894   0.76122    0.000
 3870.00    0.46041   0.74817    0.000
 3871.00    0.50599   0.73239    0.000
 3872.00    0.55304   0.73026    0.000
 3873.00    0.60082   0.74550    0.000
 3874.00    0.60837   0.76200    0.000
 3875.00    0.59882   0.76325    0.000
 3876.00    0.56295   0.74927    0.000
 3877.00    0.51750   0.73068    0.000
 3878.00    0.53829   0.71942    0.000
 3879.00    0.57949   0.71901    0.000
 3880.00    0.57611   0.71631    0.000
 3881.00    0.56129   0.70284   -1.000
 3882.00    0.44379   0.69121   -1.000
 3883.00    0.30481   0.68722   -1.000
 3884.00    0.38745   0.67058   -1.000
 3885.00    0.50663   0.62818   -1.000
 3886.00    0.57074   0.57608   -1.000
 3887.00    0.62803   0.53136   -1.000
 3888.00    0.56533   0.50488   -1.000
 3889.00    0.49237   0.51588   -1.000
 3890.00    0.59902   0.56703   -1.000
 3891.00    0.71463   0.63010   -1.000
 3892.00    0.68131   0.67788   -1.000
 3893.00    0.64499   0.70408   -1.000
 3894.00    0.57207   0.71600   -1.000
 3895.00    0.50147   0.72651   -1.000
 3896.00    0.47815   0.74229   -1.000
 3897.00    0.45681   0.75367   -1.000
 3898.00    0.45885   0.75334   -1.000
 3899.00    0.46275   0.75404   -1.000
 3900.00    0.48184   0.76689   -1.000
 3901.00    0.50241   0.78087   -1.000
 3902.00    0.53211   0.78346   -1.000
 3903.00    0.56441   0.78049   -1.000
 3904.00    0.60927   0.77652   -1.000
 3905.00    0.64580   0.77137   -1.000
 3906.00    0.64970   0.77580   -1.000
 3907.00    0.64047   0.79456   -1.000
 3908.00    0.58840   0.81525   -1.000
 3909.00    0.53730   0.82657   -1.000
 3910.00    0.48889   0.82935   -1.000
 3911.00    0.48185   0.82971   -1.000
 3912.00    0.57247   0.83000   -1.000
 3913.00    0.68338   0.82940   -1.000
 3914.00    0.83570   0.82773   -1.000
 3915.00    0.86936   0.82300   -1.000
 3916.00    0.69226   0.81418   -1.000
 3917.00    0.59906   0.80198   -1.000
 3918.00    0.63622   0.78356   -1.000
 3919.00    0.63972   0.76119   -1.000
 3920.00    0.59730   0.74686   -1.000
 3921.00    0.51916   0.74724   -1.000
 3922.00    0.39811   0.75467   -1.000
 3923.00    0.35399   0.76039   -1.000
 3924.00    0.39135   0.76063   -1.000
 3925.00    0.41261   0.75141   -1.000
 3926.00    0.41883   0.73625   -1.000
 3927.00    0.38522   0.72283   -1.000
 3928.00    0.31882   0.71158   -1.000
 3929.00    0.28796   0.70048   -1.000
 3930.00    0.28287   0.68792   -1.000
 3931.00    0.28411   0.67147   -1.000
 3932.00    0.28937   0.65247   -1.000
 3933.00    0.27626   0.63948   -1.000
 3934.00    0.25294   0.64207   -1.000
 3935.00    0.27125   0.66062   -1.000
 3936.00    0.30971   0.68650   -1.000
 3937.00    0.37197   0.71119   -1.000
 3938.00    0.44419   0.73191   -1.000
 3939.00    0.49363   0.74777   -1.000
 3940.00    0.53493   0.75595   -1.000
 3941.00    0.52564   0.75578   -1.000
 3942.00    0.50106   0.74964   -1.000
 3943.00    0.47883   0.74249   -1.000
 3944.00    0.45720   0.74612   -1.000
 3945.00    0.51324   0.76512   -1.000
 3946.00    0.58513   0.78257   -1.000
 3947.00    0.56718   0.78543   -1.000
 3948.00    0.53485   0.78531   -1.000
 3949.00    0.52251   0.79445   -1.000
 3950.00    0.51256   0.80478   -1.000
 3951.00    0.55779   0.80320   -1.000
 3952.00    0.60751   0.79505   -1.000
 3953.00    0.64900   0.79468   -1.000
 3954.00    0.69012   0.79745   -1.000
 3955.00    0.66628   0.78920   -1.000
 3956.00    0.64211   0.77484   -1.000
 3957.00    0.64389   0.76858   -1.000
 3958.00    0.64047   0.76777   -1.000
 3959.00    0.53845   0.75506   -1.000
 3960.00    0.45091   0.72160    0.000
 3961.00    0.52666   0.68287    0.000
 3962.00    0.58862   0.65766    0.000
 3963.00    0.54224   0.63950    0.000
 3964.00    0.49079   0.61459    0.000
 3965.00    0.40917   0.58253    0.000
 3966.00    0.34429   0.54378    0.000
 3967.00    0.35803   0.49687    0.000
 3968.00    0.35714   0.44895    0.000
 3969.00    0.30022   0.41902    0.000
 3970.00    0.26061   0.42797    0.000
 3971.00    0.27629   0.47372    0.000
 3972.00    0.30389   0.53156    0.000
 3973.00    0.36375   0.58530    0.000
 3974.00    0.44122   0.63352    0.000
 3975.00    0.55955   0.67353    0.000
 3976.00    0.66049   0.70414    0.000
 3977.00    0.72648   0.73088    0.000
 3978.00    0.78924   0.75681    0.000
 3979.00    0.84635   0.77863    0.000
 3980.00    0.84023   0.78978    0.000
 3981.00    0.73733   0.78848   -1.000
 3982.00    0.65931   0.78435   -1.000
 3983.00    0.61475   0.78819   -1.000
 3984.00    0.64976   0.80046   -1.000
 3985.00    0.77899   0.81373   -1.000
 3986.00    0.84804   0.82439   -1.000
 3987.00    0.85426   0.83484   -1.000
 3988.00    0.85741   0.83992   -1.000
 3989.00    0.85775   0.83569   -1.000
 3990.00    0.88381   0.83368   -1.000
 3991.00    0.93075   0.84117   -1.000
 3992.00    0.97211   0.84991   -1.000
 3993.00    1.00947   0.84990   -1.000
 3994.00    1.02483   0.84124   -1.000
 3995.00    1.02640   0.83116   -1.000
 3996.00    0.98172   0.82316   -1.000
 3997.00    0.91169   0.82094   -1.000
 3998.00    0.90023   0.83264   -1.000
 3999.00    0.91666   0.85422   -1.000
 4000.00    0.91868   0.86912   -1.000
 4001.00    0.91476   0.87383   -1.000
 4002.00    0.93731   0.87359   -1.000
 4003.00    0.96914   0.86085   -1.000
 4004.00    0.98478   0.83139   -1.000
 4005.00    0.99562   0.80715   -1.000
 4006.00    1.06395   0.80948   -1.000
 4007.00    1.14640   0.82624   -1.000
 4008.00    1.02098   0.83616   -1.000
 4009.00    0.85423   0.84070   -1.000
 4010.00    0.92633   0.84884   -1.000
 4011.00    1.03555   0.85841   -1.000
 4012.00    1.02622   0.86552   -1.000
 4013.00    1.00327   0.87103   -1.000
 4014.00    0.99066   0.87694   -1.000
 4015.00    0.97884   0.88088   -1.000
 4016.00    1.00126   0.87699   -1.000
 4017.00    1.02512   0.87161   -1.000
 4018.00    1.03536   0.87630   -1.000
 4019.00    1.04512   0.88361   -1.000
 4020.00    1.03863   0.88013   -1.000
 4021.00    1.03483   0.86878   -1.000
 4022.00    1.07849   0.85504   -1.000
 4023.00    1.11859   0.83304   -1.000
 4024.00    1.12043   0.80262   -1.000
 4025.00    1.12366   0.78303   -1.000
 4026.00    1.13747   0.79506   -1.000
 4027.00    1.14935   0.83110   -1.000
 4028.00    1.15005   0.85536   -1.000
 4029.00    1.12774   0.84368   -1.000
 4030.00    1.00000   0.81167   -1.000
 4031.00    0.93425   0.78862   -1.000
 4032.00    1.10103   0.78084   -1.000
 4033.00    1.20213   0.78320   -1.000
 4034.00    1.09735   0.79852   -1.000
 4035.00    1.01443   0.82896   -1.000
 4036.00    0.98963   0.86557   -1.000
 4037.00    1.04819   0.89093    0.829
 4038.00    1.29708   0.89495    0.194
 4039.00    1.37867   0.88281    0.128
 4040.00    1.12949   0.86888    0.127
 4041.00    0.96004   0.86434    0.125
 4042.00    0.92795   0.85935    0.123
 4043.00    0.85699   0.83221    0.121
 4044.00    0.72740   0.78629    0.118
 4045.00    0.73917   0.75578    0.118
 4046.00    0.93833   0.76775    0.121
 4047.00    0.90451   0.80876    0.120
 4048.00    0.59867   0.84575    0.115
 4049.00    0.45216   0.86714    0.114
 4050.00    0.46967   0.87720    0.116
 4051.00    0.58036   0.87604    0.117
 4052.00    0.77565   0.86502    0.119
 4053.00    0.87187   0.84953    0.118
 4054.00    0.88878   0.83547    0.115
 4055.00    0.84641   0.82782    0.114
 4056.00    0.76230   0.82239    0.113
 4057.00    0.72398   0.81516    0.113
 4058.00    0.71395   0.81589    0.114
 4059.00    0.75199   0.82896    0.115
 4060.00    0.81597   0.83845    0.116
 4061.00    0.89974   0.82476    0.117
 4062.00    0.99279   0.79013    0.118
 4063.00    1.01021   0.76545    0.118
 4064.00    0.99709   0.77499    0.118
 4065.00    0.86779   0.80009    0.117
 4066.00    0.69842   0.81138    0.116
 4067.00    0.67422   0.81412    0.115
 4068.00    0.69216   0.82174    0.116
 4069.00    0.75221   0.82132    0.116
 4070.00    0.82236   0.79967    0.116
 4071.00    0.82142   0.77785    0.116
 4072.00    0.80669   0.78637    0.116
 4073.00    0.76035   0.81327    0.116
 4074.00    0.70925   0.81920    0.115
 4075.00    0.69839   0.79548    0.117
 4076.00    0.69198   0.76736    0.118
 4077.00    0.69550   0.75967    0.117
 4078.00    0.69975   0.77842    0.116
 4079.00    0.72193   0.81270    0.118
 4080.00    0.74479   0.84448    0.120
 4081.00    0.91025   0.85703    0.122
 4082.00    1.07324   0.84667    0.124
 4083.00    1.11333   0.82760    0.122
 4084.00    1.15395   0.81601    0.119
 4085.00    1.20337   0.81820    0.119
 4086.00    1.24948   0.83198    0.118
 4087.00    1.26150   0.84665    0.119
 4088.00    1.25606   0.85140    0.120
 4089.00    1.12249   0.84721    0.120
 4090.00    1.03442   0.83924    0.121
 4091.00    1.20155   0.82783    0.121
 4092.00    1.29671   0.81710    0.000
 4093.00    1.06981   0.80860    0.000
 4094.00    0.88097   0.78819    0.000
 4095.00    0.83192   0.75069    0.000
 4096.00    0.82087   0.71402    0.000
 4097.00    0.92666   0.69000    0.000
 4098.00    0.96469   0.66763    0.000
 4099.00    0.82560   0.62800    0.000
 4100.00    0.70185   0.57255    0.000
 4101.00    0.61257   0.53681    0.000
 4102.00    0.54360   0.55157    0.000
 4103.00    0.51417   0.60255    0.000
 4104.00    0.50902   0.65918    0.000
 4105.00    0.54503   0.70892    0.000
 4106.00    0.63387   0.74529    0.000
 4107.00    0.80123   0.76349    0.000
 4108.00    0.84989   0.76782    0.000
 4109.00    0.74347   0.76551    0.000
 4110.00    0.73173   0.76353    0.000
 4111.00    0.82896   0.76876    0.000
 4112.00    0.85710   0.78326    0.000
 4113.00    0.81512   0.79995    0.108
 4114.00    0.73347   0.80945    0.107
 4115.00    0.61631   0.81270    0.107
 4116.00    0.60817   0.81382    0.106
 4117.00    0.68604   0.80631    0.105
 4118.00    0.76588   0.78865    0.104
 4119.00    0.84708   0.77594    0.103
 4120.00    0.89052   0.77634    0.104
 4121.00    0.91097   0.78386    0.105
 4122.00    0.91901   0.79441    0.106
 4123.00    0.92045   0.80900    0.108
 4124.00    0.92229   0.82495    0.109
 4125.00    0.92430   0.83139    0.109
 4126.00    0.76551   0.82288    0.107
 4127.00    0.54286   0.80846    0.105
 4128.00    0.47790   0.79878    0.105
 4129.00    0.46631   0.79269    0.106
 4130.00    0.56118   0.78171    0.107
 4131.00    0.68636   0.76525    0.107
 4132.00    0.73369   0.75512    0.106
 4133.00    0.76276   0.76120    0.105
 4134.00    0.85237   0.78210    0.107
 4135.00    0.95340   0.80763    0.110
 4136.00    0.95843   0.82316    0.111
 4137.00    0.94944   0.82719    0.113
 4138.00    0.94125   0.82969    0.112
 4139.00    0.93313   0.83126    0.111
 4140.00    0.97381   0.82211    0.112
 4141.00    1.01786   0.79025    0.114
 4142.00    0.79405   0.73962    0.112
 4143.00    0.56100   0.70586    0.110
 4144.00    0.71865   0.71935    0.111
 4145.00    0.86963   0.76108    0.112
 4146.00    0.77469   0.79315    0.112
 4147.00    0.68364   0.80376    0.111
 4148.00    0.65277   0.79871    0.110
 4149.00    0.61026   0.78744    0.110
 4150.00    0.45307   0.78082    0.109
 4151.00    0.34762   0.77966    0.109
 4152.00    0.60951   0.77749    0.111
 4153.00    0.80647   0.77378    0.113
 4154.00    0.64894   0.77189    0.111
 4155.00    0.52292   0.77175    0.109
 4156.00    0.53461   0.77460    0.108
 4157.00    0.54830   0.78614    0.108
 4158.00    0.56920   0.80384    0.107
 4159.00    0.62076   0.81614    0.107
 4160.00    0.76482   0.81966    0.106
 4161.00    0.86294   0.82271    0.106
 4162.00    0.84309   0.82757    0.106
 4163.00    0.83433   0.82545    0.106
 4164.00    0.85007   0.81536    0.108
 4165.00    0.83494   0.80417    0.108
 4166.00    0.76069   0.79318    0.105
 4167.00    0.66343   0.78627    0.104
 4168.00    0.52774   0.79084    0.103
 4169.00    0.52201   0.80060    0.102
 4170.00    0.70663   0.79793    0.104
 4171.00    0.80799   0.77620    0.104
 4172.00    0.80209   0.75226    0.103
 4173.00    0.71047   0.74656    0.101
 4174.00    0.52158   0.75681    0.101
 4175.00    0.46406   0.76703    0.100
 4176.00    0.53803   0.76873    0.100
 4177.00    0.57557   0.76673    0.099
 4178.00    0.58097   0.77079    0.098
 4179.00    0.62926   0.77989    0.098
 4180.00    0.71090   0.78333    0.099
 4181.00    0.70451   0.78005    0.098
 4182.00    0.63791   0.78103    0.096
 4183.00    0.60692   0.79164    0.096
 4184.00    0.59727   0.80376    0.096
 4185.00    0.69993   0.80195    0.098
 4186.00    0.86132   0.78234    0.102
 4187.00    0.86203   0.76697    0.101
 4188.00    0.78985   0.77318    0.098
 4189.00    0.71979   0.78699    0.097
 4190.00    0.65054   0.79226    0.096
 4191.00    0.67554   0.79629    0.096
 4192.00    0.73184   0.80851    0.097
 4193.00    0.77742   0.81599    0.098
 4194.00    0.82000   0.80290    0.098
 4195.00    0.81377   0.77687    0.098
 4196.00    0.79634   0.75437    0.098
 4197.00    0.79108   0.73893    0.099
 4198.00    0.78805   0.72992    0.100
 4199.00    0.70145   0.73037    0.099
 4200.00    0.60303   0.73501    0.099
 4201.00    0.64108   0.73826    0.098
 4202.00    0.69306   0.74768    0.097
 4203.00    0.61282   0.76534    0.097
 4204.00    0.52397   0.78232    0.097
 4205.00    0.62219   0.79664    0.097
 4206.00    0.72607   0.81020    0.096
 4207.00    0.77304   0.81961    0.096
 4208.00    0.81529   0.81939    0.095
 4209.00    0.71851   0.81050    0.097
 4210.00    0.62706   0.80475    0.099
 4211.00    0.61339   0.80792    0.101
 4212.00    0.59265   0.80849    0.102
 4213.00    0.50518   0.79417    0.097
 4214.00    0.44722   0.76890    0.094
 4215.00    0.59205   0.75631    0.097
 4216.00    0.72449   0.77643    0.100
 4217.00    0.79104   0.81417    0.099
 4218.00    0.86574   0.84033    0.099
 4219.00    0.97529   0.84922    0.100
 4220.00    0.99797   0.84796    0.101
 4221.00    0.71458   0.83455    0.099
 4222.00    0.51093   0.80686    0.097
 4223.00    0.54341   0.77012    0.096
 4224.00    0.53067   0.72678    0.096
 4225.00    0.40384   0.68104    0.095
 4226.00    0.40217   0.65457    0.094
 4227.00    0.67248   0.67244    0.096
 4228.00    0.84167   0.72578    0.097
 4229.00    0.82019   0.77916    0.095
 4230.00    0.78263   0.81140    0.094
 4231.00    0.71859   0.81714    0.092
 4232.00    0.69898   0.80090    0.092
 4233.00    0.74349   0.78389    0.092
 4234.00    0.71218   0.77740    0.091
 4235.00    0.58459   0.77214    0.088
 4236.00    0.58688   0.76941    0.088
 4237.00    0.73446   0.77596    0.090
 4238.00    0.78691   0.78480    0.090
 4239.00    0.74548   0.79284    0.087
 4240.00    0.79418   0.80485    0.086
 4241.00    0.92131   0.81738    0.087
 4242.00    0.94234   0.82807    0.089
 4243.00    0.88203   0.84425    0.090
 4244.00    0.84068   0.85988    0.091
 4245.00    0.81211   0.85580    0.091
 4246.00    0.73914   0.83142    0.091
 4247.00    0.63996   0.80481    0.091
 4248.00    0.52664   0.78448    0.091
 4249.00    0.40605   0.76580    0.092
 4250.00    0.37380   0.75542    0.091
 4251.00    0.38096   0.76325    0.090
 4252.00    0.46002   0.77132    0.090
 4253.00    0.56665   0.76066    0.091
 4254.00    0.63275   0.75053    0.091
 4255.00    0.68565   0.76735    0.091
 4256.00    0.74437   0.79953    0.090
 4257.00    0.80468   0.81155    0.089
 4258.00    0.87277   0.79101    0.089
 4259.00    0.94262   0.75906    0.090
 4260.00    0.87049   0.74464    0.091
 4261.00    0.77298   0.76338    0.092
 4262.00    0.79680   0.80371    0.091
 4263.00    0.83722   0.83781    0.090
 4264.00    0.86609   0.85287    0.090
 4265.00    0.89384   0.85105    0.091
 4266.00    0.87302   0.83390    0.091
 4267.00    0.84924   0.81056    0.092
 4268.00    0.85290   0.79147    0.090
 4269.00    0.85714   0.76811    0.087
 4270.00    0.83135   0.73176    0.087
 4271.00    0.80839   0.70096    0.086
 4272.00    0.86002   0.69690    0.088
 4273.00    0.90557   0.70749    0.089
 4274.00    0.86751   0.71665    0.089
 4275.00    0.82344   0.73645    0.089
 4276.00    0.72471   0.77357    0.088
 4277.00    0.63644   0.80963    0.088
 4278.00    0.61783   0.82348    0.087
 4279.00    0.61086   0.81100    0.086
 4280.00    0.66417   0.79127    0.084
 4281.00    0.71510   0.78308    0.083
 4282.00    0.75610   0.78515   -2.000
 4283.00    0.81602   0.78834   -2.000
 4284.00    0.94127   0.78499   -2.000
 4285.00    1.03760   0.77768   -2.000
 4286.00    1.04993   0.77507   -2.000
 4287.00    0.98169   0.76871   -2.000
 4288.00    0.71363   0.74415   -2.000
 4289.00    0.47910   0.71442   -2.000
 4290.00    0.31626   0.70964   -2.000
 4291.00    0.32505   0.73574   -2.000
 4292.00    0.65252   0.76660   -2.000
 4293.00    0.86619   0.77605   -2.000
 4294.00    0.89531   0.76953   -2.000
 4295.00    0.83412   0.76573   -2.000
 4296.00    0.64445   0.76092   -2.000
 4297.00    0.53077   0.74195   -2.000
 4298.00    0.51219   0.70921    0.086
 4299.00    0.52151   0.68029    0.086
 4300.00    0.56163   0.67359    0.085
 4301.00    0.57668   0.68184    0.085
 4302.00    0.56734   0.68798    0.086
 4303.00    0.58372   0.69255    0.086
 4304.00    0.62216   0.69628    0.086
 4305.00    0.62189   0.69051    0.086
 4306.00    0.59236   0.67315    0.086
 4307.00    0.60416   0.65295    0.085
 4308.00    0.64340   0.64559    0.085
 4309.00    0.68269   0.65997    0.084
 4310.00    0.72199   0.68784    0.084
 4311.00    0.72312   0.71537    0.083
 4312.00    0.70492   0.73558    0.082
 4313.00    0.72840   0.75053    0.081
 4314.00    0.77017   0.77351    0.080
 4315.00    0.75594   0.81522    0.080
 4316.00    0.72061   0.85788    0.080
 4317.00    0.71987   0.87489    0.081
 4318.00    0.73018   0.86744    0.082
 4319.00    0.76066   0.85193    0.082
 4320.00    0.79654   0.83699    0.083
 4321.00    0.80688   0.82253    0.084
 4322.00    0.81164   0.79757    0.085
 4323.00    0.86396   0.75196    0.085
 4324.00    0.92456   0.69856    0.085
 4325.00    0.78845   0.67058    0.083
 4326.00    0.62633   0.69442    0.081
 4327.00    0.58679   0.75615    0.081
 4328.00    0.55871   0.80877    0.081
 4329.00    0.77818   0.82315    0.082
 4330.00    1.01182   0.81296    0.000
 4331.00    0.93133   0.80513    0.000
 4332.00    0.84393   0.80589    0.000
 4333.00    0.80170   0.80902    0.000
 4334.00    0.76733   0.80924    0.000
 4335.00    0.92185   0.79044    0.000
 4336.00    1.06464   0.73532    0.000
 4337.00    1.05491   0.65871    0.000
 4338.00    1.03465   0.59103    0.000
 4339.00    0.92243   0.54520    0.000
 4340.00    0.80444   0.53712    0.000
 4341.00    0.64916   0.58004    0.000
 4342.00    0.53849   0.64434    0.000
 4343.00    0.65287   0.69183    0.000
 4344.00    0.74307   0.72422    0.000
 4345.00    0.73463   0.75134    0.000
 4346.00    0.74324   0.76969    0.000
 4347.00    0.80955   0.78746    0.000
 4348.00    0.84695   0.81095    0.000
 4349.00    0.80183   0.81587    0.000
 4350.00    0.76801   0.78096    0.000
 4351.00    0.76177   0.73527    0.081
 4352.00    0.76434   0.72580    0.080
 4353.00    0.78544   0.75267    0.080
 4354.00    0.83439   0.78379    0.079
 4355.00    0.93424   0.80754    0.078
 4356.00    0.93448   0.82602    0.078
 4357.00    0.77556   0.82896    0.078
 4358.00    0.69774   0.81425    0.077
 4359.00    0.73364   0.80549    0.076
 4360.00    0.80355   0.81919    0.076
 4361.00    0.91545   0.84072    0.077
 4362.00    1.01976   0.85263    0.078
 4363.00    1.11582   0.86091    0.079
 4364.00    1.12709   0.87262    0.079
 4365.00    1.05703   0.87215    0.078
 4366.00    0.92608   0.84839    0.077
 4367.00    0.74365   0.82034    0.076
 4368.00    0.65214   0.81061    0.076
 4369.00    0.62836   0.81614    0.076
 4370.00    0.69756   0.82269    0.076
 4371.00    0.82760   0.82363    0.078
 4372.00    0.89308   0.81303    0.078
 4373.00    0.92158   0.78777    0.077
 4374.00    0.84463   0.76230    0.076
 4375.00    0.71507   0.76114    0.075
 4376.00    0.69305   0.78989    0.075
 4377.00    0.71743   0.82425    0.076
 4378.00    0.79874   0.83750    0.078
 4379.00    0.90110   0.82771    0.079
 4380.00    0.82294   0.80521    0.079
 4381.00    0.68816   0.76642    0.078
 4382.00    0.61105   0.70689    0.077
 4383.00    0.54902   0.65559    0.075
 4384.00    0.54841   0.65378    0.075
 4385.00    0.56092   0.69735    0.075
 4386.00    0.61787   0.73894    0.075
 4387.00    0.68235   0.75194    0.075
 4388.00    0.74809   0.75216    0.076
 4389.00    0.81401   0.75612    0.076
 4390.00    0.70129   0.76580    0.075
 4391.00    0.57264   0.78162    0.075
 4392.00    0.63684   0.79601    0.076
 4393.00    0.71130   0.79687    0.078
 4394.00    0.76194   0.79058    0.077
 4395.00    0.81181   0.80024    0.077
 4396.00    0.83712   0.82991    0.076
 4397.00    0.85616   0.85199    0.076
 4398.00    0.73720   0.84458    0.077
 4399.00    0.62472   0.81703    0.077
 4400.00    0.59228   0.79786    0.075
 4401.00    0.56741   0.80197    0.074
 4402.00    0.60628   0.80190    0.076
 4403.00    0.62770   0.76634    0.078
 4404.00    0.53983   0.72151    0.077
 4405.00    0.45604   0.71369    0.076
 4406.00    0.39229   0.73563    0.075
 4407.00    0.38116   0.75386    0.075
 4408.00    0.58007   0.77049    0.077
 4409.00    0.72565   0.80158    0.077
 4410.00    0.69438   0.83643    0.077
 4411.00    0.67471   0.85746    0.076
 4412.00    0.68750   0.85703    0.076
 4413.00    0.72701   0.82651    0.076
 4414.00    0.83058   0.77780    0.076
 4415.00    0.89018   0.75168    0.076
 4416.00    0.85878   0.76665    0.076
 4417.00    0.84967   0.80270    0.076
 4418.00    0.88070   0.83798    0.077
 4419.00    0.85825   0.85853    0.077
 4420.00    0.75162   0.85373    0.076
 4421.00    0.70716   0.82819    0.076
 4422.00    0.74862   0.80590    0.076
 4423.00    0.79564   0.80503    0.077
 4424.00    0.84943   0.81496    0.077
 4425.00    0.86860   0.81809    0.077
 4426.00    0.85065   0.81663    0.077
 4427.00    0.78658   0.82047    0.077
 4428.00    0.67890   0.82417    0.076
 4429.00    0.71470   0.81622    0.076
 4430.00    0.87016   0.80807    0.078
 4431.00    0.85964   0.81425    0.077
 4432.00    0.72729   0.81701    0.076
 4433.00    0.65133   0.79645    0.076
 4434.00    0.61173   0.76682    0.077
 4435.00    0.65125   0.75873    0.078
 4436.00    0.73539   0.78400    0.079
 4437.00    0.65241   0.82627    0.078
 4438.00    0.48739   0.86008    0.078
 4439.00    0.54716   0.86639    0.078
 4440.00    0.70231   0.84151    0.078
 4441.00    0.74376   0.80381    0.078
 4442.00    0.74389   0.78081    0.078
 4443.00    0.76746   0.78886    0.078
 4444.00    0.79823   0.82213    0.078
 4445.00    0.75994   0.85351    0.078
 4446.00    0.70396   0.86210    0.078
 4447.00    0.74269   0.85886    0.077
 4448.00    0.80115   0.85853    0.077
 4449.00    0.77371   0.85494    0.076
 4450.00    0.73215   0.84768    0.074
 4451.00    0.76226   0.84350    0.075
 4452.00    0.80120   0.83346    0.076
 4453.00    0.86180   0.80726    0.076
 4454.00    0.92425   0.77545    0.076
 4455.00    0.89314   0.76060    0.075
 4456.00    0.85742   0.76685    0.075
 4457.00    0.86824   0.77466    0.074
 4458.00    0.87853   0.77216    0.074
 4459.00    0.80835   0.76471    0.073
 4460.00    0.73867   0.75621    0.072
 4461.00    0.67891   0.75366    0.000
 4462.00    0.63315   0.77220    0.000
 4463.00    0.75187   0.80374    0.000
 4464.00    0.85726   0.81995    0.000
 4465.00    0.85444   0.81691    0.000
 4466.00    0.84705   0.81094    0.000
 4467.00    0.81175   0.80531    0.000
 4468.00    0.78615   0.79314    0.000
 4469.00    0.80706   0.77707    0.000
 4470.00    0.81733   0.76834    0.000
 4471.00    0.78603   0.77877    0.000
 4472.00    0.77858   0.81079    0.000
 4473.00    0.84868   0.84494    0.000
 4474.00    0.88297   0.86102    0.000
 4475.00    0.81875   0.86759    0.000
 4476.00    0.75088   0.88116    0.000
 4477.00    0.67442   0.89238    0.000
 4478.00    0.67229   0.87849    0.000
 4479.00    0.82158   0.83745    0.000
 4480.00    0.92042   0.79424    0.000
 4481.00    0.92981   0.77777    0.000
 4482.00    0.89853   0.79783    0.072
 4483.00    0.80416   0.83858    0.072
 4484.00    0.78767   0.87503    0.072
 4485.00    0.87726   0.89409    0.072
 4486.00    0.87918   0.89175    0.071
 4487.00    0.77596   0.86778    0.071
 4488.00    0.72882   0.83394    0.071
 4489.00    0.74094   0.81268    0.071
 4490.00    0.77566   0.81821    0.070
 4491.00    0.83145   0.83993    0.070
 4492.00    0.84956   0.85009    0.070
 4493.00    0.83668   0.83321    0.070
 4494.00    0.81354   0.80592    0.071
 4495.00    0.78295   0.79584    0.071
 4496.00    0.78645   0.81026    0.072
 4497.00    0.81159   0.83800    0.072
 4498.00    0.82319   0.86285    0.071
 4499.00    0.82727   0.87087    0.069
 4500.00    0.84283   0.86159    0.069
 4501.00    0.86395   0.85700    0.070
 4502.00    0.88564   0.87821    0.070
 4503.00    0.90757   0.91105    0.070
 4504.00    0.89683   0.92621    0.070
 4505.00    0.87442   0.91786    0.069
 4506.00    0.87933   0.90007    0.069
 4507.00    0.89248   0.88775    0.069
 4508.00    0.92267   0.88748    0.069
 4509.00    0.95713   0.89488    0.068
 4510.00    0.88973   0.89790    0.068
 4511.00    0.80162   0.88712    0.068
 4512.00    0.73689   0.86644    0.067
 4513.00    0.67589   0.84847    0.067
 4514.00    0.69169   0.84263    0.067
 4515.00    0.71662   0.84838    0.067
 4516.00    0.76802   0.85342    0.067
 4517.00    0.82156   0.85131    0.068
 4518.00    0.79235   0.85431    0.068
 4519.00    0.75938   0.87017    0.068
 4520.00    0.75188   0.88630    0.068
 4521.00    0.74608   0.88471    0.068
 4522.00    0.81156   0.86565    0.067
 4523.00    0.87249   0.84720    0.066
 4524.00    0.84804   0.83358    0.065
 4525.00    0.82549   0.81365    0.065
 4526.00    0.82432   0.78693    0.066
 4527.00    0.82196   0.76343    0.067
 4528.00    0.81026   0.75264    0.067
 4529.00    0.79764   0.75819    0.067
 4530.00    0.77961   0.77493    0.067
 4531.00    0.77054   0.79396    0.067
 4532.00    0.80343   0.80210    0.066
 4533.00    0.82820   0.79035    0.066
 4534.00    0.82191   0.77377    0.066
 4535.00    0.79233   0.78189    0.066
 4536.00    0.68844   0.82182    0.066
 4537.00    0.62116   0.86106    0.066
 4538.00    0.65279   0.86626    0.065
 4539.00    0.70588   0.84206    0.065
 4540.00    0.80870   0.81646    0.066
 4541.00    0.89853   0.81260    0.067
 4542.00    0.96232   0.82846    0.067
 4543.00    0.96411   0.83900    0.067
 4544.00    0.85768   0.83305    0.066
 4545.00    0.77624   0.82705    0.066
 4546.00    0.73301   0.83071    0.066
 4547.00    0.74089   0.83144    0.066
 4548.00    0.81737   0.82101    0.066
 4549.00    0.86079   0.81369    0.067
 4550.00    0.86512   0.82065    0.000
 4551.00    0.84406   0.82632    0.000
 4552.00    0.79653   0.81817    0.000
 4553.00    0.81470   0.80599    0.000
 4554.00    0.89328   0.80205    0.000
 4555.00    0.88210   0.81423    0.000
 4556.00    0.79819   0.84221    0.000
 4557.00    0.79681   0.87054    0.000
 4558.00    0.85429   0.88456    0.000
 4559.00    0.89650   0.88542    0.000
 4560.00    0.92914   0.88317    0.000
 4561.00    0.86973   0.88062    0.000
 4562.00    0.75997   0.86772    0.000
 4563.00    0.77232   0.84214    0.000
 4564.00    0.84273   0.82192    0.000
 4565.00    0.87007   0.82520    0.000
 4566.00    0.87974   0.85014    0.000
 4567.00    0.90589   0.87654    0.000
 4568.00    0.93781   0.88661    0.000
 4569.00    0.90528   0.87720    0.000
 4570.00    0.85371   0.85417    0.000
 4571.00    0.82543   0.83804    0.000
 4572.00    0.80286   0.84894    0.000
 4573.00    0.84699   0.87056    0.000
 4574.00    0.90433   0.87677    0.000
 4575.00    0.87665   0.87283    0.000
 4576.00    0.83580   0.87037    0.000
 4577.00    0.80990   0.86288    0.000
 4578.00    0.78571   0.84276    0.000
 4579.00    0.77460   0.81800    0.000
 4580.00    0.76451   0.80660    0.000
 4581.00    0.83177   0.81539    0.000
 4582.00    0.90224   0.82973    0.000
 4583.00    0.84847   0.83321    0.000
 4584.00    0.79368   0.82671    0.000
 4585.00    0.74138   0.82156    0.000
 4586.00    0.69251   0.82888    0.000
 4587.00    0.70355   0.85017    0.000
 4588.00    0.71249   0.87114    0.000
 4589.00    0.69899   0.87474    0.000
 4590.00    0.69977   0.85877    0.000
 4591.00    0.80845   0.83779    0.000
 4592.00    0.89311   0.82624    0.000
 4593.00    0.83977   0.82249    0.000
 4594.00    0.78462   0.81800    0.000
 4595.00    0.72125   0.81425    0.000
 4596.00    0.67857   0.81670    0.000
 4597.00    0.71332   0.82464    0.000
 4598.00    0.74969   0.83259    0.000
 4599.00    0.79111   0.83220    0.000
 4600.00    0.82129   0.82497    0.000
 4601.00    0.82160   0.82353    0.000
 4602.00    0.81482   0.82869    0.000
 4603.00    0.79187   0.83049    0.000
 4604.00    0.79101   0.82655    0.000
 4605.00    0.83372   0.82585    0.000
 4606.00    0.87610   0.84021    0.000
 4607.00    0.91791   0.86939    0.000
 4608.00    0.91821   0.89677    0.000
 4609.00    0.85602   0.90426    0.000
 4610.00    0.82153   0.89183    0.000
 4611.00    0.82368   0.87427    0.000
 4612.00    0.83069   0.86256    0.000
 4613.00    0.84337   0.86210    0.000
 4614.00    0.87577   0.87255    0.000
 4615.00    0.92845   0.88287    0.000
 4616.00    0.95665   0.88689    0.000
 4617.00    0.96266   0.88496    0.000
 4618.00    0.92709   0.87530    0.000
 4619.00    0.85830   0.86842    0.000
 4620.00    0.84067   0.87517    0.000
 4621.00    0.85900   0.88394    0.000
 4622.00    0.83573   0.88467    0.000
 4623.00    0.78681   0.88273    0.000
 4624.00    0.77792   0.87856    0.000
 4625.00    0.79060   0.87140    0.000
 4626.00    0.78926   0.86873    0.000
 4627.00    0.78137   0.86994    0.000
 4628.00    0.81418   0.86594    0.000
 4629.00    0.86341   0.86168    0.000
 4630.00    0.90819   0.86812    0.000
 4631.00    0.95146   0.87508    0.000
 4632.00    0.92788   0.86667    0.000
 4633.00    0.88495   0.85103    0.000
 4634.00    0.83936   0.84407    0.000
 4635.00    0.79313   0.84340    0.000
 4636.00    0.76685   0.83713    0.000
 4637.00    0.74442   0.82350    0.000
 4638.00    0.80610   0.81037    0.000
 4639.00    0.88040   0.80471    0.000
 4640.00    0.85702   0.81187    0.000
 4641.00    0.82289   0.82780    0.000
 4642.00    0.76974   0.83666    0.000
 4643.00    0.71520   0.83094    0.000
 4644.00    0.70286   0.81353    0.000
 4645.00    0.69213   0.78650    0.000
 4646.00    0.71575   0.76091    0.000
 4647.00    0.74039   0.75428    0.000
 4648.00    0.79626   0.76830    0.000
 4649.00    0.84905   0.79083    0.000
 4650.00    0.85156   0.81282    0.000
 4651.00    0.85351   0.83129    0.000
 4652.00    0.84982   0.84124    0.000
 4653.00    0.84416   0.83479    0.000
 4654.00    0.82410   0.81712    0.000
 4655.00    0.80371   0.80660    0.000
 4656.00    0.78145   0.81508    0.000
 4657.00    0.76251   0.84219    0.000
 4658.00    0.75834   0.87555    0.000
 4659.00    0.75470   0.89550    0.000
 4660.00    0.75301   0.89063    0.000
 4661.00    0.77216   0.86677    0.000
 4662.00    0.85526   0.84051    0.000
 4663.00    0.90857   0.82474    0.000
 4664.00    0.88418   0.81534    0.000
 4665.00    0.84992   0.79452    0.000
 4666.00    0.79353   0.75981    0.000
 4667.00    0.75683   0.73729    0.000
 4668.00    0.75835   0.74887    0.000
 4669.00    0.73856   0.78464    0.000
 4670.00    0.68265   0.81895    0.000
 4671.00    0.67920   0.83479    0.000
 4672.00    0.75356   0.83184    0.000
 4673.00    0.81122   0.82331    0.000
 4674.00    0.84711   0.82336    0.000
 4675.00    0.86591   0.83468    0.000
 4676.00    0.86509   0.84461    0.000
 4677.00    0.84368   0.83958    0.000
 4678.00    0.80141   0.82293    0.000
 4679.00    0.80104   0.80667    0.000
 4680.00    0.83810   0.79663    0.000
 4681.00    0.85395   0.79583    0.000
 4682.00    0.85310   0.80543    0.000
 4683.00    0.83052   0.81529    0.000
 4684.00    0.79291   0.81419    0.000
 4685.00    0.77974   0.80750    0.000
 4686.00    0.78141   0.80498    0.000
 4687.00    0.78720   0.80737    0.000
 4688.00    0.79517   0.81285    0.000
 4689.00    0.81891   0.81715    0.000
 4690.00    0.84991   0.81560    0.000
 4691.00    0.83487   0.81307    0.000
 4692.00    0.80158   0.81651    0.000
 4693.00    0.78590   0.82577    0.000
 4694.00    0.77617   0.83878    0.000
 4695.00    0.75919   0.84964    0.000
 4696.00    0.74016   0.84594    0.000
 4697.00    0.77203   0.82335    0.000
 4698.00    0.81581   0.79815    0.000
 4699.00    0.78285   0.78910    0.000
 4700.00    0.73545   0.79153    0.000
 4701.00    0.72860   0.78976    0.000
 4702.00    0.72765   0.78447    0.000
 4703.00    0.73851   0.78811    0.000
 4704.00    0.75062   0.80085    0.000
 4705.00    0.76287   0.80795    0.000
 4706.00    0.77513   0.80206    0.000
 4707.00    0.78649   0.79159    0.000
 4708.00    0.79782   0.78736    0.000
 4709.00    0.78977   0.79531    0.000
 4710.00    0.78163   0.81313    0.000
 4711.00    0.77178   0.82366    0.000
 4712.00    0.76015   0.81370    0.000
 4713.00    0.72132   0.79484    0.000
 4714.00    0.68752   0.78968    0.000
 4715.00    0.70297   0.80687    0.000
 4716.00    0.71982   0.83351    0.000
 4717.00    0.74657   0.85396    0.000
 4718.00    0.77096   0.86755    0.000
 4719.00    0.78246   0.87729    0.000
 4720.00    0.79484   0.87861    0.000
 4721.00    0.81105   0.86995    0.000
 4722.00    0.82909   0.86164    0.000
 4723.00    0.85373   0.86516    0.000
 4724.00    0.86804   0.87491    0.000
 4725.00    0.85128   0.87062    0.000
 4726.00    0.81911   0.84136    0.000
 4727.00    0.74747   0.80206    0.000
 4728.00    0.70416   0.77812    0.000
 4729.00    0.72334   0.77652    0.000
 4730.00    0.75562   0.78733    0.000
 4731.00    0.81292   0.80263    0.000
 4732.00    0.85016   0.81741    0.000
 4733.00    0.85393   0.82756    0.000
 4734.00    0.81451   0.83226    0.000
 4735.00    0.71196   0.82848    0.000
 4736.00    0.67303   0.82145    0.000
 4737.00    0.71589   0.82819    0.000
 4738.00    0.75180   0.84519    0.000
 4739.00    0.77983   0.85035    0.000
 4740.00    0.75530   0.84211    0.000
 4741.00    0.67826   0.83755    0.000
 4742.00    0.65930   0.84295    0.000
 4743.00    0.69150   0.84857    0.000
 4744.00    0.74479   0.84866    0.000
 4745.00    0.81445   0.85155    0.000
 4746.00    0.83240   0.86050    0.000
 4747.00    0.81508   0.86580    0.000
 4748.00    0.82498   0.86490    0.000
 4749.00    0.85117   0.86388    0.000
 4750.00    0.89853   0.86133    0.000
 4751.00    0.95693   0.85209    0.000
 4752.00    0.94209   0.83926    0.000
 4753.00    0.89408   0.82927    0.000
 4754.00    0.84920   0.82474    0.000
 4755.00    0.80555   0.82490    0.000
 4756.00    0.81847   0.82742    0.000
 4757.00    0.85013   0.83134    0.000
 4758.00    0.83833   0.83716    0.000
 4759.00    0.81445   0.84198    0.000
 4760.00    0.78735   0.83693    0.000
 4761.00    0.75951   0.81979    0.057
 4762.00    0.77069   0.80237    0.057
 4763.00    0.78902   0.79135    0.057
 4764.00    0.79442   0.78079    0.058
 4765.00    0.79800   0.77150    0.059
 4766.00    0.76914   0.77444    0.058
 4767.00    0.73698   0.79247    0.056
 4768.00    0.74917   0.81622    0.057
 4769.00    0.76423   0.83270    0.057
 4770.00    0.80363   0.83240    0.057
 4771.00    0.84369   0.82178    0.057
 4772.00    0.84551   0.82011    0.057
 4773.00    0.84769   0.83421    0.057
 4774.00    0.86028   0.85011    0.057
 4775.00    0.86990   0.85530    0.057
 4776.00    0.83674   0.85549    0.057
 4777.00    0.80841   0.85693    0.057
 4778.00    0.82551   0.85439    0.057
 4779.00    0.83792   0.84705    0.057
 4780.00    0.81820   0.83942    0.056
 4781.00    0.80142   0.82890    0.056
 4782.00    0.80027   0.81435    0.056
 4783.00    0.80283   0.80640    0.056
 4784.00    0.82118   0.80890    0.055
 4785.00    0.83117   0.80928    0.054
 4786.00    0.81182   0.80549    0.055
 4787.00    0.78653   0.80674    0.056
 4788.00    0.74373   0.80947    0.055
 4789.00    0.71969   0.80951    0.055
 4790.00    0.74291   0.81334    0.056
 4791.00    0.77198   0.82449    0.057
 4792.00    0.81371   0.84259    0.056
 4793.00    0.85341   0.86500    0.056
 4794.00    0.88927   0.88120    0.057
 4795.00    0.89906   0.88093    0.058
 4796.00    0.86600   0.86611    0.058
 4797.00    0.84500   0.84535    0.058
 4798.00    0.84139   0.82624    0.057
 4799.00    0.82239   0.81781    0.057
 4800.00    0.78387   0.82714    0.057
 4801.00    0.78139   0.84827    0.057
 4802.00    0.81915   0.86373    0.058
 4803.00    0.82594   0.86112    0.058
 4804.00    0.80223   0.84479    0.058
 4805.00    0.79477   0.82880    0.057
 4806.00    0.80143   0.81875    0.056
 4807.00    0.81240   0.81264    0.057
 4808.00    0.82667   0.81411    0.058
 4809.00    0.80884   0.82418    0.058
 4810.00    0.76943   0.83372    0.057
 4811.00    0.76657   0.83605    0.057
 4812.00    0.78525   0.83410    0.057
 4813.00    0.81922   0.83338    0.057
 4814.00    0.86105   0.83644    0.058
 4815.00    0.87187   0.84361    0.058
 4816.00    0.86887   0.85350    0.058
 4817.00    0.85200   0.86259    0.058
 4818.00    0.82981   0.86829    0.058
 4819.00    0.79480   0.86943    0.058
 4820.00    0.75562   0.86417    0.059
 4821.00    0.75494   0.84893    0.059
 4822.00    0.76475   0.82351    0.059
 4823.00    0.76620   0.80368    0.059
 4824.00    0.76578   0.80753    0.059
 4825.00    0.81577   0.82619    0.059
 4826.00    0.87474   0.83611    0.059
 4827.00    0.82164   0.83084    0.058
 4828.00    0.75328   0.82279    0.058
 4829.00    0.78782   0.82091    0.058
 4830.00    0.83236   0.81731    0.059
 4831.00    0.78032   0.80683    0.059
 4832.00    0.72243   0.80380    0.059
 4833.00    0.73023   0.81649    0.058
 4834.00    0.73989   0.83093    0.057
 4835.00    0.76986   0.83531    0.058
 4836.00    0.79719   0.83322    0.058
 4837.00    0.75555   0.82734    0.058
 4838.00    0.72326   0.81475    0.058
 4839.00    0.81863   0.80141    0.058
 4840.00    0.90102   0.79794    0.058
 4841.00    0.86611   0.80084    0.057
 4842.00    0.83384   0.79987    0.057
 4843.00    0.81920   0.80063    0.057
 4844.00    0.80637   0.81310    0.057
 4845.00    0.80291   0.82746    0.058
 4846.00    0.78904   0.82610    0.058
 4847.00    0.73180   0.80829    0.058
 4848.00    0.69123   0.79224    0.000
 4849.00    0.70805   0.79264    0.000
 4850.00    0.71730   0.80100    0.000
 4851.00    0.70463   0.80258    0.000
 4852.00    0.70216   0.79480    0.000
 4853.00    0.72492   0.77507    0.000
 4854.00    0.73695   0.74419    0.000
 4855.00    0.72608   0.72126    0.000
 4856.00    0.71317   0.71831    0.000
 4857.00    0.69650   0.71485    0.000
 4858.00    0.70129   0.68463    0.000
 4859.00    0.74082   0.62787    0.000
 4860.00    0.73280   0.57352    0.000
 4861.00    0.65727   0.56061    0.000
 4862.00    0.62801   0.59729    0.000
 4863.00    0.65654   0.64915    0.000
 4864.00    0.65202   0.68889    0.000
 4865.00    0.61111   0.71787    0.000
 4866.00    0.59367   0.73869    0.000
 4867.00    0.59904   0.75031    0.000
 4868.00    0.65144   0.75474    0.000
 4869.00    0.74412   0.74619    0.000
 4870.00    0.74078   0.72116    0.000
 4871.00    0.66500   0.70289    0.000
 4872.00    0.62018   0.71503    0.000
 4873.00    0.59587   0.74371    0.000
 4874.00    0.63778   0.76303    0.000
 4875.00    0.71813   0.77271    0.054
 4876.00    0.72059   0.78359    0.055
 4877.00    0.68366   0.79761    0.055
 4878.00    0.68548   0.81362    0.055
 4879.00    0.70426   0.82213    0.055
 4880.00    0.72240   0.81164    0.055
 4881.00    0.74031   0.79554    0.054
 4882.00    0.76472   0.79293    0.054
 4883.00    0.79121   0.79384    0.054
 4884.00    0.75650   0.78103    0.054
 4885.00    0.70547   0.76250    0.054
 4886.00    0.70766   0.75689    0.054
 4887.00    0.72146   0.76440    0.055
 4888.00    0.71576   0.76759    0.055
 4889.00    0.70668   0.75306    0.054
 4890.00    0.72861   0.73180    0.054
 4891.00    0.75461   0.73555    0.054
 4892.00    0.75427   0.77486    0.054
 4893.00    0.75148   0.82378    0.054
 4894.00    0.74387   0.85817    0.054
 4895.00    0.73599   0.87368    0.054
 4896.00    0.72673   0.87517    0.054
 4897.00    0.71797   0.86813    0.054
 4898.00    0.76768   0.85291    0.054
 4899.00    0.81604   0.83435    0.054
 4900.00    0.83253   0.82518    0.054
 4901.00    0.84778   0.82406    0.054
 4902.00    0.84701   0.81885    0.054
 4903.00    0.84178   0.81506    0.053
 4904.00    0.79767   0.82682    0.053
 4905.00    0.76174   0.84744    0.053
 4906.00    0.77833   0.85513    0.053
 4907.00    0.78789   0.84097    0.053
 4908.00    0.76210   0.81469    0.052
 4909.00    0.74336   0.79141    0.052
 4910.00    0.75330   0.78367    0.053
 4911.00    0.76538   0.79364    0.053
 4912.00    0.78467   0.81101    0.054
 4913.00    0.81651   0.82715    0.054
 4914.00    0.88410   0.84135    0.054
 4915.00    0.92945   0.84817    0.054
 4916.00    0.92072   0.83433    0.055
 4917.00    0.87644   0.79364    0.055
 4918.00    0.75754   0.73885    0.053
 4919.00    0.67686   0.69601    0.052
 4920.00    0.66594   0.68647    0.051
 4921.00    0.67453   0.71084    0.051
 4922.00    0.71425   0.74526    0.052
 4923.00    0.72674   0.76514    0.053
 4924.00    0.70115   0.77440    0.052
 4925.00    0.70075   0.79220    0.052
 4926.00    0.73139   0.81850    0.052
 4927.00    0.76908   0.84079    0.052
 4928.00    0.81443   0.85693    0.051
 4929.00    0.82330   0.86671    0.051
 4930.00    0.79725   0.86662    0.051
 4931.00    0.80013   0.85372    0.052
 4932.00    0.82745   0.82739    0.053
 4933.00    0.81024   0.80361    0.053
 4934.00    0.75991   0.80235    0.053
 4935.00    0.74195   0.81106    0.052
 4936.00    0.74513   0.80045    0.052
 4937.00    0.73494   0.76991    0.052
 4938.00    0.71711   0.74872    0.052
 4939.00    0.71249   0.76023    0.052
 4940.00    0.71445   0.79502    0.000
 4941.00    0.74280   0.82611    0.000
 4942.00    0.78253   0.84383    0.000
 4943.00    0.79612   0.85267    0.000
 4944.00    0.80007   0.85124    0.000
 4945.00    0.82655   0.84342    0.000
 4946.00    0.86008   0.84294    0.000
 4947.00    0.80769   0.85182    0.000
 4948.00    0.73288   0.86023    0.000
 4949.00    0.70643   0.86536    0.000
 4950.00    0.69027   0.86934    0.000
 4951.00    0.74703   0.86769    0.000
 4952.00    0.81608   0.85665    0.000
 4953.00    0.83338   0.84193    0.000
 4954.00    0.84410   0.82551    0.000
 4955.00    0.80465   0.79542    0.000
 4956.00    0.76076   0.74865    0.000
 4957.00    0.77046   0.71882    0.000
 4958.00    0.78299   0.73954    0.000
 4959.00    0.73679   0.78932    0.000
 4960.00    0.69084   0.82325    0.000
 4961.00    0.75200   0.83160    0.000
 4962.00    0.81043   0.83042    0.000
 4963.00    0.80934   0.82358    0.000
 4964.00    0.80739   0.80498    0.000
 4965.00    0.79497   0.78346    0.000
 4966.00    0.77950   0.77405    0.000
 4967.00    0.73850   0.77665    0.000
 4968.00    0.70647   0.78408    0.000
 4969.00    0.73049   0.79327    0.000
 4970.00    0.75038   0.80406    0.000
 4971.00    0.74999   0.81662    0.000
 4972.00    0.75634   0.82811    0.000
 4973.00    0.78948   0.83559    0.000
 4974.00    0.80208   0.83726    0.000
 4975.00    0.74666   0.83177    0.000
 4976.00    0.71399   0.81971    0.000
 4977.00    0.74488   0.80243    0.000
 4978.00    0.74907   0.78596    0.000
 4979.00    0.68940   0.77548    0.000
 4980.00    0.65802   0.76154    0.000
 4981.00    0.68509   0.73485    0.000
 4982.00    0.70005   0.70958    0.000
 4983.00    0.69323   0.70638    0.000
 4984.00    0.70245   0.72386    0.000
 4985.00    0.73687   0.74911    0.000
 4986.00    0.74318   0.77555    0.000
 4987.00    0.71075   0.79530    0.000
 4988.00    0.70456   0.80010    0.000
 4989.00    0.73022   0.79288    0.000
 4990.00    0.74490   0.78502    0.000
 4991.00    0.74784   0.78569    0.000
 4992.00    0.75092   0.79044    0.000
 4993.00    0.75412   0.79080    0.000
 4994.00    0.74525   0.79217    0.000
 4995.00    0.72631   0.79850    0.000
 4996.00    0.71822   0.80165    0.000
 4997.00    0.71808   0.79508    0.000
 4998.00    0.71925   0.77740    0.000
 4999.00    0.72125   0.75477    0.000
 5000.00    0.74226   0.73993    0.000
 5001.00    0.77395   0.73775    0.000
 5002.00    0.77099   0.74173    0.000
 5003.00    0.75104   0.74057    0.000
 5004.00    0.73838   0.72655    0.000
 5005.00    0.72881   0.70854    0.000
 5006.00    0.71187   0.70879    0.000
 5007.00    0.69226   0.73409    0.000
 5008.00    0.66295   0.76283    0.000
 5009.00    0.63066   0.77309    0.000
 5010.00    0.65047   0.76312    0.000
 5011.00    0.68358   0.73978    0.000
 5012.00    0.67236   0.71215    0.000
 5013.00    0.65194   0.69215    0.000
 5014.00    0.65622   0.68895    0.000
 5015.00    0.66455   0.70153    0.000
 5016.00    0.67455   0.71606    0.000
 5017.00    0.68475   0.72300    0.000
 5018.00    0.69508   0.72863    0.000
 5019.00    0.70541   0.73698    0.000
 5020.00    0.72344   0.73987    0.000
 5021.00    0.74185   0.73465    0.000
 5022.00    0.71317   0.73447    0.000
 5023.00    0.68435   0.74750    0.000
 5024.00    0.69123   0.76236    0.000
 5025.00    0.69761   0.76545    0.000
 5026.00    0.69378   0.75598    0.000
 5027.00    0.69190   0.74770    0.000
 5028.00    0.71259   0.75527    0.000
 5029.00    0.73172   0.77316    0.049
 5030.00    0.73814   0.78884    0.049
 5031.00    0.74427   0.80285    0.049
 5032.00    0.74861   0.81586    0.050
 5033.00    0.75328   0.81617    0.050
 5034.00    0.75955   0.79415    0.049
 5035.00    0.76473   0.76344    0.049
 5036.00    0.76571   0.74871    0.049
 5037.00    0.75669   0.74732    0.050
 5038.00    0.71528   0.73379    0.050
 5039.00    0.68886   0.70083    0.050
 5040.00    0.70363   0.67126    0.050
 5041.00    0.70767   0.67557    0.050
 5042.00    0.68649   0.71618    0.049
 5043.00    0.67915   0.76423    0.049
 5044.00    0.69993   0.79919    0.049
 5045.00    0.72122   0.81800    0.050
 5046.00    0.74341   0.81446    0.050
 5047.00    0.75296   0.78719    0.050
 5048.00    0.74296   0.75447    0.050
 5049.00    0.72752   0.73708    0.050
 5050.00    0.70468   0.73619    0.050
 5051.00    0.69327   0.74307    0.050
 5052.00    0.69552   0.75619    0.051
 5053.00    0.70697   0.77482    0.051
 5054.00    0.72812   0.79085    0.052
 5055.00    0.75208   0.79811    0.052
 5056.00    0.77867   0.80079    0.052
 5057.00    0.79615   0.80517    0.052
 5058.00    0.80616   0.81038    0.052
 5059.00    0.80595   0.81559    0.052
 5060.00    0.79836   0.82299    0.051
 5061.00    0.77915   0.82698    0.051
 5062.00    0.75258   0.81526    0.051
 5063.00    0.76561   0.78466    0.051
 5064.00    0.80058   0.75309    0.052
 5065.00    0.78233   0.74279    0.052
 5066.00    0.73841   0.74897    0.052
 5067.00    0.73191   0.75289    0.052
 5068.00    0.74097   0.75555    0.051
 5069.00    0.71159   0.76478    0.051
 5070.00    0.66852   0.77045    0.052
 5071.00    0.67274   0.76368    0.052
 5072.00    0.69117   0.75800    0.052
 5073.00    0.67813   0.76362    0.052
 5074.00    0.65721   0.76900    0.052
 5075.00    0.67211   0.76749    0.052
 5076.00    0.69427   0.76600    0.052
 5077.00    0.69614   0.75876    0.052
 5078.00    0.69478   0.73242    0.051
 5079.00    0.69349   0.70088    0.051
 5080.00    0.69222   0.69220    0.052
 5081.00    0.65428   0.70554    0.051
 5082.00    0.61340   0.72022    0.050
 5083.00    0.67056   0.73121    0.050
 5084.00    0.73213   0.74517    0.051
 5085.00    0.70416   0.75909    0.050
 5086.00    0.67641   0.76610    0.049
 5087.00    0.71245   0.76867    0.049
 5088.00    0.74962   0.77269    0.049
 5089.00    0.80766   0.77757    0.049
 5090.00    0.85477   0.78141    0.049
 5091.00    0.78025   0.78800    0.049
 5092.00    0.71063   0.79818    0.049
 5093.00    0.67918   0.80264    0.049
 5094.00    0.65523   0.79374    0.048
 5095.00    0.67546   0.77562    0.048
 5096.00    0.70047   0.75476    0.048
 5097.00    0.74777   0.73237    0.048
 5098.00    0.77931   0.71467    0.048
 5099.00    0.75077   0.71629    0.048
 5100.00    0.72040   0.73848    0.048
 5101.00    0.68420   0.76108    0.047
 5102.00    0.65301   0.76766    0.047
 5103.00    0.63536   0.76150    0.047
 5104.00    0.62915   0.75357    0.047
 5105.00    0.64941   0.74663    0.047
 5106.00    0.65687   0.73721    0.047
 5107.00    0.63873   0.72796    0.047
 5108.00    0.64540   0.72365    0.047
 5109.00    0.69530   0.72338    0.047
 5110.00    0.72039   0.72943    0.047
 5111.00    0.70761   0.74312    0.048
 5112.00    0.70154   0.75646    0.048
 5113.00    0.70444   0.76574    0.048
 5114.00    0.71010   0.77404    0.048
 5115.00    0.71904   0.78263    0.049
 5116.00    0.72452   0.79224    0.050
 5117.00    0.72640   0.79973    0.050
 5118.00    0.72496   0.79813    0.050
 5119.00    0.72046   0.78610    0.049
 5120.00    0.72907   0.76829    0.049
 5121.00    0.74829   0.74781    0.049
 5122.00    0.73330   0.72484    0.049
 5123.00    0.69396   0.70575    0.048
 5124.00    0.65119   0.70084    0.048
 5125.00    0.60627   0.70696    0.049
 5126.00    0.62173   0.71129    0.049
 5127.00    0.67015   0.71016    0.049
 5128.00    0.66492   0.70938    0.049
 5129.00    0.63425   0.71497    0.049
 5130.00    0.60622   0.72841    0.049
 5131.00    0.57928   0.74311    0.048
 5132.00    0.61320   0.75164    0.048
 5133.00    0.66839   0.75737    0.049
 5134.00    0.67203   0.76568    0.049
 5135.00    0.66048   0.76815    0.050
 5136.00    0.64437   0.75559    0.050
 5137.00    0.62715   0.73487    0.049
 5138.00    0.66543   0.72000    0.050
 5139.00    0.71468   0.72110    0.050
 5140.00    0.70388   0.73089    0.050
 5141.00    0.68383   0.72928    0.050
 5142.00    0.70655   0.71952    0.050
 5143.00    0.73413   0.71990    0.050
 5144.00    0.69631   0.72492    0.050
 5145.00    0.65349   0.72062    0.050
 5146.00    0.63921   0.71216    0.050
 5147.00    0.62610   0.71122    0.050
 5148.00    0.62420   0.71830    0.050
 5149.00    0.62268   0.72285    0.051
 5150.00    0.63343   0.71789    0.050
 5151.00    0.64455   0.70902    0.050
 5152.00    0.66215   0.70407    0.050
 5153.00    0.67756   0.70634    0.050
 5154.00    0.66967   0.71810    0.050
 5155.00    0.66160   0.73836    0.050
 5156.00    0.65214   0.76019    0.050
 5157.00    0.65058   0.77485    0.050
 5158.00    0.69423   0.77872    0.051
 5159.00    0.73073   0.77726    0.052
 5160.00    0.73470   0.77358    0.051
 5161.00    0.73567   0.76284    0.051
 5162.00    0.72544   0.74635    0.051
 5163.00    0.70332   0.72656    0.050
 5164.00    0.64411   0.69369    0.049
 5165.00    0.60388   0.64229    0.049
 5166.00    0.61395   0.58927    0.049
 5167.00    0.61474   0.56382    0.048
 5168.00    0.59447   0.57864    0.049
 5169.00    0.56331   0.60934    0.049
 5170.00    0.51072   0.61345    0.049
 5171.00    0.48660   0.58225    0.048
 5172.00    0.51131   0.55904    0.048
 5173.00    0.53021   0.58397    0.048
 5174.00    0.54037   0.64149    0.048
 5175.00    0.55093   0.68883    0.048
 5176.00    0.56201   0.71141    0.048
 5177.00    0.57137   0.72033    0.048
 5178.00    0.57874   0.72110    0.048
 5179.00    0.59507   0.71041    0.047
 5180.00    0.62060   0.68444    0.047
 5181.00    0.61550   0.63983    0.046
 5182.00    0.58267   0.58644    0.046
 5183.00    0.57001   0.55951    0.046
 5184.00    0.57343   0.58765    0.046
 5185.00    0.57300   0.65152    0.046
 5186.00    0.56986   0.70619    0.046
 5187.00    0.58185   0.73224    0.045
 5188.00    0.60315   0.74247    0.045
 5189.00    0.62892   0.74583    0.045
 5190.00    0.65709   0.72992    0.000
 5191.00    0.64000   0.69642    0.000
 5192.00    0.60180   0.67625    0.000
 5193.00    0.60146   0.68327    0.000
 5194.00    0.61637   0.69844    0.000
 5195.00    0.63918   0.71038    0.000
 5196.00    0.66472   0.72486    0.000
 5197.00    0.68638   0.74185    0.000
 5198.00    0.70692   0.75547    0.000
 5199.00    0.73451   0.76221    0.000
 5200.00    0.76379   0.76048    0.000
 5201.00    0.77305   0.75163    0.000
 5202.00    0.77845   0.73658    0.000
 5203.00    0.73969   0.71052    0.000
 5204.00    0.69433   0.67512    0.000
 5205.00    0.67145   0.64777    0.000
 5206.00    0.65104   0.63797    0.000
 5207.00    0.62367   0.63559    0.000
 5208.00    0.59579   0.63839    0.000
 5209.00    0.61023   0.65712    0.000
 5210.00    0.62625   0.69182    0.000
 5211.00    0.67076   0.73026    0.049
 5212.00    0.71402   0.75859    0.049
 5213.00    0.70672   0.76628    0.049
 5214.00    0.70003   0.75336    0.049
 5215.00    0.70320   0.73526    0.049
 5216.00    0.70599   0.73145    0.049
 5217.00    0.70493   0.74629    0.050
 5218.00    0.70524   0.76764    0.051
 5219.00    0.71542   0.78302    0.050
 5220.00    0.73316   0.78970    0.050
 5221.00    0.79299   0.78713    0.050
 5222.00    0.83332   0.77111    0.050
 5223.00    0.78694   0.74059    0.050
 5224.00    0.74430   0.70169    0.050
 5225.00    0.71532   0.66555    0.050
 5226.00    0.69051   0.65021    0.050
 5227.00    0.67845   0.67145    0.050
 5228.00    0.66524   0.71759    0.049
 5229.00    0.64902   0.75673    0.049
 5230.00    0.64581   0.77203    0.049
 5231.00    0.67169   0.76400    0.048
 5232.00    0.69471   0.74264    0.048
 5233.00    0.71218   0.72858    0.048
 5234.00    0.72358   0.73546    0.048
 5235.00    0.72468   0.75854    0.049
 5236.00    0.72439   0.78379    0.049
 5237.00    0.72204   0.79820    0.048
 5238.00    0.74293   0.79903    0.048
 5239.00    0.79408   0.79442    0.048
 5240.00    0.81147   0.79210    0.048
 5241.00    0.79013   0.79186    0.047
 5242.00    0.77689   0.79308    0.047
 5243.00    0.77185   0.79874    0.047
 5244.00    0.76365   0.80137    0.047
 5245.00    0.75262   0.78431    0.047
 5246.00    0.74578   0.75227    0.047
 5247.00    0.74222   0.73213    0.047
 5248.00    0.73999   0.73032    0.047
 5249.00    0.73866   0.72866    0.046
 5250.00    0.72569   0.72525    0.046
 5251.00    0.70566   0.73292    0.046
 5252.00    0.72627   0.74669    0.046
 5253.00    0.76839   0.75025    0.046
 5254.00    0.74178   0.74525    0.046
 5255.00    0.68360   0.75235    0.046
 5256.00    0.69004   0.77898    0.046
 5257.00    0.72202   0.80664    0.046
 5258.00    0.73264   0.81636    0.046
 5259.00    0.73606   0.80475    0.047
 5260.00    0.72810   0.77704    0.047
 5261.00    0.71693   0.73976    0.046
 5262.00    0.69540   0.70055    0.047
 5263.00    0.67146   0.66726    0.048
 5264.00    0.63815   0.64486    0.048
 5265.00    0.60309   0.63894    0.048
 5266.00    0.61054   0.65143    0.048
 5267.00    0.62415   0.66032    0.048
 5268.00    0.60743   0.64020    0.049
 5269.00    0.58751   0.61454    0.050
 5270.00    0.57716   0.62887    0.051
 5271.00    0.56745   0.67756    0.051
 5272.00    0.57294   0.71771    0.051
 5273.00    0.57893   0.73083    0.051
 5274.00    0.59434   0.72924    0.050
 5275.00    0.61147   0.73441    0.050
 5276.00    0.68291   0.75901    0.051
 5277.00    0.74898   0.79022    0.051
 5278.00    0.73315   0.80399    0.050
 5279.00    0.72111   0.79357    0.049
 5280.00    0.74610   0.77047    0.049
 5281.00    0.77274   0.74793    0.050
 5282.00    0.81102   0.73299    0.049
 5283.00    0.83382   0.73339    0.049
 5284.00    0.77274   0.75729    0.049
 5285.00    0.72800   0.79523    0.049
 5286.00    0.75422   0.82199    0.049
 5287.00    0.76926   0.82671    0.049
 5288.00    0.74430   0.82279    0.050
 5289.00    0.73578   0.82475    0.050
 5290.00    0.77659   0.83008    0.050
 5291.00    0.81723   0.82862    0.050
 5292.00    0.85743   0.81954    0.049
 5293.00    0.86187   0.80994    0.049
 5294.00    0.78766   0.79848    0.049
 5295.00    0.75039   0.77378    0.049
 5296.00    0.78359   0.73631    0.049
 5297.00    0.78055   0.70952    0.049
 5298.00    0.71715   0.71425    0.048
 5299.00    0.70452   0.73823    0.047
 5300.00    0.76598   0.75452    0.048
 5301.00    0.78328   0.76157    0.048
 5302.00    0.74389   0.77660    0.048
 5303.00    0.73557   0.80269    0.048
 5304.00    0.76240   0.82510    0.048
 5305.00    0.78622   0.83099    0.047
 5306.00    0.80706   0.82333    0.047
 5307.00    0.81483   0.81734    0.047
 5308.00    0.81110   0.82230    0.047
 5309.00    0.79531   0.83142    0.047
 5310.00    0.77017   0.83401    0.046
 5311.00    0.75154   0.82843    0.046
 5312.00    0.73735   0.81974    0.046
 5313.00    0.73442   0.81272    0.046
 5314.00    0.73821   0.80711    0.046
 5315.00    0.75595   0.80003    0.046
 5316.00    0.78095   0.79413    0.045
 5317.00    0.78208   0.79388    0.045
 5318.00    0.77243   0.79632    0.045
 5319.00    0.81448   0.79676    0.046
 5320.00    0.87660   0.79501    0.046
 5321.00    0.85634   0.78924    0.046
 5322.00    0.80885   0.77503    0.045
 5323.00    0.76490   0.75641    0.046
 5324.00    0.72194   0.74557    0.047
 5325.00    0.73768   0.73754    0.047
 5326.00    0.76682   0.70881    0.047
 5327.00    0.74735   0.66342    0.047
 5328.00    0.71900   0.64566    0.046
 5329.00    0.68566   0.67869    0.046
 5330.00    0.65162   0.73060    0.046
 5331.00    0.69605   0.76275    0.046
 5332.00    0.74841   0.77428    0.047
 5333.00    0.75310   0.78525    0.048
 5334.00    0.75473   0.80045    0.048
 5335.00    0.74177   0.80876    0.048
 5336.00    0.72846   0.80619    0.048
 5337.00    0.75073   0.79659    0.048
 5338.00    0.77234   0.77734    0.048
 5339.00    0.77518   0.74913    0.048
 5340.00    0.77883   0.73214    0.048
 5341.00    0.79414   0.74357    0.049
 5342.00    0.80737   0.76994    0.049
 5343.00    0.80119   0.78610    0.048
 5344.00    0.79247   0.78444    0.047
 5345.00    0.76640   0.77546    0.047
 5346.00    0.74048   0.76996    0.048
 5347.00    0.71536   0.76493    0.048
 5348.00    0.70305   0.75784    0.048
 5349.00    0.74513   0.76072    0.048
 5350.00    0.77253   0.77985    0.048
 5351.00    0.74851   0.80238    0.048
 5352.00    0.74035   0.81654    0.048
 5353.00    0.77892   0.82673    0.048
 5354.00    0.79643   0.83878    0.047
 5355.00    0.76102   0.84827    0.047
 5356.00    0.74778   0.85144    0.046
 5357.00    0.78251   0.85076    0.047
 5358.00    0.80583   0.84795    0.048
 5359.00    0.80774   0.84111    0.047
 5360.00    0.80993   0.82809    0.047
 5361.00    0.81260   0.81248    0.046
 5362.00    0.79652   0.80120    0.046
 5363.00    0.75346   0.79389    0.044
 5364.00    0.72599   0.78621    0.044
 5365.00    0.71823   0.78028    0.045
 5366.00    0.71678   0.77806    0.045
 5367.00    0.72236   0.77380    0.044
 5368.00    0.72006   0.75796   -2.000
 5369.00    0.71000   0.72801   -2.000
 5370.00    0.67935   0.70111   -2.000
 5371.00    0.63084   0.70409   -2.000
 5372.00    0.60557   0.74107   -2.000
 5373.00    0.59806   0.78607   -2.000
 5374.00    0.62615   0.81371   -2.000
 5375.00    0.67817   0.81931   -2.000
 5376.00    0.73401   0.81385   -2.000
 5377.00    0.79210   0.81155   -2.000
 5378.00    0.82480   0.81475   -2.000
 5379.00    0.84449   0.81450   -2.000
 5380.00    0.83192   0.80718   -2.000
 5381.00    0.80501   0.79722   -2.000
 5382.00    0.80224   0.78961   -2.000
 5383.00    0.80867   0.78964    0.047
 5384.00    0.81174   0.79782    0.047
 5385.00    0.81371   0.80551    0.047
 5386.00    0.81115   0.80557    0.047
 5387.00    0.80736   0.79806    0.048
 5388.00    0.81591   0.78466    0.047
 5389.00    0.82721   0.76913    0.047
 5390.00    0.81561   0.75802    0.047
 5391.00    0.79995   0.75406    0.047
 5392.00    0.76284   0.75403    0.048
 5393.00    0.72282   0.75374    0.048
 5394.00    0.71305   0.74857    0.048
 5395.00    0.70620   0.73283    0.048
 5396.00    0.71142   0.71376    0.048
 5397.00    0.71736   0.71396    0.048
 5398.00    0.72410   0.73719    0.048
 5399.00    0.73085   0.76011    0.049
 5400.00    0.73710   0.77029    0.048
 5401.00    0.74278   0.77282    0.048
 5402.00    0.73376   0.76382    0.047
 5403.00    0.72386   0.73517    0.047
 5404.00    0.70206   0.69854    0.047
 5405.00    0.68683   0.68010    0.047
 5406.00    0.73068   0.69107    0.046
 5407.00    0.76634   0.71253    0.045
 5408.00    0.74787   0.71892    0.046
 5409.00    0.73077   0.71284    0.046
 5410.00    0.72073   0.71855    0.046
 5411.00    0.71409   0.74317    0.046
 5412.00    0.72159   0.76858    0.045
 5413.00    0.72851   0.78053    0.045
 5414.00    0.73347   0.78498    0.045
 5415.00    0.74618   0.79427    0.044
 5416.00    0.78130   0.80765    0.044
 5417.00    0.81416   0.81351    0.045
 5418.00    0.84148   0.80645    0.045
 5419.00    0.84613   0.79343    0.045
 5420.00    0.80254   0.78618    0.045
 5421.00    0.77946   0.78724    0.045
 5422.00    0.79432   0.78497    0.044
 5423.00    0.80435   0.77481    0.044
 5424.00    0.80660   0.77273    0.044
 5425.00    0.80807   0.78854    0.044
 5426.00    0.80842   0.80525    0.044
 5427.00    0.80328   0.79716    0.045
 5428.00    0.79131   0.76264    0.045
 5429.00    0.78640   0.73400    0.044
 5430.00    0.78926   0.73555    0.044
 5431.00    0.76904   0.74768    0.045
 5432.00    0.72646   0.74376    0.045
 5433.00    0.71878   0.72827    0.045
 5434.00    0.74096   0.71974    0.046
 5435.00    0.75238   0.72729    0.046
 5436.00    0.75571   0.74913    0.046
 5437.00    0.77402   0.77856    0.046
 5438.00    0.80222   0.80636    0.046
 5439.00    0.82267   0.82470    0.046
 5440.00    0.83862   0.83241    0.046
 5441.00    0.81525   0.83346    0.046
 5442.00    0.77205   0.82973    0.046
 5443.00    0.79150   0.81602    0.047
 5444.00    0.83834   0.78587    0.048
 5445.00    0.83969   0.74506    0.048
 5446.00    0.82398   0.71691    0.047
 5447.00    0.79558   0.72229    0.047
 5448.00    0.76313   0.75223    0.047
 5449.00    0.78172   0.77935    0.047
 5450.00    0.81388   0.78942    0.047
 5451.00    0.78773   0.78546    0.047
 5452.00    0.74891   0.77203    0.047
 5453.00    0.71179   0.74891    0.047
 5454.00    0.67497   0.72193    0.047
 5455.00    0.67321   0.71103    0.047
 5456.00    0.67605   0.72988    0.047
 5457.00    0.67684   0.76384    0.046
 5458.00    0.67745   0.78656    0.045
 5459.00    0.72455   0.78768    0.046
 5460.00    0.77426   0.77465    0.046
 5461.00    0.76742   0.75755    0.046
 5462.00    0.75943   0.74457    0.045
 5463.00    0.76353   0.74502    0.044
 5464.00    0.76627   0.75782    0.044
 5465.00    0.73724   0.76948    0.044
 5466.00    0.71106   0.77468    0.045
 5467.00    0.72151   0.77750    0.044
 5468.00    0.73366   0.77623    0.044
 5469.00    0.76054   0.76870    0.044
 5470.00    0.77811   0.76144    0.044
 5471.00    0.73601   0.75765    0.044
 5472.00    0.70280   0.75168    0.045
 5473.00    0.71424   0.74291    0.044
 5474.00    0.72515   0.73253    0.044
 5475.00    0.73389   0.71604    0.044
 5476.00    0.73823   0.70298    0.044
 5477.00    0.72781   0.71322    0.044
 5478.00    0.71488   0.73923   -2.000
 5479.00    0.69484   0.75085   -2.000
 5480.00    0.70195   0.73976   -2.000
 5481.00    0.77497   0.72858   -2.000
 5482.00    0.79000   0.73616   -2.000
 5483.00    0.68353   0.75813   -2.000
 5484.00    0.59734   0.77846   -2.000
 5485.00    0.54810   0.78256   -2.000
 5486.00    0.31488   0.76919   -2.000
 5487.00   -0.21117   0.75465   -2.000
 5488.00   -0.29805   0.75260   -2.000
 5489.00    0.22859   0.75903   -2.000
 5490.00    0.61713   0.76652   -2.000
 5491.00    0.83590   0.77155   -2.000
 5492.00    1.08259   0.77037   -2.000
 5493.00    1.35954   0.76642   -2.000
 5494.00    1.32160   0.76643   -2.000
 5495.00    0.98267   0.76575   -2.000
 5496.00    0.80200   0.75948   -2.000
 5497.00    0.75472   0.75840   -2.000
 5498.00    0.75971   0.76923   -2.000
 5499.00    0.80349   0.77660   -2.000
 5500.00    0.81371   0.76768   -2.000
 5501.00    0.80204   0.75310   -2.000
 5502.00    0.79893   0.74770    0.047
 5503.00    0.80070   0.74963    0.046
 5504.00    0.76791   0.74731    0.046
 5505.00    0.71795   0.73792    0.046
 5506.00    0.71482   0.73427    0.046
 5507.00    0.73181   0.74508    0.045
 5508.00    0.73955   0.75871    0.045
 5509.00    0.74387   0.76080    0.045
 5510.00    0.73873   0.74974    0.045
 5511.00    0.73062   0.73213    0.044
 5512.00    0.71431   0.71892    0.044
 5513.00    0.69586   0.71753    0.044
 5514.00    0.68337   0.72570    0.044
 5515.00    0.67215   0.73815    0.044
 5516.00    0.68720   0.75353    0.043
 5517.00    0.70667   0.77186    0.043
 5518.00    0.74187   0.78717    0.043
 5519.00    0.77906   0.79228    0.044
 5520.00    0.78017   0.78943    0.044
 5521.00    0.77809   0.78606    0.044
 5522.00    0.75168   0.78475    0.044
 5523.00    0.72399   0.78283    0.044
 5524.00    0.71671   0.77672    0.044
 5525.00    0.71001   0.76428    0.044
 5526.00    0.71768   0.74568    0.044
 5527.00    0.72553   0.72871    0.043
 5528.00    0.73736   0.72796    0.044
 5529.00    0.74803   0.74579    0.044
 5530.00    0.74456   0.76529    0.044
 5531.00    0.74597   0.77250    0.044
 5532.00    0.78804   0.76957    0.045
 5533.00    0.82064   0.76330    0.046
 5534.00    0.79443   0.75771    0.046
 5535.00    0.77317   0.75677    0.046
 5536.00    0.77612   0.76026    0.045
 5537.00    0.77419   0.76448    0.045
 5538.00    0.75285   0.77097    0.046
 5539.00    0.74011   0.78159    0.047
 5540.00    0.75571   0.79024    0.047
 5541.00    0.77823   0.78923    0.047
 5542.00    0.82003   0.78016    0.047
 5543.00    0.84849   0.77257    0.048
 5544.00    0.84510   0.77047    0.048
 5545.00    0.83026   0.77071    0.047
 5546.00    0.79179   0.77489    0.046
 5547.00    0.77530   0.78603    0.046
 5548.00    0.79822   0.79823    0.046
 5549.00    0.81410   0.80424    0.047
 5550.00    0.81895   0.80378    0.046
 5551.00    0.82630   0.79822    0.046
 5552.00    0.83710   0.78822    0.046
 5553.00    0.83566   0.77788    0.045
 5554.00    0.81938   0.77328    0.044
 5555.00    0.79800   0.77459    0.044
 5556.00    0.77117   0.77593    0.044
 5557.00    0.76159   0.77526    0.044
 5558.00    0.76826   0.77555    0.044
 5559.00    0.78706   0.77616    0.044
 5560.00    0.81595   0.77314    0.044
 5561.00    0.80396   0.76602    0.044
 5562.00    0.76208   0.75965    0.044
 5563.00    0.75223   0.75774    0.044
 5564.00    0.76295   0.75612    0.044
 5565.00    0.77314   0.75101    0.043
 5566.00    0.78302   0.74700    0.043
 5567.00    0.78080   0.74689    0.043
 5568.00    0.77267   0.74762    0.044
 5569.00    0.76391   0.75029    0.044
 5570.00    0.75489   0.75557    0.044
 5571.00    0.76054   0.75510    0.044
 5572.00    0.77151   0.74955    0.044
 5573.00    0.74783   0.75216    0.044
 5574.00    0.71354   0.76213    0.045
 5575.00    0.73788   0.76827    0.045
 5576.00    0.77714   0.77052    0.045
 5577.00    0.76313   0.77240    0.045
 5578.00    0.73809   0.77358    0.045
 5579.00    0.77475   0.77497    0.046
 5580.00    0.82148   0.77483    0.046
 5581.00    0.82922   0.77085    0.046
 5582.00    0.83219   0.76600    0.046
 5583.00    0.79757   0.76016    0.086
 5584.00    0.75979   0.74759    1.959
 5585.00    0.73948   0.72612   -1.000
 5586.00    0.72001   0.70212   -1.000
 5587.00    0.70808   0.68663   -1.000
 5588.00    0.69642   0.68601   -1.000
 5589.00    0.69337   0.69796   -1.000
 5590.00    0.68969   0.71385   -1.000
 5591.00    0.67340   0.72449   -1.000
 5592.00    0.66152   0.72771    1.154
 5593.00    0.70079   0.72981    0.085
 5594.00    0.73430   0.74000    0.046
 5595.00    0.72141   0.75722    0.047
 5596.00    0.71527   0.76479    0.047
 5597.00    0.74981   0.75361    0.047
 5598.00    0.77240   0.73666    0.047
 5599.00    0.73794   0.72580    0.046
 5600.00    0.71339   0.71813    0.045
 5601.00    0.72730   0.71195    0.046
 5602.00    0.73382   0.71469    0.046
 5603.00    0.71643   0.73217    0.045
 5604.00    0.70975   0.75807    0.045
 5605.00    0.73243   0.78000    0.044
 5606.00    0.75919   0.79132    0.044
 5607.00    0.79555   0.79307    0.044
 5608.00    0.81996   0.79013    0.044
 5609.00    0.82010   0.78783    0.044
 5610.00    0.81153   0.78950    0.044
 5611.00    0.78756   0.79301    0.044
 5612.00    0.77793   0.78839    0.043
 5613.00    0.79045   0.76451    0.043
 5614.00    0.79714   0.72753    0.043
 5615.00    0.79594   0.70502    0.043
 5616.00    0.78389   0.71238    0.043
 5617.00    0.75887   0.73184    0.044
 5618.00    0.73138   0.74231    0.044
 5619.00    0.70129   0.74526    0.044
 5620.00    0.71749   0.75094    0.044
 5621.00    0.77673   0.75732    0.044
 5622.00    0.78266   0.75205    0.045
 5623.00    0.74494   0.73232    0.044
 5624.00    0.72593   0.71474    0.045
 5625.00    0.72041   0.71584    0.045
 5626.00    0.72903   0.73108    0.045
 5627.00    0.74660   0.74730    0.045
 5628.00    0.75048   0.76103    0.045
 5629.00    0.74678   0.77267    0.045
 5630.00    0.75613   0.77938    0.045
 5631.00    0.77176   0.77954    0.045
 5632.00    0.76586   0.77471    0.045
 5633.00    0.75102   0.76698    0.044
 5634.00    0.74637   0.75774    0.044
 5635.00    0.74535   0.74800    0.044
 5636.00    0.75136   0.74014    0.044
 5637.00    0.75948   0.73809    0.044
 5638.00    0.74145   0.74142    0.044
 5639.00    0.71690   0.74297    0.043
 5640.00    0.73855   0.73884    0.043
 5641.00    0.76954   0.73522    0.043
 5642.00    0.78232   0.73749    0.043
 5643.00    0.79221   0.74290    0.042
 5644.00    0.79394   0.74814    0.042
 5645.00    0.79471   0.75285    0.042
 5646.00    0.80203   0.75671    0.042
 5647.00    0.80988   0.75790    0.042
 5648.00    0.79973   0.75590    0.042
 5649.00    0.78878   0.75509    0.042
 5650.00    0.77720   0.76034    0.042
 5651.00    0.76584   0.76882    0.042
 5652.00    0.76555   0.77153    0.042
 5653.00    0.76481   0.76417    0.042
 5654.00    0.75609   0.75414    0.042
 5655.00    0.74891   0.74880    0.042
 5656.00    0.75870   0.73954    0.043
 5657.00    0.76306   0.71907    0.043
 5658.00    0.72521   0.70449    0.042
 5659.00    0.69708   0.71115    0.042
 5660.00    0.72600   0.72449    0.042
 5661.00    0.75119   0.72743    0.043
 5662.00    0.75897   0.72755    0.043
 5663.00    0.76340   0.73731    0.043
 5664.00    0.75507   0.75178    0.043
 5665.00    0.75540   0.75818    0.043
 5666.00    0.78321   0.75318    0.044
 5667.00    0.79050   0.74507    0.044
 5668.00    0.74259   0.74235    0.044
 5669.00    0.71977   0.74522    0.045
 5670.00    0.75486   0.75142    0.044
 5671.00    0.77585   0.76205    0.044
 5672.00    0.76870   0.77528    0.044
 5673.00    0.76744   0.78317    0.044
 5674.00    0.77644   0.78290    0.043
 5675.00    0.76376   0.78162    0.043
 5676.00    0.71809   0.78309    0.043
 5677.00    0.72233   0.78195    0.043
 5678.00    0.79335   0.77601    0.044
 5679.00    0.82807   0.76963    0.044
 5680.00    0.82003   0.76296    0.043
 5681.00    0.81187   0.75280    0.043
 5682.00    0.80360   0.74440    0.042
 5683.00    0.78535   0.74578    0.042
 5684.00    0.75796   0.75210    0.041
 5685.00    0.74810   0.75127    0.041
 5686.00    0.75239   0.74187    0.041
 5687.00    0.75656   0.73475    0.041
 5688.00    0.76064   0.73866    0.041
 5689.00    0.74992   0.75168    0.040
 5690.00    0.72998   0.76641    0.041
 5691.00    0.73702   0.77806    0.040
 5692.00    0.75877   0.78393    0.040
 5693.00    0.76133   0.78260    0.040
 5694.00    0.75480   0.77748    0.041
 5695.00    0.75306   0.77333    0.042
 5696.00    0.75328   0.76872    0.043
 5697.00    0.75071   0.75994    0.043
 5698.00    0.74716   0.74978    0.043
 5699.00    0.72929   0.74140    0.043
 5700.00    0.70721   0.73299    0.042
 5701.00    0.74654   0.72704    0.043
 5702.00    0.80084   0.72991    0.044
 5703.00    0.79404   0.73924    0.043
 5704.00    0.77521   0.74362    0.042
 5705.00    0.74351   0.73608    0.042
 5706.00    0.70984   0.72113    0.042
 5707.00    0.71862   0.70642    0.042
 5708.00    0.73222   0.69706    0.043
 5709.00    0.75904   0.69621    0.043
 5710.00    0.78687   0.70112    0.043
 5711.00    0.76861   0.70922    0.043
 5712.00    0.74849   0.72427    0.043
 5713.00    0.74746   0.74383    0.042
 5714.00    0.74611   0.75890    0.042
 5715.00    0.72543   0.76684    0.041
 5716.00    0.70609   0.76991    0.041
 5717.00    0.70976   0.77102    0.041
 5718.00    0.71683   0.77366    0.041
 5719.00    0.75986   0.77846    0.041
 5720.00    0.79556   0.78416    0.041
 5721.00    0.77632   0.79046    0.041
 5722.00    0.76132   0.79554    0.040
 5723.00    0.77056   0.79648    0.040
 5724.00    0.78220   0.79186    0.040
 5725.00    0.80478   0.78090    0.040
 5726.00    0.82029   0.76772    0.040
 5727.00    0.80952   0.76304    0.040
 5728.00    0.79322   0.76942    0.040
 5729.00    0.75967   0.77394    0.039
 5730.00    0.73745   0.76812    0.040
 5731.00    0.74520   0.76200    0.040
 5732.00    0.75020   0.76691    0.040
 5733.00    0.74895   0.77826    0.040
 5734.00    0.75194   0.78540    0.040
 5735.00    0.76325   0.78484    0.040
 5736.00    0.77404   0.78000    0.040
 5737.00    0.78395   0.77569    0.041
 5738.00    0.79619   0.77388    0.041
 5739.00    0.81190   0.77375    0.042
 5740.00    0.82021   0.77355    0.000
 5741.00    0.81876   0.77179    0.000
 5742.00    0.82363   0.77017    0.000
 5743.00    0.83585   0.77374    0.000
 5744.00    0.83343   0.78265    0.000
 5745.00    0.81602   0.78782    0.000
 5746.00    0.79215   0.78098    0.000
 5747.00    0.76244   0.76768    0.000
 5748.00    0.75303   0.76309    0.000
 5749.00    0.75976   0.77106    0.000
 5750.00    0.76890   0.77773    0.000
 5751.00    0.77972   0.77017    0.000
 5752.00    0.77875   0.75181    0.000
 5753.00    0.77054   0.73850    0.000
 5754.00    0.76753   0.74301    0.000
 5755.00    0.76732   0.76234    0.000
 5756.00    0.76193   0.78181    0.000
 5757.00    0.75412   0.79007    0.000
 5758.00    0.76170   0.78477    0.000
 5759.00    0.77545   0.76923    0.000
 5760.00    0.77163   0.74987    0.000
 5761.00    0.76180   0.73512    0.000
 5762.00    0.76363   0.73405    0.000
 5763.00    0.76883   0.74960    0.000
 5764.00    0.79595   0.77161    0.000
 5765.00    0.82830   0.78680    0.000
 5766.00    0.82428   0.79241    0.000
 5767.00    0.81330   0.79256    0.000
 5768.00    0.80293   0.78979    0.000
 5769.00    0.79266   0.78533    0.000
 5770.00    0.79508   0.78010    0.000
 5771.00    0.79888   0.77488    0.000
 5772.00    0.79858   0.77121    0.000
 5773.00    0.79799   0.76934    0.000
 5774.00    0.81707   0.76939    0.000
 5775.00    0.83688   0.77264    0.000
 5776.00    0.82645   0.77714    0.000
 5777.00    0.81609   0.77755    0.000
 5778.00    0.81262   0.76881    0.000
 5779.00    0.80997   0.74847    0.000
 5780.00    0.82044   0.72302    0.000
 5781.00    0.82846   0.70679    0.000
 5782.00    0.81161   0.70478    0.000
 5783.00    0.79439   0.70642    0.000
 5784.00    0.77447   0.70498    0.000
 5785.00    0.75816   0.70921    0.000
 5786.00    0.76191   0.72556    0.000
 5787.00    0.76349   0.74533    0.000
 5788.00    0.75549   0.75716    0.000
 5789.00    0.75063   0.75743    0.000
 5790.00    0.75721   0.75223    0.000
 5791.00    0.75687   0.75287   -2.000
 5792.00    0.73539   0.76263   -2.000
 5793.00    0.71613   0.77517   -2.000
 5794.00    0.70262   0.78355   -2.000
 5795.00    0.68794   0.78216   -2.000
 5796.00    0.67064   0.77071   -2.000
 5797.00    0.68411   0.76063   -2.000
 5798.00    0.75711   0.76512   -2.000
 5799.00    0.80498   0.78159   -2.000
 5800.00    0.81049   0.79658   -2.000
 5801.00    0.80762   0.80225   -2.000
 5802.00    0.79238   0.79727   -2.000
 5803.00    0.79897   0.78405   -2.000
 5804.00    0.83392   0.77113   -2.000
 5805.00    0.86445   0.76625   -2.000
 5806.00    0.88990   0.76857   -2.000
 5807.00    0.87532   0.77290   -2.000
 5808.00    0.82033   0.77666   -2.000
 5809.00    0.78716   0.78024   -2.000
 5810.00    0.77342   0.78323   -2.000
 5811.00    0.77544   0.78404    0.000
 5812.00    0.78983   0.78206    0.000
 5813.00    0.79960   0.77634    0.000
 5814.00    0.80617   0.76631    0.000
 5815.00    0.81121   0.75706    0.000
 5816.00    0.81532   0.75747    0.000
 5817.00    0.80336   0.76944    0.000
 5818.00    0.78292   0.78444    0.000
 5819.00    0.76155   0.79382    0.000
 5820.00    0.73974   0.79577    0.000
 5821.00    0.76090   0.79251    0.000
 5822.00    0.79901   0.78780    0.000
 5823.00    0.82509   0.78556    0.000
 5824.00    0.84714   0.78686    0.000
 5825.00    0.84956   0.78899    0.000
 5826.00    0.84645   0.78971    0.000
 5827.00    0.83855   0.79017    0.000
 5828.00    0.82953   0.79200    0.000
 5829.00    0.81884   0.79375    0.000
 5830.00    0.80784   0.79312    0.000
 5831.00    0.78704   0.79069    0.000
 5832.00    0.76483   0.78703    0.000
 5833.00    0.77899   0.78141    0.000
 5834.00    0.79696   0.77681    0.000
 5835.00    0.78932   0.77741    0.000
 5836.00    0.77994   0.77973    0.000
 5837.00    0.78363   0.77842    0.000
 5838.00    0.78776   0.77723    0.000
 5839.00    0.80201   0.78222    0.000
 5840.00    0.81537   0.79114    0.000
 5841.00    0.80027   0.79788    0.000
 5842.00    0.78696   0.79969    0.000
 5843.00    0.80066   0.79646    0.000
 5844.00    0.81358   0.78895    0.000
 5845.00    0.81889   0.77898    0.000
 5846.00    0.82204   0.76949    0.000
 5847.00    0.81008   0.76422    0.000
 5848.00    0.79805   0.76432    0.000
 5849.00    0.78570   0.76608    0.000
 5850.00    0.77383   0.76365    0.000
 5851.00    0.76407   0.75430    0.000
 5852.00    0.75717   0.74271    0.000
 5853.00    0.76049   0.73771    0.000
 5854.00    0.76144   0.73966    0.000
 5855.00    0.75532   0.73758    0.000
 5856.00    0.74751   0.72599    0.000
 5857.00    0.73542   0.71547    0.000
 5858.00    0.73965   0.71824    0.000
 5859.00    0.77974   0.73191    0.000
 5860.00    0.79653   0.74474    0.000
 5861.00    0.76896   0.74926    0.000
 5862.00    0.75151   0.74853    0.000
 5863.00    0.75089   0.74932    0.000
 5864.00    0.75190   0.75087    0.000
 5865.00    0.75526   0.74822    0.000
 5866.00    0.75670   0.74456    0.000
 5867.00    0.75567   0.74813    0.000
 5868.00    0.75215   0.75875    0.000
 5869.00    0.74582   0.76834    0.000
 5870.00    0.74110   0.77095    0.000
 5871.00    0.73798   0.76666    0.000
 5872.00    0.73681   0.75933    0.000
 5873.00    0.73734   0.75286    0.000
 5874.00    0.75055   0.74831    0.000
 5875.00    0.77358   0.74493    0.000
 5876.00    0.78662   0.74295    0.000
 5877.00    0.79287   0.74178    0.000
 5878.00    0.79953   0.73769    0.000
 5879.00    0.80644   0.73096    0.000
 5880.00    0.80477   0.72822    0.000
 5881.00    0.79864   0.73178    0.000
 5882.00    0.78695   0.73479    0.000
 5883.00    0.77275   0.73288    0.000
 5884.00    0.74335   0.72974    0.000
 5885.00    0.70805   0.72504    0.000
 5886.00    0.67993   0.70670    0.000
 5887.00    0.65419   0.66039    0.000
 5888.00    0.64085   0.59036    0.000
 5889.00    0.63093   0.53229    0.000
 5890.00    0.63195   0.52522    0.000
 5891.00    0.63545   0.56445    0.000
 5892.00    0.61647   0.60738    0.000
 5893.00    0.59339   0.61896    0.000
 5894.00    0.59009   0.59501    0.000
 5895.00    0.58955   0.56578    0.000
 5896.00    0.60391   0.57127    0.000
 5897.00    0.61977   0.61341    0.000
 5898.00    0.64423   0.66006    0.000
 5899.00    0.66924   0.69216    0.000
 5900.00    0.68775   0.71246    0.000
 5901.00    0.70602   0.72512    0.036
 5902.00    0.70786   0.73176    0.036
 5903.00    0.70979   0.73414    0.036
 5904.00    0.71410   0.73311    0.036
 5905.00    0.71828   0.73127    0.036
 5906.00    0.72069   0.73291    0.036
 5907.00    0.72401   0.73803    0.037
 5908.00    0.73590   0.74272    0.036
 5909.00    0.74744   0.74552    0.036
 5910.00    0.75659   0.74775    0.037
 5911.00    0.76169   0.74738    0.037
 5912.00    0.74547   0.73991    0.037
 5913.00    0.73356   0.72685    0.037
 5914.00    0.73983   0.71662    0.037
 5915.00    0.74396   0.71511    0.037
 5916.00    0.74061   0.72149    0.037
 5917.00    0.73977   0.73091    0.037
 5918.00    0.74636   0.73891    0.037
 5919.00    0.75736   0.74381    0.038
 5920.00    0.77944   0.74450    0.038
 5921.00    0.79486   0.74164    0.038
 5922.00    0.79589   0.73980    0.038
 5923.00    0.79620   0.74210    0.037
 5924.00    0.79515   0.74678    0.038
 5925.00    0.79317   0.75054    0.038
 5926.00    0.78967   0.75034    0.037
 5927.00    0.78837   0.74459    0.037
 5928.00    0.79022   0.73554    0.037
 5929.00    0.79252   0.72960    0.037
 5930.00    0.79540   0.73286    0.036
 5931.00    0.79510   0.74216    0.036
 5932.00    0.79127   0.74622    0.036
 5933.00    0.79417   0.74032    0.036
 5934.00    0.80367   0.73301    0.036
 5935.00    0.80998   0.73404    0.036
 5936.00    0.81353   0.74187    0.036
 5937.00    0.81369   0.74944    0.036
 5938.00    0.81127   0.75285    0.036
 5939.00    0.80664   0.74942    0.036
 5940.00    0.80053   0.74002    0.036
 5941.00    0.78720   0.73268    0.036
 5942.00    0.76962   0.73402    0.036
 5943.00    0.76152   0.74232    0.036
 5944.00    0.75825   0.75207    0.036
 5945.00    0.75747   0.75813    0.036
 5946.00    0.75779   0.75631    0.036
 5947.00    0.76540   0.74657    0.037
 5948.00    0.77578   0.73637    0.037
 5949.00    0.76751   0.73420    0.037
 5950.00    0.75321   0.73775    0.037
 5951.00    0.74974   0.73729    0.037
 5952.00    0.74921   0.73235    0.038
 5953.00    0.75452   0.73157    0.037
 5954.00    0.76113   0.73515    0.037
 5955.00    0.77531   0.73464    0.037
 5956.00    0.79082   0.72931    0.037
 5957.00    0.79245   0.72738    0.037
 5958.00    0.79220   0.73349    0.037
 5959.00    0.78518   0.74447    0.037
 5960.00    0.77750   0.75469    0.037
 5961.00    0.76381   0.76040    0.036
 5962.00    0.74976   0.76101    0.036
 5963.00    0.74965   0.75788    0.036
 5964.00    0.74997   0.75245    0.035
 5965.00    0.76216   0.74808    0.035
 5966.00    0.77445   0.74929    0.035
 5967.00    0.78924   0.75530    0.035
 5968.00    0.80370   0.76154    0.035
 5969.00    0.81362   0.76608    0.035
 5970.00    0.82165   0.76893    0.035
 5971.00    0.81275   0.76949    0.035
 5972.00    0.80252   0.76739    0.035
 5973.00    0.78357   0.76196    0.036
 5974.00    0.77074   0.75209    0.036
 5975.00    0.78930   0.73971    0.036
 5976.00    0.80058   0.73026    0.036
 5977.00    0.78176   0.72801    0.036
 5978.00    0.76435   0.73332    0.036
 5979.00    0.75176   0.74277    0.036
 5980.00    0.74212   0.74957    0.036
 5981.00    0.74104   0.74724    0.037
 5982.00    0.74296   0.73498    0.037
 5983.00    0.75232   0.72043    0.037
 5984.00    0.75729   0.71535    0.037
 5985.00    0.75293   0.72270    0.037
 5986.00    0.75526   0.73372    0.036
 5987.00    0.76992   0.74161    0.037
 5988.00    0.78962   0.74682    0.037
 5989.00    0.81745   0.74925    0.037
 5990.00    0.83020   0.74770    0.037
 5991.00    0.82162   0.74628    0.036
 5992.00    0.81400   0.75074    0.036
 5993.00    0.80756   0.75851    0.036
 5994.00    0.80209   0.76134    0.036
 5995.00    0.79768   0.75534    0.036
 5996.00    0.79101   0.74415    0.036
 5997.00    0.78216   0.73531    0.036
 5998.00    0.78346   0.73401    0.036
 5999.00    0.79342   0.73868    0.035
 6000.00    0.80576   0.74263    0.035
 6001.00    0.81989   0.74085    0.035
 6002.00    0.81283   0.73646    0.035
 6003.00    0.79178   0.73603    0.034
 6004.00    0.77159   0.73784    0.034
 6005.00    0.75190   0.73409    0.034
 6006.00    0.74833   0.72332    0.035
 6007.00    0.75289   0.71396    0.035
 6008.00    0.76423   0.71681    0.035
 6009.00    0.77853   0.73132    0.036
 6010.00    0.78424   0.74330    0.036
 6011.00    0.78673   0.74198    0.036
 6012.00    0.77746   0.73232    0.036
 6013.00    0.76447   0.72632    0.037
 6014.00    0.77475   0.72704    0.037
 6015.00    0.79120   0.72803    0.037
 6016.00    0.80769   0.72667    0.038
 6017.00    0.82420   0.72598    0.039
 6018.00    0.81214   0.72526    0.038
 6019.00    0.79516   0.72226    0.037
 6020.00    0.76190   0.71998    0.037
 6021.00    0.72652   0.72186    0.036
 6022.00    0.72856   0.72660    0.036
 6023.00    0.73405   0.73206    0.036
 6024.00    0.75415   0.73827    0.036
 6025.00    0.77505   0.74390    0.036
 6026.00    0.78661   0.74740    0.035
 6027.00    0.79776   0.75112    0.035
 6028.00    0.78888   0.75627    0.035
 6029.00    0.78024   0.75958    0.034
 6030.00    0.77718   0.76000    0.034
 6031.00    0.77419   0.76097    0.034
 6032.00    0.77210   0.76403    0.034
 6033.00    0.76945   0.76674    0.034
 6034.00    0.76210   0.76748    0.034
 6035.00    0.75670   0.76732    0.034
 6036.00    0.76383   0.76720    0.034
 6037.00    0.77201   0.76633    0.035
 6038.00    0.78546   0.76352    0.035
 6039.00    0.79492   0.75952    0.035
 6040.00    0.78822   0.75691    0.036
 6041.00    0.78171   0.75757    0.036
 6042.00    0.77587   0.76196    0.036
 6043.00    0.77361   0.76833    0.036
 6044.00    0.78150   0.77352    0.036
 6045.00    0.78380   0.77629    0.036
 6046.00    0.77257   0.77688    0.036
 6047.00    0.77072   0.77540    0.036
 6048.00    0.78851   0.77345    0.036
 6049.00    0.80582   0.77361    0.037
 6050.00    0.82225   0.77447    0.036
 6051.00    0.83216   0.77192    0.036
 6052.00    0.83173   0.76559    0.036
 6053.00    0.82735   0.75885    0.036
 6054.00    0.81747   0.75330    0.036
 6055.00    0.81487   0.74849    0.036
 6056.00    0.82121   0.74598    0.036
 6057.00    0.82804   0.74838    0.035
 6058.00    0.83540   0.75524    0.035
 6059.00    0.83053   0.76222    0.035
 6060.00    0.81401   0.76454    0.035
 6061.00    0.80338   0.76025    0.035
 6062.00    0.79770   0.75036    0.035
 6063.00    0.79398   0.73748    0.034
 6064.00    0.79172   0.72722    0.034
 6065.00    0.78569   0.72877    0.034
 6066.00    0.77723   0.74473    0.034
 6067.00    0.76852   0.76438    0.034
 6068.00    0.75969   0.77636    0.035
 6069.00    0.76374   0.78015    0.035
 6070.00    0.77416   0.78103    0.035
 6071.00    0.77904   0.78212    0.035
 6072.00    0.78154   0.78318    0.036
 6073.00    0.79026   0.78300    0.036
 6074.00    0.80127   0.78055    0.036
 6075.00    0.80951   0.77506    0.036
 6076.00    0.81688   0.76632    0.037
 6077.00    0.82298   0.75578    0.036
 6078.00    0.82875   0.74763    0.036
 6079.00    0.81783   0.74421    0.036
 6080.00    0.80338   0.74144    0.036
 6081.00    0.79008   0.73691    0.036
 6082.00    0.77699   0.73538    0.036
 6083.00    0.77510   0.73853    0.036
 6084.00    0.77462   0.74149    0.035
 6085.00    0.77227   0.74284    0.035
 6086.00    0.76974   0.74561    0.035
 6087.00    0.77488   0.74859    0.035
 6088.00    0.78041   0.74639    0.034
 6089.00    0.79119   0.73845    0.034
 6090.00    0.80171   0.73169    0.035
 6091.00    0.78544   0.73098    0.034
 6092.00    0.76943   0.73508    0.034
 6093.00    0.75884   0.74259    0.033
 6094.00    0.74967   0.75156    0.033
 6095.00    0.75766   0.75644    0.034
 6096.00    0.76555   0.75537    0.035
 6097.00    0.77268   0.75404    0.035
 6098.00    0.78082   0.75656    0.035
 6099.00    0.79519   0.75743    0.035
 6100.00    0.80457   0.74592    0.035
 6101.00    0.78961   0.72096    0.035
 6102.00    0.77563   0.70069    0.035
 6103.00    0.76549   0.70422    0.036
 6104.00    0.75837   0.72569    0.036
 6105.00    0.76117   0.74389    0.036
 6106.00    0.76463   0.74945    0.036
 6107.00    0.76992   0.74917    0.036
 6108.00    0.77242   0.75146    0.037
 6109.00    0.76829   0.75476    0.036
 6110.00    0.76396   0.75368    0.035
 6111.00    0.75918   0.75165    0.035
 6112.00    0.75939   0.75563    0.035
 6113.00    0.76853   0.76312    0.035
 6114.00    0.77876   0.76535    0.035
 6115.00    0.79069   0.76012    0.035
 6116.00    0.79296   0.75418    0.035
 6117.00    0.78197   0.75135    0.034
 6118.00    0.76230   0.74575    0.034
 6119.00    0.73213   0.73172    0.033
 6120.00    0.71798   0.71247    0.033
 6121.00    0.72090   0.69875    0.034
 6122.00    0.72985   0.70224    0.034
 6123.00    0.74447   0.72121    0.034
 6124.00    0.76002   0.73858    0.034
 6125.00    0.77635   0.74281    0.034
 6126.00    0.78571   0.73795    0.034
 6127.00    0.78999   0.73294    0.034
 6128.00    0.78906   0.73390    0.035
 6129.00    0.78481   0.74211    0.035
 6130.00    0.77577   0.75295    0.035
 6131.00    0.76405   0.76000    0.035
 6132.00    0.75688   0.75943    0.035
 6133.00    0.75193   0.74801    0.036
 6134.00    0.75718   0.72308    0.036
 6135.00    0.76674   0.68912    0.036
 6136.00    0.76173   0.66321    0.037
 6137.00    0.75146   0.66552    0.037
 6138.00    0.74301   0.69505    0.037
 6139.00    0.73512   0.72544    0.036
 6140.00    0.73900   0.73571    0.036
 6141.00    0.74588   0.73344    0.036
 6142.00    0.75166   0.73754    0.035
 6143.00    0.75721   0.75080    0.035
 6144.00    0.77494   0.76165    0.035
 6145.00    0.79464   0.76315    0.035
 6146.00    0.81461   0.75715    0.035
 6147.00    0.83461   0.74705    0.035
 6148.00    0.83609   0.73579    0.034
 6149.00    0.83601   0.72796    0.034
 6150.00    0.83057   0.72786    0.034
 6151.00    0.82486   0.73429    0.034
 6152.00    0.81096   0.73985    0.034
 6153.00    0.79667   0.73818    0.034
 6154.00    0.76630   0.73184    0.034
 6155.00    0.73684   0.72788    0.034
 6156.00    0.72533   0.72719    0.034
 6157.00    0.71333   0.72514    0.034
 6158.00    0.69577   0.71657    0.035
 6159.00    0.68219   0.69560    0.036
 6160.00    0.70055   0.66213    0.036
 6161.00    0.71731   0.63125    0.036
 6162.00    0.72448   0.62252    0.036
 6163.00    0.72798   0.63866    0.036
 6164.00    0.71401   0.66448    0.035
 6165.00    0.70336   0.68501    0.036
 6166.00    0.70557   0.69501    0.036
 6167.00    0.70920   0.69185    0.036
 6168.00    0.71740   0.67663    0.036
 6169.00    0.72340   0.66407    0.035
 6170.00    0.72342   0.66975    0.035
 6171.00    0.71984   0.68813    0.035
 6172.00    0.70786   0.70224    0.034
 6173.00    0.70116   0.70719    0.034
 6174.00    0.70516   0.70814    0.034
 6175.00    0.70634   0.70784    0.034
 6176.00    0.70252   0.70799    0.034
 6177.00    0.70113   0.71135    0.034
 6178.00    0.70348   0.71626    0.034
 6179.00    0.70927   0.71905    0.033
 6180.00    0.71970   0.72124    0.033
 6181.00    0.71846   0.72508    0.033
 6182.00    0.70328   0.72805    0.033
 6183.00    0.69962   0.72747    0.033
 6184.00    0.70809   0.72256    0.034
 6185.00    0.71089   0.71293    0.034
 6186.00    0.70843   0.70143    0.035
 6187.00    0.70968   0.69301    0.035
 6188.00    0.71397   0.68733    0.035
 6189.00    0.72022   0.67807    0.035
 6190.00    0.72787   0.66446    0.036
 6191.00    0.73149   0.65891    0.036
 6192.00    0.73256   0.67124    0.035
 6193.00    0.73459   0.69277    0.035
 6194.00    0.73715   0.70959    0.036
 6195.00    0.69574   0.71870    0.037
 6196.00    0.63320   0.72184   -2.000
 6197.00    0.44357   0.71688   -2.000
 6198.00    0.20126   0.70379   -2.000
 6199.00    0.08305   0.69223   -2.000
 6200.00    0.00883   0.69335   -2.000
 6201.00    0.24802   0.70584   -2.000
 6202.00    0.58099   0.71836   -2.000
 6203.00    0.85218   0.72368   -2.000
 6204.00    1.10801   0.72385   -2.000
 6205.00    1.11727   0.72369   -2.000
 6206.00    1.07688   0.72445   -2.000
 6207.00    0.94288   0.72465   -2.000
 6208.00    0.79412   0.72288    0.035
 6209.00    0.76328   0.71840    0.035
 6210.00    0.74626   0.71103    0.035
 6211.00    0.75561   0.69979    0.035
 6212.00    0.76706   0.68339    0.034
 6213.00    0.74685   0.66557    0.034
 6214.00    0.72525   0.65468    0.034
 6215.00    0.71943   0.65550    0.034
 6216.00    0.71415   0.66480    0.034
 6217.00    0.72700   0.67312    0.034
 6218.00    0.73806   0.67301    0.034
 6219.00    0.71646   0.66776    0.035
 6220.00    0.69634   0.66670    0.035
 6221.00    0.69261   0.67265    0.035
 6222.00    0.69041   0.67964    0.035
 6223.00    0.69997   0.68271    0.035
 6224.00    0.70658   0.68414    0.034
 6225.00    0.69588   0.68729    0.035
 6226.00    0.68576   0.69009    0.035
 6227.00    0.67830   0.68725    0.035
 6228.00    0.67406   0.67452    0.036
 6229.00    0.68200   0.65441    0.035
 6230.00    0.69488   0.63925    0.035
 6231.00    0.72344   0.64024    0.035
 6232.00    0.74508   0.65618    0.034
 6233.00    0.74817   0.67839    0.034
 6234.00    0.74541   0.69777    0.033
 6235.00    0.72918   0.70682    0.032
 6236.00    0.71883   0.70351    0.032
 6237.00    0.72020   0.69177    0.032
 6238.00    0.72122   0.67727    0.033
 6239.00    0.72163   0.66598    0.033
 6240.00    0.71846   0.66142    0.033
 6241.00    0.70983   0.65927    0.034
 6242.00    0.70723   0.65411    0.034
 6243.00    0.71270   0.64975    0.034
 6244.00    0.71963   0.65145    0.034
 6245.00    0.72827   0.65848    0.034
 6246.00    0.73508   0.67009    0.035
 6247.00    0.73998   0.68445    0.035
 6248.00    0.73817   0.69450    0.035
 6249.00    0.73022   0.69446    0.035
 6250.00    0.72552   0.68417    0.035
 6251.00    0.72344   0.66813    0.035
 6252.00    0.72462   0.65482    0.035
 6253.00    0.72811   0.65003    0.035
 6254.00    0.72386   0.65002    0.035
 6255.00    0.71480   0.64653    0.035
 6256.00    0.70186   0.63718    0.035
 6257.00    0.68680   0.62885    0.034
 6258.00    0.66550   0.63113    0.035
 6259.00    0.64125   0.64567    0.035
 6260.00    0.58832   0.66478    0.036
 6261.00    0.52371   0.68198    0.038
 6262.00    0.52248   0.69435    0.039
 6263.00    0.54332   0.69728    0.041
 6264.00    0.64840   0.69095    0.040
 6265.00    0.77819   0.68518    0.040
 6266.00    0.86870   0.68637    0.038
 6267.00    0.94966   0.68942    0.037
 6268.00    0.91559   0.68890    0.036
 6269.00    0.85893   0.68746    0.035
 6270.00    0.80783   0.68953    0.034
 6271.00    0.75759   0.69473    0.034
 6272.00    0.74130   0.69919    0.034
 6273.00    0.72883   0.70028    0.034
 6274.00    0.71654   0.69939    0.035
 6275.00    0.70427   0.69928    0.036
 6276.00    0.69119   0.69999    0.036
 6277.00    0.67808   0.69916    0.036
 6278.00    0.70144   0.69427    0.036
 6279.00    0.72471   0.68605    0.036
 6280.00    0.73343   0.68036    0.000
 6281.00    0.74195   0.68252    0.000
 6282.00    0.74688   0.69099    0.000
 6283.00    0.75182   0.69949    0.000
 6284.00    0.75673   0.70406    0.000
 6285.00    0.75988   0.70707    0.000
 6286.00    0.75000   0.71267    0.000
 6287.00    0.74338   0.71998    0.000
 6288.00    0.75534   0.72402    0.000
 6289.00    0.76662   0.72111    0.000
 6290.00    0.77480   0.71271    0.000
 6291.00    0.78004   0.70423    0.000
 6292.00    0.77431   0.70013    0.000
 6293.00    0.76608   0.70031    0.000
 6294.00    0.75005   0.69922    0.000
 6295.00    0.73520   0.69185    0.000
 6296.00    0.72344   0.68215    0.000
 6297.00    0.71511   0.67888    0.000
 6298.00    0.71454   0.68300    0.000
 6299.00    0.71380   0.68614    0.000
 6300.00    0.71275   0.68262    0.000
 6301.00    0.71426   0.67755    0.000
 6302.00    0.72017   0.67889    0.000
 6303.00    0.72714   0.68596    0.000
 6304.00    0.73572   0.69287    0.000
 6305.00    0.74939   0.69928    0.000
 6306.00    0.76975   0.70857    0.000
 6307.00    0.78583   0.71827    0.000
 6308.00    0.79695   0.72130    0.000
 6309.00    0.78486   0.71528    0.000
 6310.00    0.74902   0.70530    0.000
 6311.00    0.72670   0.69831    0.000
 6312.00    0.71657   0.69561    0.000
 6313.00    0.71982   0.69232    0.000
 6314.00    0.73370   0.68635    0.000
 6315.00    0.74348   0.68122    0.000
 6316.00    0.75038   0.67709    0.000
 6317.00    0.74941   0.67193    0.000
 6318.00    0.74361   0.67067    0.000
 6319.00    0.74227   0.67825    0.000
 6320.00    0.74331   0.68937    0.000
 6321.00    0.74893   0.69696    0.033
 6322.00    0.75668   0.70206    0.032
 6323.00    0.76004   0.70808    0.033
 6324.00    0.76164   0.71365    0.033
 6325.00    0.75454   0.71590    0.033
 6326.00    0.74445   0.71580    0.034
 6327.00    0.74084   0.71647    0.034
 6328.00    0.73908   0.71783    0.035
 6329.00    0.75353   0.71730    0.035
 6330.00    0.77184   0.71641    0.035
 6331.00    0.78702   0.71862    0.034
 6332.00    0.80160   0.72057    0.034
 6333.00    0.80600   0.71379    0.034
 6334.00    0.80889   0.69684    0.035
 6335.00    0.79317   0.68095    0.034
 6336.00    0.77544   0.67799    0.034
 6337.00    0.75888   0.68654    0.034
 6338.00    0.74241   0.69748    0.034
 6339.00    0.73726   0.70645    0.033
 6340.00    0.73252   0.71185    0.033
 6341.00    0.74558   0.70979    0.033
 6342.00    0.75877   0.69977    0.033
 6343.00    0.77457   0.68946    0.033
 6344.00    0.78923   0.68752    0.033
 6345.00    0.78591   0.69409    0.033
 6346.00    0.78238   0.70308    0.033
 6347.00    0.77677   0.71062    0.033
 6348.00    0.77277   0.71612    0.034
 6349.00    0.78046   0.71938    0.033
 6350.00    0.78795   0.72069    0.033
 6351.00    0.79441   0.71986    0.034
 6352.00    0.79843   0.71467    0.034
 6353.00    0.79170   0.70468    0.034
 6354.00    0.78407   0.69511    0.034
 6355.00    0.77322   0.69078    0.034
 6356.00    0.76185   0.68783    0.035
 6357.00    0.74887   0.67968    0.035
 6358.00    0.74176   0.66835    0.035
 6359.00    0.74987   0.66033    0.035
 6360.00    0.75590   0.65612    0.036
 6361.00    0.75730   0.65354    0.035
 6362.00    0.74999   0.65460    0.035
 6363.00    0.72586   0.66189    0.035
 6364.00    0.71222   0.67347    0.035
 6365.00    0.71626   0.68588    0.035
 6366.00    0.72972   0.69783    0.034
 6367.00    0.75709   0.70809    0.034
 6368.00    0.78007   0.71363    0.034
 6369.00    0.79735   0.71409    0.034
 6370.00    0.80920   0.71474    0.034
 6371.00    0.81483   0.71996    0.034
 6372.00    0.82002   0.72704    0.034
 6373.00    0.82476   0.73053    0.034
 6374.00    0.82679   0.72998    0.034
 6375.00    0.82643   0.72840    0.033
 6376.00    0.81688   0.72565    0.033
 6377.00    0.80014   0.71963    0.034
 6378.00    0.78539   0.71226    0.034
 6379.00    0.77200   0.70799    0.035
 6380.00    0.76535   0.70844    0.035
 6381.00    0.76278   0.71183    0.035
 6382.00    0.76457   0.71466    0.035
 6383.00    0.76865   0.71482    0.034
 6384.00    0.78019   0.71469    0.034
 6385.00    0.79513   0.71748    0.034
 6386.00    0.80499   0.72176    0.035
 6387.00    0.81283   0.72437    0.035
 6388.00    0.82307   0.72529    0.035
 6389.00    0.83410   0.72496    0.035
 6390.00    0.82948   0.71985    0.035
 6391.00    0.82045   0.70635    0.034
 6392.00    0.80495   0.68971    0.034
 6393.00    0.78795   0.68322    0.034
 6394.00    0.77039   0.69324    0.034
 6395.00    0.75273   0.71110    0.035
 6396.00    0.76044   0.72286    0.034
 6397.00    0.77181   0.72000    0.034
 6398.00    0.78782   0.70307    0.034
 6399.00    0.80432   0.68527    0.034
 6400.00    0.80360   0.68435    0.035
 6401.00    0.80173   0.70192    0.035
 6402.00    0.80686   0.72218    0.035
 6403.00    0.81222   0.73259    0.035
 6404.00    0.81479   0.73258    0.035
 6405.00    0.81704   0.72540    0.035
 6406.00    0.80922   0.71452    0.035
 6407.00    0.80208   0.70653    0.035
 6408.00    0.80509   0.70665    0.035
 6409.00    0.80734   0.70993    0.035
 6410.00    0.80229   0.70819    0.035
 6411.00    0.79914   0.70349    0.035
 6412.00    0.80934   0.70284    0.035
 6413.00    0.81938   0.70685    0.035
 6414.00    0.82866   0.71252    0.035
 6415.00    0.83273   0.71788    0.035
 6416.00    0.81434   0.72011    0.035
 6417.00    0.79734   0.71594    0.034
 6418.00    0.78532   0.70498    0.034
 6419.00    0.77693   0.69186    0.034
 6420.00    0.77940   0.68588    0.033
 6421.00    0.78213   0.69386    0.033
 6422.00    0.78549   0.71083    0.033
 6423.00    0.78624   0.72428    0.033
 6424.00    0.78127   0.72923    0.033
 6425.00    0.77512   0.73128    0.033
 6426.00    0.76673   0.73452    0.034
 6427.00    0.76212   0.73461    0.035
 6428.00    0.76378   0.72497    0.035
 6429.00    0.77322   0.70670    0.035
 6430.00    0.79397   0.69139    0.036
 6431.00    0.80644   0.69048    0.036
 6432.00    0.80830   0.70265    0.036
 6433.00    0.80373   0.71712    0.036
 6434.00    0.79191   0.72611    0.035
 6435.00    0.78007   0.72769    0.035
 6436.00    0.76824   0.72082    0.036
 6437.00    0.75731   0.70695    0.035
 6438.00    0.74719   0.69603    0.035
 6439.00    0.74593   0.69973    0.035
 6440.00    0.75150   0.71642    0.035
 6441.00    0.76732   0.73300    0.035
 6442.00    0.79011   0.74118    0.034
 6443.00    0.79822   0.74323    0.034
 6444.00    0.79761   0.74444    0.034
 6445.00    0.78569   0.74552    0.034
 6446.00    0.76789   0.74065    0.034
 6447.00    0.75899   0.72213    0.034
 6448.00    0.75410   0.69197    0.034
 6449.00    0.75080   0.66756    0.034
 6450.00    0.74811   0.66647    0.035
 6451.00    0.75211   0.68639    0.035
 6452.00    0.75831   0.70904    0.035
 6453.00    0.77231   0.71947    0.035
 6454.00    0.78847   0.71668    0.035
 6455.00    0.79877   0.71154    0.035
 6456.00    0.80774   0.71509    0.035
 6457.00    0.79721   0.72729    0.035
 6458.00    0.78314   0.73910    0.035
 6459.00    0.77730   0.74127    0.035
 6460.00    0.77260   0.72902    0.035
 6461.00    0.76737   0.70707    0.035
 6462.00    0.76208   0.69101    0.035
 6463.00    0.74751   0.69300    0.035
 6464.00    0.73235   0.70828    0.035
 6465.00    0.74729   0.72403    0.035
 6466.00    0.76311   0.73358    0.035
 6467.00    0.78162   0.73628    0.034
 6468.00    0.79897   0.73281    0.034
 6469.00    0.78399   0.72547    0.034
 6470.00    0.76868   0.71891    0.034
 6471.00    0.74872   0.71764    0.034
 6472.00    0.73251   0.72111    0.034
 6473.00    0.75099   0.72344    0.034
 6474.00    0.76657   0.72214    0.034
 6475.00    0.76251   0.72176    0.034
 6476.00    0.75992   0.72498    0.034
 6477.00    0.76512   0.72818    0.034
 6478.00    0.77279   0.72756    0.035
 6479.00    0.79087   0.72154    0.035
 6480.00    0.80503   0.70942    0.035
 6481.00    0.80549   0.69533    0.035
 6482.00    0.79880   0.68846    0.034
 6483.00    0.77110   0.69316    0.034
 6484.00    0.75293   0.70415    0.034
 6485.00    0.75858   0.71398    0.035
 6486.00    0.76703   0.71995    0.035
 6487.00    0.78155   0.72186    0.035
 6488.00    0.78771   0.71887    0.035
 6489.00    0.77826   0.71138    0.035
 6490.00    0.77270   0.70167    0.035
 6491.00    0.77351   0.68862    0.034
 6492.00    0.77192   0.66680    0.034
 6493.00    0.76689   0.63732    0.034
 6494.00    0.76093   0.61335    0.034
 6495.00    0.75380   0.60717    0.034
 6496.00    0.74167   0.61729    0.034
 6497.00    0.72398   0.63323    0.034
 6498.00    0.70826   0.64819    0.034
 6499.00    0.69447   0.66260    0.034
 6500.00    0.69156   0.67758    0.034
 6501.00    0.69803   0.69090    0.034
 6502.00    0.70756   0.70049    0.034
 6503.00    0.71941   0.70735    0.034
 6504.00    0.73145   0.71293    0.035
 6505.00    0.74362   0.71648    0.035
 6506.00    0.75017   0.71579    0.036
 6507.00    0.75342   0.71133    0.036
 6508.00    0.74893   0.70797    0.036
 6509.00    0.74048   0.70962    0.036
 6510.00    0.74490   0.71439    0.036
 6511.00    0.75500   0.71794    0.035
 6512.00    0.75957   0.71852    0.035
 6513.00    0.76204   0.71613    0.035
 6514.00    0.76684   0.71092    0.035
 6515.00    0.77239   0.70436    0.035
 6516.00    0.77048   0.69842    0.035
 6517.00    0.76657   0.69457    0.035
 6518.00    0.75987   0.69527    0.035
 6519.00    0.75256   0.70210    0.035
 6520.00    0.75073   0.71159    0.034
 6521.00    0.74987   0.71821    0.034
 6522.00    0.76602   0.72082    0.034
 6523.00    0.78446   0.72170    0.034
 6524.00    0.79961   0.72060    0.034
 6525.00    0.81445   0.71554    0.034
 6526.00    0.81429   0.70898    0.035
 6527.00    0.81325   0.70687    0.035
 6528.00    0.81532   0.71058    0.000
 6529.00    0.81734   0.71469    0.000
 6530.00    0.80040   0.71353    0.000
 6531.00    0.78438   0.70759    0.000
 6532.00    0.79151   0.70312    0.000
 6533.00    0.79807   0.70557    0.000
 6534.00    0.79708   0.71323    0.000
 6535.00    0.79720   0.71922    0.000
 6536.00    0.80727   0.72019    0.000
 6537.00    0.81617   0.72007    0.000
 6538.00    0.81741   0.72316    0.000
 6539.00    0.81765   0.72716    0.000
 6540.00    0.81278   0.72665    0.000
 6541.00    0.80468   0.72042    0.000
 6542.00    0.78330   0.71177    0.000
 6543.00    0.76961   0.70278    0.000
 6544.00    0.78222   0.69271    0.000
 6545.00    0.79190   0.68325    0.000
 6546.00    0.79317   0.68021    0.000
 6547.00    0.79262   0.68583    0.000
 6548.00    0.78758   0.69395    0.000
 6549.00    0.78731   0.69684    0.000
 6550.00    0.79715   0.69320    0.000
 6551.00    0.79613   0.68659    0.000
 6552.00    0.77511   0.67900    0.000
 6553.00    0.75914   0.66988    0.000
 6554.00    0.75131   0.66081    0.000
 6555.00    0.75248   0.65611    0.000
 6556.00    0.76637   0.65710    0.000
 6557.00    0.76984   0.65934    0.000
 6558.00    0.76036   0.65610    0.000
 6559.00    0.75938   0.63970    0.000
 6560.00    0.76768   0.60210    0.000
 6561.00    0.76389   0.54912    0.000
 6562.00    0.74839   0.51241    0.000
 6563.00    0.72178   0.52298    0.000
 6564.00    0.68571   0.57308    0.000
 6565.00    0.68734   0.62698    0.000
 6566.00    0.71726   0.66071    0.000
 6567.00    0.73215   0.67296    0.000
 6568.00    0.73713   0.67253    0.000
 6569.00    0.72855   0.66943    0.000
 6570.00    0.71214   0.66818    0.000
 6571.00    0.70810   0.66586    0.000
 6572.00    0.71026   0.66010    0.000
 6573.00    0.72035   0.65489    0.000
 6574.00    0.73389   0.65676    0.000
 6575.00    0.73555   0.66785    0.000
 6576.00    0.73278   0.68326    0.000
 6577.00    0.73752   0.69486    0.000
 6578.00    0.74464   0.69754    0.000
 6579.00    0.77551   0.69248    0.000
 6580.00    0.81265   0.68605    0.000
 6581.00    0.83514   0.68476    0.000
 6582.00    0.85445   0.68938    0.000
 6583.00    0.86109   0.69505    0.000
 6584.00    0.86555   0.69761    0.000
 6585.00    0.84272   0.69820    0.000
 6586.00    0.81635   0.70080    0.000
 6587.00    0.81144   0.70615    0.000
 6588.00    0.80849   0.71051    0.000
 6589.00    0.79949   0.70920    0.000
 6590.00    0.79015   0.69852    0.000
 6591.00    0.76465   0.67869    0.000
 6592.00    0.73904   0.65921    0.000
 6593.00    0.73616   0.65357    0.000
 6594.00    0.73377   0.66400    0.000
 6595.00    0.74256   0.67864    0.000
 6596.00    0.75069   0.68618    0.000
 6597.00    0.75047   0.68666    0.000
 6598.00    0.75043   0.68754    0.000
 6599.00    0.75201   0.69373    0.000
 6600.00    0.75295   0.70258    0.000
 6601.00    0.74988   0.70792    0.000
 6602.00    0.74986   0.70678    0.000
 6603.00    0.76504   0.70076    0.000
 6604.00    0.77393   0.69316    0.000
 6605.00    0.75748   0.68623    0.000
 6606.00    0.74361   0.67970    0.000
 6607.00    0.73838   0.67277    0.000
 6608.00    0.73861   0.66867    0.000
 6609.00    0.75426   0.67315    0.036
 6610.00    0.76679   0.68550    0.037
 6611.00    0.77176   0.69657    0.037
 6612.00    0.77868   0.70008    0.037
 6613.00    0.78968   0.70006    0.037
 6614.00    0.79483   0.70252    0.037
 6615.00    0.78939   0.70633    0.037
 6616.00    0.78532   0.70743    0.037
 6617.00    0.78343   0.70650    0.036
 6618.00    0.77900   0.70700    0.036
 6619.00    0.77106   0.70945    0.036
 6620.00    0.77004   0.71084    0.036
 6621.00    0.77749   0.70761    0.036
 6622.00    0.78698   0.69840    0.036
 6623.00    0.79866   0.68638    0.036
 6624.00    0.80158   0.67869    0.037
 6625.00    0.79614   0.67979    0.037
 6626.00    0.80009   0.68604    0.038
 6627.00    0.81193   0.69055    0.038
 6628.00    0.80425   0.69062    0.038
 6629.00    0.78214   0.68764    0.037
 6630.00    0.77308   0.68268    0.037
 6631.00    0.77250   0.67534    0.038
 6632.00    0.76271   0.66693    0.038
 6633.00    0.74768   0.66258    0.038
 6634.00    0.73210   0.66668    0.038
 6635.00    0.71625   0.67709    0.037
 6636.00    0.71461   0.68687    0.037
 6637.00    0.71905   0.69094    0.037
 6638.00    0.72573   0.68977    0.037
 6639.00    0.73322   0.68789    0.037
 6640.00    0.73594   0.68778    0.037
 6641.00    0.73718   0.68613    0.036
 6642.00    0.74494   0.68051    0.036
 6643.00    0.75439   0.67589    0.036
 6644.00    0.77067   0.67755    0.036
 6645.00    0.78839   0.68260    0.037
 6646.00    0.78766   0.68549    0.037
 6647.00    0.78385   0.68614    0.037
 6648.00    0.76158   0.68700    0.037
 6649.00    0.73700   0.68747    0.037
 6650.00    0.72466   0.68582    0.037
 6651.00    0.71339   0.68304    0.038
 6652.00    0.70584   0.68151    0.038
 6653.00    0.69847   0.68201    0.037
 6654.00    0.70587   0.68320    0.038
 6655.00    0.71362   0.68354    0.038
 6656.00    0.72766   0.68319    0.038
 6657.00    0.74104   0.68305    0.038
 6658.00    0.74058   0.68234    0.038
 6659.00    0.74117   0.67949    0.038
 6660.00    0.75450   0.67408    0.037
 6661.00    0.76683   0.66645    0.037
 6662.00    0.77083   0.65869    0.037
 6663.00    0.77007   0.65520    0.038
 6664.00    0.73987   0.65751    0.038
 6665.00    0.72054   0.66169    0.037
 6666.00    0.75394   0.66452    0.037
 6667.00    0.77540   0.66785    0.036
 6668.00    0.74970   0.67415    0.036
 6669.00    0.72860   0.68193    0.037
 6670.00    0.72261   0.68759    0.037
 6671.00    0.72125   0.68961    0.038
 6672.00    0.73277   0.68949    0.038
 6673.00    0.74262   0.68883    0.038
 6674.00    0.74851   0.68605    0.038
 6675.00    0.74538   0.67663    0.038
 6676.00    0.72373   0.65971    0.038
 6677.00    0.71298   0.64430    0.039
 6678.00    0.72173   0.64185    0.039
 6679.00    0.73020   0.65182    0.039
 6680.00    0.73825   0.66330    0.039
 6681.00    0.74082   0.66998    0.038
 6682.00    0.73585   0.67396    0.038
 6683.00    0.73547   0.67766    0.038
 6684.00    0.74062   0.68026    0.038
 6685.00    0.74283   0.68060    0.038
 6686.00    0.74191   0.67914    0.038
 6687.00    0.73785   0.67765    0.038
 6688.00    0.73085   0.67782    0.038
 6689.00    0.73355   0.67952    0.038
 6690.00    0.74430   0.68108    0.038
 6691.00    0.74570   0.68139    0.038
 6692.00    0.74029   0.68032    0.039
 6693.00    0.74502   0.67703    0.039
 6694.00    0.75623   0.67035    0.039
 6695.00    0.77278   0.66193    0.039
 6696.00    0.79230   0.65661    0.000
 6697.00    0.77984   0.65789    0.000
 6698.00    0.75180   0.66488    0.000
 6699.00    0.73318   0.67350    0.000
 6700.00    0.71853   0.67896    0.000
 6701.00    0.73741   0.67843    0.000
 6702.00    0.76837   0.67312    0.000
 6703.00    0.76837   0.66760    0.000
 6704.00    0.75894   0.66626    0.000
 6705.00    0.76055   0.66942    0.000
 6706.00    0.76495   0.67362    0.000
 6707.00    0.75728   0.67562    0.000
 6708.00    0.74712   0.67457    0.000
 6709.00    0.74570   0.67167    0.000
 6710.00    0.74568   0.66892    0.000
 6711.00    0.76173   0.66670    0.000
 6712.00    0.77972   0.66308    0.000
 6713.00    0.76411   0.65649    0.000
 6714.00    0.74570   0.64739    0.000
 6715.00    0.75870   0.63777    0.000
 6716.00    0.77319   0.63148    0.000
 6717.00    0.76056   0.63312    0.000
 6718.00    0.74738   0.64271    0.000
 6719.00    0.72536   0.65364    0.000
 6720.00    0.70395   0.65982    0.000
 6721.00    0.69457   0.66219    0.000
 6722.00    0.68794   0.66463    0.000
 6723.00    0.71288   0.66693    0.000
 6724.00    0.73438   0.66610    0.000
 6725.00    0.72847   0.66276    0.000
 6726.00    0.71971   0.66111    0.000
 6727.00    0.69380   0.66324    0.000
 6728.00    0.68158   0.66745    0.000
 6729.00    0.73426   0.67125    0.000
 6730.00    0.77811   0.67290    0.000
 6731.00    0.78785   0.67170    0.000
 6732.00    0.78888   0.66883    0.000
 6733.00    0.76185   0.66702    0.000
 6734.00    0.73819   0.66770    0.000
 6735.00    0.72372   0.66871    0.000
 6736.00    0.72335   0.66653    0.000
 6737.00    0.75590   0.66101    0.000
 6738.00    0.77968   0.65633    0.000
 6739.00    0.78574   0.65585    0.000
 6740.00    0.78073   0.65760    0.000
 6741.00    0.75624   0.65757    0.000
 6742.00    0.74550   0.65588    0.000
 6743.00    0.75592   0.65576    0.000
 6744.00    0.76186   0.65736    0.000
 6745.00    0.76172   0.65759    0.000
 6746.00    0.74942   0.65526    0.000
 6747.00    0.72266   0.65205    0.000
 6748.00    0.70297   0.64957    0.000
 6749.00    0.69073   0.64860    0.000
 6750.00    0.68700   0.64900    0.000
 6751.00    0.69118   0.64937    0.000
 6752.00    0.66348   0.64946    0.000
 6753.00    0.60976   0.65138    0.044
 6754.00    0.58960   0.65622    0.044
 6755.00    0.59355   0.66272    0.045
 6756.00    0.62594   0.66950    0.045
 6757.00    0.67626   0.67533    0.046
 6758.00    0.72215   0.67899    0.047
 6759.00    0.76559   0.67997    0.048
 6760.00    0.80810   0.67858    0.049
 6761.00    0.85017   0.67626    0.050
 6762.00    0.89152   0.67480    0.051
 6763.00    0.93259   0.67397    0.052
 6764.00    0.92610   0.67106    0.052
 6765.00    0.90279   0.66460    0.052
 6766.00    0.86601   0.65751    0.051
 6767.00    0.82520   0.65439    0.050
 6768.00    0.81764   0.65557    0.050
 6769.00    0.81831   0.65701    0.051
 6770.00    0.82553   0.65711    0.050
 6771.00    0.83407   0.65908    0.049
 6772.00    0.78716   0.66531    0.048
 6773.00    0.73154   0.67352    0.046
 6774.00    0.71637   0.67994    0.046
 6775.00    0.70592   0.68298    0.046
 6776.00    0.73205   0.68367    0.046
 6777.00    0.76106   0.68414    0.046
 6778.00    0.77178   0.68507    0.046
 6779.00    0.78169   0.68427    0.046
 6780.00    0.73494   0.67880    0.046
 6781.00    0.68990   0.66796    0.046
 6782.00    0.75227   0.65450    0.047
 6783.00    0.81405   0.64358    0.048
 6784.00    0.86515   0.63952    0.048
 6785.00    0.90671   0.64307    0.048
 6786.00    0.84388   0.65130    0.048
 6787.00    0.78581   0.65946    0.048
 6788.00    0.76436   0.66402    0.048
 6789.00    0.74950   0.66533    0.048
 6790.00    0.77305   0.66547    0.049
 6791.00    0.78915   0.66428    0.049
 6792.00    0.77076   0.66092    0.049
 6793.00    0.75621   0.65720    0.049
 6794.00    0.75618   0.65578    0.048
 6795.00    0.76348   0.65712    0.048
 6796.00    0.79391   0.66003    0.048
 6797.00    0.81636   0.66305    0.047
 6798.00    0.81747   0.66543    0.047
 6799.00    0.81730   0.66762    0.046
 6800.00    0.81422   0.66985    0.047
 6801.00    0.79914   0.67101    0.047
 6802.00    0.76024   0.67012    0.048
 6803.00    0.72456   0.66825    0.047
 6804.00    0.69446   0.66704    0.046
 6805.00    0.68971   0.66630    0.046
 6806.00    0.72341   0.66544    0.046
 6807.00    0.74969   0.66491    0.046
 6808.00    0.76608   0.66459    0.046
 6809.00    0.76850   0.66423    0.047
 6810.00    0.75453   0.66463    0.048
 6811.00    0.74212   0.66560    0.049
 6812.00    0.73133   0.66493    0.049
 6813.00    0.72509   0.66183    0.049
 6814.00    0.72299   0.65956    0.049
 6815.00    0.72352   0.66188    0.049
 6816.00    0.72615   0.66751    0.049
 6817.00    0.77400   0.67099    0.048
 6818.00    0.85387   0.66950    0.048
 6819.00    0.84994   0.66615    0.048
 6820.00    0.79397   0.66594    0.047
 6821.00    0.78467   0.67018    0.047
 6822.00    0.80069   0.67587    0.047
 6823.00    0.79189   0.67955    0.047
 6824.00    0.77138   0.68005    0.046
 6825.00    0.77237   0.67737    0.046
 6826.00    0.78211   0.67176    0.046
 6827.00    0.74914   0.66543    0.046
 6828.00    0.70134   0.66256    0.047
 6829.00    0.71126   0.66502    0.047
 6830.00    0.73807   0.66970    0.048
 6831.00    0.74219   0.67246    0.048
 6832.00    0.74082   0.67319    0.047
 6833.00    0.77947   0.67451    0.047
 6834.00    0.82596   0.67668    0.048
 6835.00    0.81084   0.67694    0.049
 6836.00    0.78632   0.67338    0.050
 6837.00    0.76960   0.66651    0.050
 6838.00    0.75376   0.65745    0.051
 6839.00    0.73403   0.64761    0.051
 6840.00    0.71400   0.63979    0.051
 6841.00    0.68111   0.63763    0.050
 6842.00    0.64771   0.64295    0.049
 6843.00    0.70072   0.65334    0.047
 6844.00    0.75265   0.66350    0.046
 6845.00    0.73741   0.66971    0.046
 6846.00    0.72387   0.67223    0.045
 6847.00    0.73899   0.67285    0.046
 6848.00    0.75103   0.67223    0.047
 6849.00    0.73077   0.67077    0.046
 6850.00    0.71360   0.66957    0.046
 6851.00    0.71936   0.66877    0.046
 6852.00    0.72438   0.66612    0.047
 6853.00    0.72520   0.65939    0.047
 6854.00    0.72754   0.65078    0.046
 6855.00    0.73676   0.64596    0.047
 6856.00    0.74110   0.64720    0.048
 6857.00    0.72735   0.65117    0.048
 6858.00    0.71013   0.65317    0.048
 6859.00    0.68216   0.65078    0.048
 6860.00    0.67292   0.64624    0.048
 6861.00    0.71296   0.64591    0.048
 6862.00    0.74182   0.65332    0.048
 6863.00    0.74538   0.66365    0.048
 6864.00    0.74815   0.66874    0.048
 6865.00    0.74937   0.66523    0.048
 6866.00    0.75269   0.65637    0.048
 6867.00    0.75958   0.64907    0.048
 6868.00    0.76760   0.64852    0.048
 6869.00    0.77731   0.65284    0.048
 6870.00    0.76148   0.65540    0.048
 6871.00    0.71210   0.65390    0.047
 6872.00    0.70586   0.65232    0.047
 6873.00    0.74953   0.65369    0.047
 6874.00    0.75688   0.65677    0.047
 6875.00    0.72717   0.66032    0.047
 6876.00    0.73492   0.66491    0.047
 6877.00    0.77636   0.66971    0.047
 6878.00    0.77453   0.67177    0.047
 6879.00    0.73836   0.66906    0.047
 6880.00    0.73955   0.66244    0.047
 6881.00    0.76681   0.65544    0.048
 6882.00    0.75311   0.65261    0.048
 6883.00    0.71434   0.65548    0.049
 6884.00    0.71066   0.66085    0.049
 6885.00    0.72574   0.66528    0.048
 6886.00    0.72769   0.66914    0.048
 6887.00    0.72356   0.67375    0.047
 6888.00    0.72488   0.67827    0.046
 6889.00    0.72837   0.68149    0.047
 6890.00    0.74795   0.68290    0.047
 6891.00    0.77301   0.68217    0.047
 6892.00    0.79282   0.68000    0.047
 6893.00    0.81112   0.67767    0.046
 6894.00    0.77812   0.67559    0.047
 6895.00    0.73297   0.67436    0.047
 6896.00    0.66850   0.67515    0.047
 6897.00    0.60035   0.67705    0.047
 6898.00    0.66925   0.67736    0.048
 6899.00    0.75841   0.67604    0.049
 6900.00    0.76901   0.67635    0.050
 6901.00    0.77115   0.67947    0.050
 6902.00    0.73773   0.68235    0.050
 6903.00    0.70181   0.68251    0.050
 6904.00    0.77410   0.68160    0.050
 6905.00    0.85029   0.68244    0.050
 6906.00    0.79517   0.68520    0.050
 6907.00    0.74023   0.68786    0.049
 6908.00    0.70598   0.68897    0.049
 6909.00    0.67664   0.68810    0.049
 6910.00    0.72494   0.68495    0.049
 6911.00    0.76643   0.67960    0.049
 6912.00    0.73978   0.67326    0.048
 6913.00    0.71296   0.66834    0.048
 6914.00    0.68500   0.66702    0.048
 6915.00    0.67343   0.66869    0.047
 6916.00    0.75229   0.67118    0.048
 6917.00    0.81044   0.67411    0.049
 6918.00    0.77728   0.67829    0.049
 6919.00    0.74912   0.68309    0.049
 6920.00    0.73908   0.68647    0.049
 6921.00    0.73013   0.68600    0.049
 6922.00    0.72452   0.68004    0.050
 6923.00    0.71946   0.66991    0.050
 6924.00    0.71586   0.66082    0.049
 6925.00    0.72876   0.65816    0.049
 6926.00    0.77835   0.66259    0.051
 6927.00    0.79752   0.66990    0.052
 6928.00    0.75805   0.67562    0.051
 6929.00    0.74171   0.67793    0.050
 6930.00    0.76424   0.67683    0.051
 6931.00    0.76008   0.67314    0.051
 6932.00    0.71662   0.66961    0.050
 6933.00    0.70845   0.66981    0.049
 6934.00    0.74597   0.67373    0.049
 6935.00    0.74533   0.67743    0.049
 6936.00    0.70117   0.67850    0.049
 6937.00    0.68032   0.67885    0.049
 6938.00    0.68292   0.68117    0.049
 6939.00    0.68171   0.68508    0.049
 6940.00    0.67709   0.68718    0.050
 6941.00    0.70391   0.68426    0.050
 6942.00    0.75531   0.67624    0.050
 6943.00    0.76299   0.66657    0.050
 6944.00    0.74061   0.66051    0.050
 6945.00    0.73196   0.66200    0.050
 6946.00    0.73160   0.66991    0.050
 6947.00    0.73338   0.67866    0.051
 6948.00    0.73629   0.68315    0.052
 6949.00    0.73580   0.68166    0.051
 6950.00    0.73377   0.67577    0.050
 6951.00    0.72788   0.66919    0.050
 6952.00    0.72048   0.66510    0.051
 6953.00    0.72424   0.66471    0.051
 6954.00    0.73173   0.66819    0.051
 6955.00    0.72306   0.67430    0.051
 6956.00    0.70985   0.67998    0.051
 6957.00    0.68388   0.68300    0.050
 6958.00    0.65495   0.68399    0.049
 6959.00    0.64542   0.68484    0.049
 6960.00    0.63948   0.68644    0.049
 6961.00    0.65395   0.68844    0.050
 6962.00    0.67134   0.69000    0.051
 6963.00    0.72252   0.69000    0.051
 6964.00    0.77721   0.68803    0.051
 6965.00    0.77427   0.68624    0.051
 6966.00    0.76749   0.68795    0.052
 6967.00    0.74292   0.69262    0.052
 6968.00    0.71779   0.69537    0.052
 6969.00    0.73569   0.69328    0.052
 6970.00    0.75282   0.68934    0.051
 6971.00    0.74650   0.68843    0.052
 6972.00    0.73900   0.69041    0.052
 6973.00    0.71399   0.69009    0.052
 6974.00    0.69393   0.68395    0.051
 6975.00    0.72146   0.67267    0.051
 6976.00    0.74326   0.65799    0.051
 6977.00    0.72525   0.64351    0.051
 6978.00    0.71229   0.63713    0.051
 6979.00    0.72650   0.64454    0.050
 6980.00    0.73033   0.66156    0.049
 6981.00    0.68946   0.67878    0.049
 6982.00    0.65776   0.69058    0.049
 6983.00    0.65865   0.69651    0.050
 6984.00    0.65686   0.69824    0.050
 6985.00    0.64712   0.69747    0.050
 6986.00    0.64868   0.69482    0.050
 6987.00    0.67897   0.69014    0.050
 6988.00    0.71079   0.68474    0.051
 6989.00    0.74596   0.68217    0.052
 6990.00    0.75733   0.68464    0.053
 6991.00    0.72359   0.68974    0.052
 6992.00    0.70966   0.69287    0.051
 6993.00    0.72853   0.69236    0.052
 6994.00    0.72930   0.69056    0.052
 6995.00    0.70382   0.68998    0.051
 6996.00    0.70101   0.68957    0.051
 6997.00    0.72716   0.68612    0.051
 6998.00    0.75061   0.67910    0.051
 6999.00    0.77103   0.67309    0.051
 7000.00    0.65154   0.67315    0.050
 7001.00    0.39324   0.67801    0.048
 7002.00    0.41410   0.68114    0.065
 7003.00    0.67920   0.67900    0.213
 7004.00    0.79791   0.67466   -1.000
 7005.00    0.80379   0.67293   -1.000
 7006.00    0.76945   0.67520   -1.000
 7007.00    0.70785   0.67982   -1.000
 7008.00    0.69356   0.68417   -1.000
 7009.00    0.70736   0.68608   -1.000
 7010.00    0.72614   0.68568   -1.000
 7011.00    0.74750   0.68535   -1.000
 7012.00    0.72695   0.68512   -1.000
 7013.00    0.68758   0.68050   -1.000
 7014.00    0.70415   0.66856   -1.000
 7015.00    0.74230   0.65541   -1.000
 7016.00    0.74637   0.65258   -1.000
 7017.00    0.73925   0.66392   -1.000
 7018.00    0.74938   0.68097   -1.000
 7019.00    0.76426   0.69308   -1.000
 7020.00    0.74236   0.69592   -1.000
 7021.00    0.71214   0.69006   -1.000
 7022.00    0.76300   0.67892   -1.000
 7023.00    0.82850   0.66908   -1.000
 7024.00    0.79752   0.66663   -1.000
 7025.00    0.75319   0.67153   -1.000
 7026.00    0.75269   0.67872   -1.000
 7027.00    0.75655   0.68445   -1.000
 7028.00    0.75384   0.68846   -1.000
 7029.00    0.75072   0.69115   -1.000
 7030.00    0.74196   0.69195   -1.000
 7031.00    0.73304   0.69086   -1.000
 7032.00    0.72695   0.68952   -1.000
 7033.00    0.72274   0.68986   -1.000
 7034.00    0.76989   0.69191   -1.000
 7035.00    0.81071   0.69226   -1.000
 7036.00    0.76278   0.68670   -1.000
 7037.00    0.72945   0.67759   -1.000
 7038.00    0.83070   0.67520   -1.000
 7039.00    0.90219   0.68610   -1.000
 7040.00    0.77306   0.70416   -1.000
 7041.00    0.66646   0.71773   -1.000
 7042.00    0.67767   0.72076   -1.000
 7043.00    0.69271   0.71513   -1.000
 7044.00    0.72386   0.70770   -1.000
 7045.00    0.76341   0.70567   -1.000
 7046.00    0.83223   0.71091   -1.000
 7047.00    0.85586   0.71896   -1.000
 7048.00    0.74728   0.72372   -1.000
 7049.00    0.68680   0.72139   -1.000
 7050.00    0.74635   0.71062   -2.000
 7051.00    0.80709   0.69232   -2.000
 7052.00    0.87036   0.67122   -2.000
 7053.00    0.90337   0.65471   -2.000
 7054.00    0.87989   0.64799   -2.000
 7055.00    0.86682   0.65041   -2.000
 7056.00    0.87071   0.65591   -2.000
 7057.00    0.86032   0.65706   -2.000
 7058.00    0.82952   0.65091   -2.000
 7059.00    0.81025   0.64178   -2.000
 7060.00    0.80549   0.63668   -2.000
 7061.00    0.81034   0.63813   -2.000
 7062.00    0.82585   0.64345   -2.000
 7063.00    0.82832   0.64847   -2.000
 7064.00    0.81802   0.64934   -2.000
 7065.00    0.81298   0.64386   -2.000
 7066.00    0.81247   0.63409   -2.000
 7067.00    0.81950   0.62638   -2.000
 7068.00    0.83225   0.62726   -2.000
 7069.00    0.81196   0.63755   -2.000
 7070.00    0.76960   0.65094   -2.000
 7071.00    0.80045   0.66020   -2.000
 7072.00    0.87410   0.66357   -2.000
 7073.00    0.88019   0.66353   -2.000
 7074.00    0.85184   0.66247   -2.000
 7075.00    0.79897   0.66177   -2.000
 7076.00    0.73527   0.66244   -2.000
 7077.00    0.77280   0.66475   -2.000
 7078.00    0.84870   0.66813   -2.000
 7079.00    0.86016   0.67135   -2.000
 7080.00    0.85088   0.67160   -2.000
 7081.00    0.85068   0.66506   -2.000
 7082.00    0.85292   0.65087   -2.000
 7083.00    0.74762   0.63421   -2.000
 7084.00    0.61859   0.62292   -2.000
 7085.00    0.72417   0.61964   -2.000
 7086.00    0.87100   0.61937   -2.000
 7087.00    0.10593   0.61670   -2.000
 7088.00   -0.78131   0.61190   -2.000
 7089.00   -0.25851   0.60835   -2.000
 7090.00    0.39829   0.60785   -2.000
 7091.00    0.46688   0.60931   -2.000
 7092.00    0.50097   0.61069   -2.000
 7093.00    0.47301   0.61144   -2.000
 7094.00    0.44416   0.61226   -2.000
 7095.00    0.50176   0.61384   -2.000
 7096.00    0.55378   0.61673   -2.000
 7097.00    0.46682   0.62116   -2.000
 7098.00    0.38873   0.62606   -2.000
 7099.00    0.42823   0.62891   -2.000
 7100.00    0.46271   0.62787   -2.000
 7101.00    0.45258   0.62429   -2.000
 7102.00    0.44479   0.62224   -2.000
 7103.00    0.45233   0.62434   -2.000
 7104.00    0.45925   0.62825   -2.000
 7105.00    0.46305   0.62937   -2.000
 7106.00    0.45736   0.62697   -2.000
 7107.00    0.41262   0.62421   -2.000
 7108.00    0.38678   0.62230   -2.000
 7109.00    0.42530   0.61924   -2.000
 7110.00    0.44720   0.61511   -2.000
 7111.00    0.42137   0.61369   -2.000
 7112.00    0.40262   0.61721   -2.000
 7113.00    0.40126   0.62323   -2.000
 7114.00    0.41325   0.62822   -2.000
 7115.00    0.45352   0.63096   -2.000
 7116.00    0.46654   0.63169   -2.000
 7117.00    0.42944   0.63088   -2.000
 7118.00    0.41912   0.62921   -2.000
 7119.00    0.45182   0.62720   -2.000
 7120.00    0.48132   0.62490   -2.000
 7121.00    0.50631   0.62295   -2.000
 7122.00    0.50364   0.62229   -2.000
 7123.00    0.46666   0.62138   -2.000
 7124.00    0.41100   0.61693   -2.000
 7125.00    0.33493   0.60950   -2.000
 7126.00    0.33706   0.60372   -2.000
 7127.00    0.41462   0.60134   -2.000
 7128.00    0.45646   0.59870   -2.000
 7129.00    0.46793   0.59327   -2.000
 7130.00    0.43199   0.58880   -2.000
 7131.00    0.36055   0.59053   -2.000
 7132.00    0.32368   0.59836   -2.000
 7133.00    0.30954   0.60763   -2.000
 7134.00    0.40330   0.61444   -2.000
 7135.00    0.55922   0.61825   -2.000
 7136.00    0.55438   0.61970   -2.000
 7137.00    0.46886   0.61821   -2.000
 7138.00    0.45048   0.61456   -2.000
 7139.00    0.46124   0.61296   -2.000
 7140.00    0.41281   0.61575   -2.000
 7141.00    0.34233   0.61979   -2.000
 7142.00    0.39338   0.62139   -2.000
 7143.00    0.48282   0.62068   -2.000
 7144.00    0.43973   0.61901   -2.000
 7145.00    0.36168   0.61565   -2.000
 7146.00    0.33739   0.60923   -2.000
 7147.00    0.32469   0.60181   -2.000
 7148.00    0.38138   0.59868   -2.000
 7149.00    0.44993   0.60247   -2.000
 7150.00    0.47211   0.61096   -2.000
 7151.00    0.48830   0.62065   -2.000
 7152.00    0.40631   0.62820   -2.000
 7153.00    0.31541   0.63073   -2.000
 7154.00    0.36514   0.62926   -2.000
 7155.00    0.42256   0.62886   -2.000
 7156.00    0.48278   0.63140   -2.000
 7157.00    0.54179   0.63255   -2.000
 7158.00    0.48501   0.62906   -2.000
 7159.00    0.42524   0.62426   -2.000
 7160.00    0.29756   0.62273   -2.000
 7161.00    0.17428   0.62319   -2.000
 7162.00    0.10650   0.61981   -2.000
 7163.00    0.06911   0.61084   -2.000
 7164.00    0.29101   0.60313   -2.000
 7165.00    0.49061   0.60499   -2.000
 7166.00    0.54895   0.61610   -2.000
 7167.00    0.57833   0.62817   -2.000
 7168.00    0.46390   0.63443   -2.000
 7169.00    0.37391   0.63578   -2.000
 7170.00    0.38226   0.63735   -2.000
 7171.00    0.39327   0.64119   -2.000
 7172.00    0.41312   0.64431   -2.000
 7173.00    0.43151   0.64307   -2.000
 7174.00    0.44577   0.63767   -2.000
 7175.00    0.45287   0.63239   -2.000
 7176.00    0.44268   0.63154   -2.000
 7177.00    0.42523   0.63361   -2.000
 7178.00    0.39268   0.63180   -2.000
 7179.00    0.37829   0.62331   -2.000
 7180.00    0.39677   0.61511   -2.000
 7181.00    0.41480   0.61635   -2.000
 7182.00    0.43210   0.62711   -2.000
 7183.00    0.44300   0.63800   -2.000
 7184.00    0.44498   0.64017   -2.000
 7185.00    0.44535   0.63211   -2.000
 7186.00    0.44375   0.61877   -2.000
 7187.00    0.43709   0.60797   -2.000
 7188.00    0.42495   0.60544   -2.000
 7189.00    0.39509   0.61073   -2.000
 7190.00    0.34840   0.61815   -2.000
 7191.00    0.37163   0.62227   -2.000
 7192.00    0.45350   0.62310   -2.000
 7193.00    0.48685   0.62460   -2.000
 7194.00    0.48438   0.62788   -2.000
 7195.00    0.46819   0.62961   -2.000
 7196.00    0.44309   0.62821   -2.000
 7197.00    0.44956   0.62680   -2.000
 7198.00    0.47392   0.62785   -2.000
 7199.00    0.40360   0.62943   -2.000
 7200.00    0.28651   0.62935   -2.000
 7201.00    0.30277   0.62942   -2.000
 7202.00    0.37598   0.63282   -2.000
 7203.00    0.36959   0.63791   -2.000
 7204.00    0.33408   0.63790   -2.000
 7205.00    0.42818   0.62816   -2.000
 7206.00    0.56244   0.61322   -2.000
 7207.00    0.54338   0.60391   -2.000
 7208.00    0.48474   0.60694   -2.000
 7209.00    0.41720   0.61946   -2.000
 7210.00    0.34779   0.63266   -2.000
 7211.00    0.30302   0.63868   -2.000
 7212.00    0.26235   0.63608   -2.000
 7213.00    0.28812   0.63013   -2.000
 7214.00    0.32220   0.62709   -2.000
 7215.00    0.31465   0.62965   -2.000
 7216.00    0.30349   0.63654   -2.000
 7217.00    0.35410   0.64359   -2.000
 7218.00    0.40785   0.64642   -2.000
