###################################################################
## OUTPUT of StarlightChains_v04.for    [Cid@UFSC - 01/Apr/2007] ##
###################################################################

## Some input info
KUG0210-078._25_24.txt                   [arq_obs]
Base.CB07.vall.4m                        [arq_base]
Masks.EmLines.NEW.gm                     [arq_masks]
StCv04.C11.config                        [arq_config]
   66                                    [N_base]
    0                                    [N_YAV_components = # of components with extra extinction!]
    0                                    [i_FitPowerLaw (1/0 = Yes/No)]
-9.99                                    [alpha_PowerLaw]
CCM                                      [red_law_option]
 1.458241                                [q_norm = A(l_norm)/A(V)]

## (Re)Sampling Parameters
 3741.00                                 [l_ini (A)]
 7218.00                                 [l_fin (A)]
    1.00                                 [dl    (A)]     (OBS: dl_cushion =    50.00 A)

## Normalization info
 4020.00                                 [l_norm (A) - for base]
 4010.00                                 [llow_norm (A) - window for f_obs]
 4060.00                                 [lupp_norm (A) - window for f_obs]
1.472310E-17                             [fobs_norm (in input units)]

## S/N
 3691.00                                 [llow_SN (A) - window for S/N]
 7268.00                                 [lupp_SN (A) - window for S/N]
   5.578                                 [S/N in S/N window]
   5.564                                 [S/N in norm. window]
   0.023                                 [S/N_err in S/N window]
   0.023                                 [S/N_err in norm. window]
  1.0000                                 [fscale_chi2]

## etc...
    -2007297                             [idum_orig]
  2429                                   [NOl_eff]
  2041                                   [Nl_eff]
   388    NSIGMA                         [Ntot_cliped & clip_method]
 10977750                                [Nglobal_steps]
   7                                     [N_chains]
  28                                     [NEX0s_base = N_base in EX0s-fits]
 0   0   1      388   2.0   1.294E+04    [Clip-Bug, RC-Crash & Burn-In warning-flags, n_censored_weights, wei_nsig_threshold & wei_limit]
    87     83.108     81.626      1.482  [idt_all, wdt_TotTime, wdt_UsrTime & wdt_SysTime (sec)]

## Synthesis Results - Best model ##

 7.91374E-06                             [chi2/Nl_eff]
     8.61129                             [adev (%)]

   116.47724                             [sum-of-x (%)]
 8.31543E-17                             [Flux_tot (units of input spectrum!)]
 6.72162E-13                             [Mini_tot (???)]
 3.37061E-13                             [Mcor_tot (???)]

 281.79                                  [v0_min  (km/s)]
   4.07                                  [vd_min  (km/s)]
 1.1755                                  [AV_min  (mag)]
 0.0000                                  [YAV_min (mag)]

# j     x_j(%)      Mini_j(%)     Mcor_j(%)     age_j(yr)     Z_j      (L/M)_j    YAV?  Mstars   component_j        a/Fe...       SSP_chi2r SSP_adev(%)   SSP_AV   SSP_x(%)
  1      0.0000     0.0000E+00    0.0000E+00    1.000000E+06  0.00400  1.094E-02    0   1.0000   age020_m42            0.0000     1.3437E-05    12.7890   2.7183   107.9841
  2      0.0000     0.0000E+00    0.0000E+00    3.160000E+06  0.00400  4.007E-02    0   0.9999   age045_m42            0.0000     1.1544E-05    11.6030   2.1071   109.9606
  3      0.0000     0.0000E+00    0.0000E+00    5.010000E+06  0.00400  2.539E-02    0   0.9488   age055_m42            0.0000     1.2420E-05    12.1326   2.3637   110.2577
  4      0.0000     0.0000E+00    0.0000E+00    6.610000E+06  0.00400  2.620E-02    0   0.9220   age061_m42            0.0000     1.1205E-05    11.3581   2.0363   110.1749
  5      0.0000     0.0000E+00    0.0000E+00    1.000000E+07  0.00400  1.322E-02    0   0.8862   age070_m42            0.0000     9.6433E-06    10.1262   1.7531   113.0889
  6      0.0000     0.0000E+00    0.0000E+00    1.445000E+07  0.00400  7.883E-03    0   0.8571   age078_m42            0.0000     1.0282E-05    10.5806   2.0540   111.3540
  7     14.6037     2.9539E-01    4.8149E-01    2.512000E+07  0.00400  5.251E-03    0   0.8174   age090_m42            0.0000     9.2954E-06     9.8466   1.6357   113.2338
  8      0.0000     0.0000E+00    0.0000E+00    4.000000E+07  0.00400  3.649E-03    0   0.7851   age104_m42            0.0000     9.0808E-06     9.7294   1.4324   112.9401
  9     11.7061     4.0133E-01    6.1057E-01    5.500000E+07  0.00400  3.098E-03    0   0.7629   age110_m42            0.0000     9.4572E-06    10.0410   1.6037   111.8224
 10      0.0000     0.0000E+00    0.0000E+00    1.015200E+08  0.00400  2.228E-03    0   0.7207   age116_m42            0.0000     9.7325E-06    10.2593   1.6303   111.6393
 11      0.3240     3.1486E-02    4.1742E-02    2.861200E+08  0.00400  1.093E-03    0   0.6648   age125_m42            0.0000     8.9340E-06     9.6284   1.0738   114.3740
 12      0.0000     0.0000E+00    0.0000E+00    5.088000E+08  0.00400  6.597E-04    0   0.6365   age130_m42            0.0000     9.1775E-06     9.8399   1.0894   113.9240
 13      0.0000     0.0000E+00    0.0000E+00    1.434000E+09  0.00400  2.132E-04    0   0.5798   age139_m42            0.0000     8.6874E-06     9.3589   0.2005   112.1938
 14      0.0000     0.0000E+00    0.0000E+00    4.250000E+09  0.00400  5.895E-05    0   0.5377   age158_m42            0.0000     1.0411E-05    10.6120  -0.2977   110.5070
 15      0.0000     0.0000E+00    0.0000E+00    7.500000E+09  0.00400  3.510E-05    0   0.5212   age171_m42            0.0000     1.0954E-05    10.8855  -0.4795   109.3396
 16      0.0000     0.0000E+00    0.0000E+00    1.300000E+10  0.00400  2.005E-05    0   0.5034   age193_m42            0.0000     1.1450E-05    11.1429  -0.6362   108.1973
 17      0.0000     0.0000E+00    0.0000E+00    1.800000E+10  0.00400  1.525E-05    0   0.4967   age213_m42            0.0000     1.1499E-05    11.1742  -0.6740   108.4809
 18      0.6306     5.4097E-03    1.0788E-02    1.000000E+06  0.00800  1.238E-02    0   1.0000   age020_m52            0.0000     1.3427E-05    12.7807   2.7169   108.0931
 19      0.0000     0.0000E+00    0.0000E+00    3.160000E+06  0.00800  3.074E-02    0   0.9966   age045_m52            0.0000     1.3349E-05    12.7281   2.6497   108.6251
 20      0.0000     0.0000E+00    0.0000E+00    5.010000E+06  0.00800  2.668E-02    0   0.9443   age055_m52            0.0000     1.2317E-05    12.0783   2.4501   109.0790
 21      0.0000     0.0000E+00    0.0000E+00    6.610000E+06  0.00800  2.136E-02    0   0.9177   age061_m52            0.0000     9.4979E-06    10.0987   1.2689   113.6251
 22      0.0000     0.0000E+00    0.0000E+00    1.000000E+07  0.00800  1.215E-02    0   0.8827   age070_m52            0.0000     9.4216E-06     9.9056   1.9262   113.1489
 23      0.0000     0.0000E+00    0.0000E+00    1.445000E+07  0.00800  8.717E-03    0   0.8552   age078_m52            0.0000     1.0006E-05    10.3557   2.0340   112.2429
 24      0.0000     0.0000E+00    0.0000E+00    2.512000E+07  0.00800  5.592E-03    0   0.8162   age090_m52            0.0000     9.0135E-06     9.5911   1.7138   113.8239
 25      0.0000     0.0000E+00    0.0000E+00    4.000000E+07  0.00800  3.896E-03    0   0.7841   age104_m52            0.0000     9.0252E-06     9.6146   1.6444   113.6637
 26      0.0000     0.0000E+00    0.0000E+00    1.015200E+08  0.00800  2.148E-03    0   0.7226   age116_m52            0.0000     9.3822E-06     9.9452   1.5995   112.5104
 27      0.0000     0.0000E+00    0.0000E+00    2.861200E+08  0.00800  9.925E-04    0   0.6683   age125_m52            0.0000     8.8869E-06     9.6120   1.1693   114.1968
 28      0.0000     0.0000E+00    0.0000E+00    9.047900E+08  0.00800  3.141E-04    0   0.6138   age135_m52            0.0000     8.9040E-06     9.5153   0.4499   114.7371
 29      0.0000     0.0000E+00    0.0000E+00    1.434000E+09  0.00800  1.719E-04    0   0.5853   age139_m52            0.0000     9.4102E-06     9.8321  -0.1542   113.5946
 30      0.0000     0.0000E+00    0.0000E+00    2.500000E+09  0.00800  7.872E-05    0   0.5600   age150_m52            0.0000     1.0888E-05    10.7885  -0.4329   110.9828
 31      0.0000     0.0000E+00    0.0000E+00    4.250000E+09  0.00800  4.336E-05    0   0.5426   age158_m52            0.0000     1.1224E-05    11.0019  -0.4645   110.7078
 32      0.0000     0.0000E+00    0.0000E+00    6.250000E+09  0.00800  3.159E-05    0   0.5319   age166_m52            0.0000     1.1989E-05    11.3538  -0.6501   109.8041
 33      0.0000     0.0000E+00    0.0000E+00    1.300000E+10  0.00800  1.361E-05    0   0.5073   age193_m52            0.0000     1.3542E-05    11.3897  -1.0000   105.5708
 34      4.3260     4.6476E+01    4.6249E+01    1.800000E+10  0.00800  9.886E-06    0   0.4990   age213_m52            0.0000     1.5330E-05    11.6776  -1.0000   101.8962
 35      0.0000     0.0000E+00    0.0000E+00    1.000000E+06  0.02000  1.544E-02    0   1.0000   age020_m62            0.0000     1.3409E-05    12.7836   2.7146   108.2500
 36      0.0000     0.0000E+00    0.0000E+00    3.160000E+06  0.02000  3.762E-02    0   0.9858   age045_m62            0.0000     1.3316E-05    12.7436   2.6630   108.7385
 37      0.0000     0.0000E+00    0.0000E+00    5.010000E+06  0.02000  3.296E-02    0   0.9342   age055_m62            0.0000     1.1976E-05    11.8936   2.3629   109.6960
 38     57.3381     5.2772E-01    9.3251E-01    8.710000E+06  0.02000  1.154E-02    0   0.8861   age067_m62            0.0000     7.7993E-06     8.5757   1.3579   118.2167
 39      7.3222     1.0149E-01    1.7146E-01    1.445000E+07  0.02000  7.663E-03    0   0.8472   age078_m62            0.0000     8.5338E-06     9.2030   1.5882   115.1147
 40      0.7110     1.6663E-02    2.6912E-02    2.512000E+07  0.02000  4.532E-03    0   0.8099   age090_m62            0.0000     8.4559E-06     9.1147   1.5803   114.8378
 41      0.0000     0.0000E+00    0.0000E+00    5.500000E+07  0.02000  2.733E-03    0   0.7595   age110_m62            0.0000     9.0762E-06     9.6670   1.6179   113.3416
 42      0.0000     0.0000E+00    0.0000E+00    1.609000E+08  0.02000  1.369E-03    0   0.6985   age120_m62            0.0000     9.1127E-06     9.7594   1.5027   113.9210
 43      0.0000     0.0000E+00    0.0000E+00    2.861200E+08  0.02000  9.013E-04    0   0.6714   age125_m62            0.0000     8.9164E-06     9.6111   1.2935   115.0602
 44      0.0000     0.0000E+00    0.0000E+00    5.088000E+08  0.02000  5.028E-04    0   0.6449   age130_m62            0.0000     9.1434E-06     9.7697   0.9807   114.5627
 45      0.0000     0.0000E+00    0.0000E+00    9.047900E+08  0.02000  2.428E-04    0   0.6179   age135_m62            0.0000     9.6366E-06    10.0903   0.3895   114.0854
 46      0.0000     0.0000E+00    0.0000E+00    1.434000E+09  0.02000  1.263E-04    0   0.5908   age139_m62            0.0000     1.0506E-05    10.6206  -0.0833   113.8495
 47      0.0207     3.6807E-02    4.1640E-02    2.500000E+09  0.02000  5.985E-05    0   0.5673   age150_m62            0.0000     1.2261E-05    11.5582  -0.4736   113.3272
 48      0.0000     0.0000E+00    0.0000E+00    4.250000E+09  0.02000  3.271E-05    0   0.5468   age158_m62            0.0000     1.3668E-05    12.1128  -0.7472   110.6694
 49      0.0000     0.0000E+00    0.0000E+00    1.000000E+10  0.02000  1.360E-05    0   0.5167   age181_m62            0.0000     1.5896E-05    12.3939  -1.0000   107.2930
 50      0.0000     0.0000E+00    0.0000E+00    1.800000E+10  0.02000  7.124E-06    0   0.5013   age213_m62            0.0000     2.0166E-05    12.8388  -1.0000   100.8303
 51      0.0000     0.0000E+00    0.0000E+00    1.000000E+06  0.05000  2.592E-02    0   0.9998   age020_m72            0.0000     1.3539E-05    12.8307   2.7000   108.6014
 52      0.0000     0.0000E+00    0.0000E+00    3.160000E+06  0.05000  4.845E-02    0   0.9577   age045_m72            0.0000     1.3013E-05    12.5351   2.5766   108.7491
 53     17.2764     5.9731E-02    1.0895E-01    5.010000E+06  0.05000  3.072E-02    0   0.9147   age055_m72            0.0000     1.0065E-05    10.3963   2.1322   112.1910
 54      0.0000     0.0000E+00    0.0000E+00    6.610000E+06  0.05000  1.455E-02    0   0.8877   age061_m72            0.0000     9.0060E-06     9.9421   1.3807   119.7091
 55      0.0000     0.0000E+00    0.0000E+00    1.000000E+07  0.05000  9.074E-03    0   0.8524   age070_m72            0.0000     1.0626E-05    11.0610   2.3044   111.7234
 56      0.0000     0.0000E+00    0.0000E+00    2.512000E+07  0.05000  4.250E-03    0   0.7902   age090_m72            0.0000     9.6992E-06    10.1483   2.0473   112.2391
 57      0.0000     0.0000E+00    0.0000E+00    4.000000E+07  0.05000  3.087E-03    0   0.7618   age104_m72            0.0000     9.2362E-06     9.8010   1.8381   113.3234
 58      0.0000     0.0000E+00    0.0000E+00    1.015200E+08  0.05000  1.700E-03    0   0.7096   age116_m72            0.0000     9.0158E-06     9.6157   1.6283   114.3154
 59      0.0000     0.0000E+00    0.0000E+00    2.861200E+08  0.05000  7.384E-04    0   0.6633   age125_m72            0.0000     9.1576E-06     9.7475   1.1766   115.7640
 60      0.0000     0.0000E+00    0.0000E+00    5.088000E+08  0.05000  3.819E-04    0   0.6372   age130_m72            0.0000     9.5173E-06    10.0498   0.7280   115.3187
 61      0.0000     0.0000E+00    0.0000E+00    9.047900E+08  0.05000  1.676E-04    0   0.6110   age135_m72            0.0000     1.1751E-05    11.4146  -0.0024   114.8511
 62      0.0000     0.0000E+00    0.0000E+00    1.434000E+09  0.05000  8.837E-05    0   0.5874   age139_m72            0.0000     1.2123E-05    11.4222  -0.4468   113.5661
 63      0.0000     0.0000E+00    0.0000E+00    2.500000E+09  0.05000  4.233E-05    0   0.5598   age150_m72            0.0000     1.4412E-05    12.4803  -0.7608   112.1497
 64      0.0000     0.0000E+00    0.0000E+00    6.250000E+09  0.05000  1.435E-05    0   0.5249   age166_m72            0.0000     1.7344E-05    12.4643  -1.0000   104.3082
 65      0.0000     0.0000E+00    0.0000E+00    1.300000E+10  0.05000  6.513E-06    0   0.5036   age193_m72            0.0000     2.5728E-05    14.2028  -1.0000    97.5672
 66      2.2184     5.2048E+01    5.1325E+01    1.800000E+10  0.05000  4.527E-06    0   0.4945   age213_m72            0.0000     3.3459E-05    15.9780  -1.0000    92.8672


## Synthesis Results - Average & Chains ##

# j      x_j: min, <> & last-chain-values for 1 ...  7 chains
  1      0.0000      0.1216      0.1149      0.0000      0.2747      0.0000      0.0413      0.0098      0.0000
  2      0.0000      0.2571      0.3659      0.1335      0.1753      0.0832      0.2465      0.3254      0.0722
  3      0.0000      0.1513      0.1001      0.1999      0.0000      0.0981      0.0000      0.0800      0.1762
  4      0.0000      0.1637      0.4019      0.3911      0.0037      0.3194      0.0779      0.0603      0.0217
  5      0.0000      0.2050      0.1091      0.1701      0.1399      0.4027      0.2691      0.0000      0.0867
  6      0.0000      0.2267      0.0933      0.1020      0.0584      0.2182      0.2988      0.0859      0.1068
  7     14.6037      0.2111      0.0795      0.3620      0.0370      0.0000      0.1637      0.1687      0.2166
  8      0.0000      0.1485      0.1596      0.2357      0.0646      0.3167      0.1624      0.0998      0.0698
  9     11.7061      0.1911      0.4006      0.0425      0.4125      0.3591      0.0957      0.0310      0.3976
 10      0.0000      0.1978      0.2829      0.1774      0.0427      0.2779      0.3003      0.2765      0.1194
 11      0.3240      0.1184      0.0748      0.0000      0.0000      0.0070      0.0480      0.0750      0.3132
 12      0.0000      0.1824      0.1023      0.1111      0.3095      0.1596      0.0893      0.0770      0.1855
 13      0.0000      0.1302      0.1331      0.2747      0.0668      0.0000      0.0132      0.1083      0.0796
 14      0.0000      0.1099      0.2483      0.0987      0.1141      0.0000      0.1893      0.2769      0.1704
 15      0.0000      0.1579      0.1792      0.1399      0.1688      0.0000      0.6164      0.3023      0.0023
 16      0.0000      0.1645      0.1251      0.2207      0.1048      0.1375      0.0199      0.0691      0.0067
 17      0.0000      5.2466      5.1509      4.9943      5.3673      5.3709      5.5508      4.9508      5.7873
 18      0.6306     11.8537     11.5842     12.0448     11.8220     12.6182     12.0119     12.3953     12.4583
 19      0.0000      0.2030      0.0000      0.0824      0.3476      0.2572      0.0571      0.0754      0.0451
 20      0.0000      0.1500      0.0322      0.2078      0.0000      0.0000      0.0657      0.0895      0.5142
 21      0.0000      0.1593      0.0000      0.1548      0.1454      0.0527      0.1792      0.0184      0.0670
 22      0.0000      0.1493      0.1088      0.1243      0.1950      0.4353      0.3420      0.0744      0.2338
 23      0.0000      0.1623      0.0429      0.1481      0.1812      0.0000      0.3299      0.0000      0.2785
 24      0.0000      0.1866      0.1091      0.4094      0.0728      0.0777      0.1320      0.0851      0.1684
 25      0.0000      0.1575      0.0433      0.1143      0.0682      0.1166      0.2277      0.0060      0.4699
 26      0.0000      0.1427      0.0000      0.1986      0.0000      0.0000      0.0000      0.0640      0.0000
 27      0.0000      0.1201      0.4307      0.0900      0.0046      0.0000      0.1328      0.1204      0.0700
 28      0.0000      0.2186      0.1603      0.4453      0.2182      0.1746      0.0238      0.1915      0.0676
 29      0.0000      0.1348      0.1280      0.1095      0.2458      0.1952      0.1739      0.0206      0.0788
 30      0.0000      0.1874      0.0854      0.2484      0.0000      0.2788      0.0066      0.0000      0.0424
 31      0.0000      0.1638      0.2385      0.0069      0.0022      0.1644      0.0905      0.1379      0.0000
 32      0.0000      0.1558      0.1561      0.3781      0.0000      0.0244      0.4069      0.0596      0.0000
 33      0.0000      0.1689      0.0657      0.1366      0.2082      0.0000      0.0248      0.1364      0.2583
 34      4.3260     32.3301     34.9176     33.1382     32.7741     33.5627     32.7546     33.9368     33.8089
 35      0.0000      9.1012      9.2697      8.9932      9.4877      9.4175      9.3181      9.5866      9.3790
 36      0.0000      0.1439      0.0404      0.0152      0.0000      0.0513      0.0437      0.1477      0.1470
 37      0.0000      0.1478      0.1671      0.1508      0.0399      0.0414      0.0000      0.0338      0.0000
 38     57.3381      0.1491      0.1031      0.2449      0.0168      0.1569      0.0679      0.1064      0.3327
 39      7.3222      0.1722      0.2469      0.0332      0.2546      0.0000      0.0000      0.0429      0.2154
 40      0.7110      0.1645      0.0000      0.0265      0.0000      0.0000      0.0000      0.0266      0.2254
 41      0.0000      0.2134      0.1784      0.0948      0.3053      0.1193      0.1536      0.2104      0.0000
 42      0.0000      0.2023      0.0548      0.0279      0.1803      0.0000      0.1785      0.1592      0.0602
 43      0.0000      0.1557      0.0530      0.0210      0.3080      0.0000      0.0934      0.1101      0.0331
 44      0.0000      0.1162      0.1039      0.1144      0.3039      0.1058      0.1536      0.1036      0.0000
 45      0.0000      0.1237      0.0370      0.1307      0.2709      0.0299      0.4749      0.0645      0.0897
 46      0.0000      0.1644      0.0622      0.0035      0.0891      0.0745      0.0613      0.1133      0.2342
 47      0.0207      0.2706      0.2636      0.0000      0.2904      0.0231      0.1057      0.1952      0.3247
 48      0.0000      0.1863      0.2439      0.0000      0.3256      0.3576      0.1122      0.0000      0.1121
 49      0.0000      0.1635      0.0000      0.1273      0.1517      0.0000      0.1159      0.0000      0.0723
 50      0.0000      2.1190      2.2913      2.1046      1.8531      2.3549      2.0862      2.0845      1.9789
 51      0.0000      8.4532      8.5170      8.5870      8.6110      8.5936      8.6886      8.7009      7.7615
 52      0.0000      0.2385      0.2105      0.3919      0.1621      0.0000      0.0740      0.2132      0.2551
 53     17.2764      0.1405      0.0320      0.0373      0.3504      0.1624      0.0672      0.0377      0.2422
 54      0.0000      0.1813      0.1449      0.0071      0.2168      0.0000      0.2915      0.0244      0.0408
 55      0.0000      0.1706      0.0898      0.1733      0.0285      0.0740      0.2308      0.0344      0.0671
 56      0.0000      0.1847      0.0000      0.0784      0.0501      0.1061      0.1080      0.1894      0.0945
 57      0.0000      0.2007      0.0713      0.0628      0.2437      0.1619      0.0000      0.0136      0.3137
 58      0.0000      0.1537      0.4259      0.0363      0.0022      0.0299      0.3443      0.1217      0.0000
 59      0.0000      0.1597      0.0758      0.0168      0.0000      0.0214      0.1886      0.1004      0.0225
 60      0.0000      0.1543      0.0518      0.1290      0.0610      0.1726      0.0000      0.0328      0.0345
 61      0.0000      1.5195      1.3134      1.4590      1.7390      1.5158      1.0800      1.3983      1.8892
 62      0.0000      0.2345      0.1871      0.0815      0.1690      0.0714      0.1434      0.0532      0.1299
 63      0.0000      0.1654      0.2361      0.1902      0.2090      0.1758      0.1763      0.0232      0.0000
 64      0.0000      0.1849      0.0789      0.0251      0.4130      0.1203      0.0000      0.1491      0.1902
 65      0.0000     11.4314     11.7126     11.9500     11.6947     11.6139     11.2509     12.1556     11.3516
 66      2.2184     18.1440     17.6534     19.0389     18.4658     18.8182     19.2977     19.4603     18.5232

# j      m_j: min, <> & last-chain-values for 1 ...  7 chains
  1  0.0000E+00  2.2811E-04  2.1159E-04  0.0000E+00  5.0824E-04  0.0000E+00  7.5465E-05  1.7484E-05  0.0000E+00
  2  0.0000E+00  1.3172E-04  1.8387E-04  6.6250E-05  8.8564E-05  4.1385E-05  1.2304E-04  1.5855E-04  3.6196E-05
  3  0.0000E+00  1.1605E-04  7.5341E-05  1.4853E-04  0.0000E+00  7.3051E-05  0.0000E+00  5.8360E-05  1.3239E-04
  4  0.0000E+00  1.1827E-04  2.8484E-04  2.7374E-04  2.6226E-06  2.2390E-04  5.4828E-05  4.1452E-05  1.5352E-05
  5  0.0000E+00  2.8213E-04  1.4723E-04  2.2681E-04  1.8981E-04  5.3782E-04  3.6087E-04  0.0000E+00  1.1687E-04
  6  0.0000E+00  5.0608E-04  2.0432E-04  2.2061E-04  1.2847E-04  4.7259E-04  6.4994E-04  1.8245E-04  2.3340E-04
  7  4.8149E-01  6.7448E-04  2.4909E-04  1.1207E-03  1.1674E-04  0.0000E+00  5.0979E-04  5.1290E-04  6.7774E-04
  8  0.0000E+00  6.5575E-04  6.9142E-04  1.0084E-03  2.8146E-04  1.3574E-03  6.9874E-04  4.1925E-04  3.0200E-04
  9  6.1057E-01  9.6624E-04  1.9866E-03  2.0793E-04  2.0564E-03  1.7618E-03  4.7143E-04  1.4903E-04  1.9685E-03
 10  0.0000E+00  1.3132E-03  1.8428E-03  1.1413E-03  2.7984E-04  1.7906E-03  1.9434E-03  1.7466E-03  7.7624E-04
 11  4.1742E-02  1.4789E-03  9.1683E-04  0.0000E+00  0.0000E+00  8.4397E-05  5.8447E-04  8.9060E-04  3.8300E-03
 12  0.0000E+00  3.6135E-03  1.9886E-03  2.1319E-03  6.0455E-03  3.0670E-03  1.7227E-03  1.4505E-03  3.5973E-03
 13  0.0000E+00  7.2690E-03  7.2902E-03  1.4858E-02  3.6783E-03  0.0000E+00  7.2057E-04  5.7499E-03  4.3530E-03
 14  0.0000E+00  2.0571E-02  4.5604E-02  1.7906E-02  2.1058E-02  0.0000E+00  3.4535E-02  4.9330E-02  3.1248E-02
 15  0.0000E+00  4.8117E-02  5.3592E-02  4.1308E-02  5.0736E-02  0.0000E+00  1.8309E-01  8.7652E-02  7.0039E-04
 16  0.0000E+00  8.4776E-02  6.3230E-02  1.1020E-01  5.3252E-02  6.8796E-02  9.9917E-03  3.3889E-02  3.3921E-03
 17  0.0000E+00  3.5079E+00  3.3786E+00  3.2350E+00  3.5387E+00  3.4850E+00  3.6165E+00  3.1491E+00  3.7892E+00
 18  1.0788E-02  1.9655E-02  1.8844E-02  1.9348E-02  1.9330E-02  2.0305E-02  1.9409E-02  1.9553E-02  2.0230E-02
 19  0.0000E+00  1.3511E-04  0.0000E+00  5.3137E-05  2.2810E-04  1.6613E-04  3.7004E-05  4.7731E-05  2.9421E-05
 20  0.0000E+00  1.0896E-04  2.2954E-05  1.4630E-04  0.0000E+00  0.0000E+00  4.6527E-05  6.1860E-05  3.6585E-04
 21  0.0000E+00  1.4047E-04  0.0000E+00  1.3230E-04  1.2649E-04  4.5129E-05  1.5401E-04  1.5459E-05  5.7891E-05
 22  0.0000E+00  2.2272E-04  1.5915E-04  1.7965E-04  2.8672E-04  6.3003E-04  4.9701E-04  1.0555E-04  3.4140E-04
 23  0.0000E+00  3.2696E-04  8.4709E-05  2.8901E-04  3.5982E-04  0.0000E+00  6.4741E-04  0.0000E+00  5.4920E-04
 24  0.0000E+00  5.5908E-04  3.2075E-04  1.1883E-03  2.1511E-04  2.2589E-04  3.8553E-04  2.4265E-04  4.9409E-04
 25  0.0000E+00  6.5062E-04  1.7537E-04  4.5767E-04  2.7769E-04  4.6759E-04  9.1677E-04  2.3760E-05  1.9012E-03
 26  0.0000E+00  9.8568E-04  0.0000E+00  1.3285E-03  0.0000E+00  0.0000E+00  0.0000E+00  4.2041E-04  0.0000E+00
 27  0.0000E+00  1.6594E-03  5.8407E-03  1.2053E-03  6.2874E-05  0.0000E+00  1.7882E-03  1.5834E-03  9.4820E-04
 28  0.0000E+00  8.7689E-03  6.3103E-03  1.7305E-02  8.6310E-03  6.7987E-03  9.3071E-04  7.3088E-03  2.6555E-03
 29  0.0000E+00  9.4193E-03  8.7755E-03  7.4169E-03  1.6941E-02  1.3240E-02  1.1845E-02  1.3675E-03  5.3928E-03
 30  0.0000E+00  2.7367E-02  1.2235E-02  3.5148E-02  0.0000E+00  3.9512E-02  9.3751E-04  0.0000E+00  6.0587E-03
 31  0.0000E+00  4.2081E-02  6.0099E-02  1.7179E-03  5.6723E-04  4.0973E-02  2.2664E-02  3.3708E-02  0.0000E+00
 32  0.0000E+00  5.3856E-02  5.2941E-02  1.2661E-01  0.0000E+00  8.1752E-03  1.3705E-01  1.9604E-02  0.0000E+00
 33  0.0000E+00  1.2921E-01  4.9330E-02  1.0129E-01  1.5711E-01  0.0000E+00  1.8508E-02  9.9309E-02  1.9351E-01
 34  4.6249E+01  3.3499E+01  3.5494E+01  3.3264E+01  3.3487E+01  3.3749E+01  3.3072E+01  3.3453E+01  3.4306E+01
 35  0.0000E+00  1.2100E-02  1.2090E-02  1.1583E-02  1.2439E-02  1.2151E-02  1.2072E-02  1.2125E-02  1.2211E-02
 36  0.0000E+00  7.7422E-05  2.1338E-05  7.9320E-06  0.0000E+00  2.6757E-05  2.2887E-05  7.5579E-05  7.7432E-05
 37  0.0000E+00  8.6019E-05  9.5391E-05  8.4994E-05  2.2903E-05  2.3388E-05  0.0000E+00  1.8700E-05  0.0000E+00
 38  9.3251E-01  2.3501E-04  1.5945E-04  3.7404E-04  2.6160E-05  2.4000E-04  1.0434E-04  1.5954E-04  5.1348E-04
 39  1.7146E-01  3.9083E-04  5.4968E-04  7.3029E-05  5.6977E-04  0.0000E+00  0.0000E+00  9.2670E-05  4.7869E-04
 40  2.6912E-02  6.0353E-04  0.0000E+00  9.4188E-05  0.0000E+00  0.0000E+00  0.0000E+00  9.2855E-05  8.0974E-04
 41  0.0000E+00  1.2175E-03  9.9833E-04  5.2404E-04  1.7173E-03  6.6028E-04  8.5377E-04  1.1421E-03  0.0000E+00
 42  0.0000E+00  2.1190E-03  5.6295E-04  2.8352E-04  1.8620E-03  0.0000E+00  1.8217E-03  1.5864E-03  6.1719E-04
 43  0.0000E+00  2.3803E-03  7.9511E-04  3.1044E-04  4.6443E-03  0.0000E+00  1.3918E-03  1.6021E-03  4.9532E-04
 44  0.0000E+00  3.0608E-03  2.6825E-03  2.9172E-03  7.8895E-03  2.7024E-03  3.9397E-03  2.5940E-03  0.0000E+00
 45  0.0000E+00  6.4604E-03  1.8950E-03  6.6135E-03  1.3953E-02  1.5171E-03  2.4175E-02  3.2038E-03  4.5871E-03
 46  0.0000E+00  1.5787E-02  5.8572E-03  3.2287E-04  8.4348E-03  6.9443E-03  5.7380E-03  1.0354E-02  2.2027E-02
 47  4.1640E-02  5.2656E-02  5.0315E-02  0.0000E+00  5.5724E-02  4.3559E-03  2.0050E-02  3.6142E-02  6.1874E-02
 48  0.0000E+00  6.3937E-02  8.2118E-02  0.0000E+00  1.1019E-01  1.1908E-01  3.7516E-02  0.0000E+00  3.7672E-02
 49  0.0000E+00  1.2749E-01  0.0000E+00  9.6213E-02  1.1663E-01  0.0000E+00  8.8057E-02  0.0000E+00  5.5196E-02
 50  0.0000E+00  3.0608E+00  3.2470E+00  2.9452E+00  2.6395E+00  3.3012E+00  2.9365E+00  2.8646E+00  2.7993E+00
 51  0.0000E+00  6.6934E-03  6.6159E-03  6.5870E-03  6.7235E-03  6.6036E-03  6.7041E-03  6.5543E-03  6.0184E-03
 52  0.0000E+00  9.6782E-05  8.3799E-05  1.5405E-04  6.4879E-05  0.0000E+00  2.9251E-05  8.2287E-05  1.0138E-04
 53  1.0895E-01  8.5887E-05  1.9217E-05  2.2108E-05  2.1121E-04  9.6314E-05  4.0002E-05  2.1897E-05  1.4497E-04
 54  0.0000E+00  2.2708E-04  1.7807E-04  8.6677E-06  2.6775E-04  0.0000E+00  3.5580E-04  2.9095E-05  5.0008E-05
 55  0.0000E+00  3.2906E-04  1.6980E-04  3.2375E-04  5.4122E-05  1.3854E-04  4.3373E-04  6.3141E-05  1.2668E-04
 56  0.0000E+00  7.0489E-04  0.0000E+00  2.8971E-04  1.8866E-04  3.9305E-04  4.0170E-04  6.8756E-04  3.5327E-04
 57  0.0000E+00  1.0167E-03  3.5438E-04  3.0844E-04  1.2174E-03  7.9607E-04  0.0000E+00  6.5388E-05  1.5564E-03
 58  0.0000E+00  1.3168E-03  3.5801E-03  3.0149E-04  1.8956E-05  2.4874E-04  2.8749E-03  9.9166E-04  0.0000E+00
 59  0.0000E+00  2.9457E-03  1.3713E-03  2.9931E-04  0.0000E+00  3.8291E-04  3.3888E-03  1.7619E-03  4.0647E-04
 60  0.0000E+00  5.2861E-03  1.7421E-03  4.2794E-03  2.0596E-03  5.7387E-03  0.0000E+00  1.0676E-03  1.1576E-03
 61  0.0000E+00  1.1371E-01  9.6424E-02  1.0578E-01  1.2833E-01  1.1009E-01  7.8757E-02  9.9548E-02  1.3845E-01
 62  0.0000E+00  3.1991E-02  2.5051E-02  1.0775E-02  2.2737E-02  9.4567E-03  1.9062E-02  6.9068E-03  1.7352E-02
 63  0.0000E+00  4.4889E-02  6.2867E-02  5.0019E-02  5.5954E-02  4.6327E-02  4.6630E-02  5.9860E-03  0.0000E+00
 64  0.0000E+00  1.3887E-01  5.8112E-02  1.8276E-02  3.0582E-01  8.7696E-02  0.0000E+00  1.0654E-01  1.3990E-01
 65  0.0000E+00  1.8145E+01  1.8238E+01  1.8376E+01  1.8304E+01  1.7890E+01  1.7402E+01  1.8355E+01  1.7645E+01
 66  5.1325E+01  4.0685E+01  3.8834E+01  4.1359E+01  4.0831E+01  4.0951E+01  4.2167E+01  4.1513E+01  4.0675E+01

# AV, chi2 & Mass for <> & i_chain = 1 ...  7 solutions
AV       1.1755     -0.6838     -0.6496     -0.6443     -0.6269     -0.6420     -0.6349     -0.6644     -0.6415
chi2 7.9137E-06  1.2426E-05  1.2205E-05  1.2283E-05  1.2264E-05  1.2263E-05  1.2231E-05  1.2358E-05  1.2102E-05
Mass 3.3706E-13  2.8629E-13  3.0556E-13  3.1161E-13  3.1337E-13  3.1202E-13  3.1373E-13  3.0887E-13  3.0943E-13
 281.79                                  [v0_min (km/s) before EX0s...]
   4.07                                  [vd_min (km/s) before EX0s...]


## Synthetic spectrum (Best Model) ##l_obs f_obs f_syn wei
 3478    [Nl_obs]
 3741.00    0.24070   0.91035    0.000
 3742.00    0.08733   0.96896    0.000
 3743.00    0.06487   1.01327    0.000
 3744.00    0.05861   1.04170    0.000
 3745.00    0.06179   1.05384   -1.000
 3746.00    0.45601   1.04988   -1.000
 3747.00    1.04880   1.03480   -1.000
 3748.00    1.05838   1.00899   -1.000
 3749.00    0.81151   0.97143   -1.000
 3750.00    1.00498   0.92508   -1.000
 3751.00    1.36469   0.86468   -1.000
 3752.00    1.42340   0.78748   -1.000
 3753.00    1.38565   0.72591   -1.000
 3754.00    1.33433   0.72661   -1.000
 3755.00    1.27938   0.78903   -1.000
 3756.00    1.11412   0.86934   -1.000
 3757.00    0.92465   0.93922   -1.000
 3758.00    0.59543   0.99254   -1.000
 3759.00    0.24181   1.02687   -1.000
 3760.00    0.20097   1.04469   -1.000
 3761.00    0.20167   1.05324   -1.000
 3762.00    0.21971   1.06005   -1.000
 3763.00    0.23937   1.06921   -1.000
 3764.00    0.00326   1.07930   -1.000
 3765.00   -0.24762   1.08190    0.000
 3766.00   -0.28773   1.07405    0.000
 3767.00   -0.31952   1.06124    0.000
 3768.00    0.05059   1.04331   -1.000
 3769.00    0.40836   1.01147   -1.000
 3770.00    0.46645   0.96308   -1.000
 3771.00    0.52774   0.90482   -1.000
 3772.00    0.63090   0.83648   -1.000
 3773.00    0.72815   0.76280   -1.000
 3774.00    0.77341   0.72044   -1.000
 3775.00    0.79011   0.74691   -1.000
 3776.00    0.62165   0.82311   -1.000
 3777.00    0.52062   0.90163   -1.000
 3778.00    0.76090   0.96371   -1.000
 3779.00    0.99460   1.01141   -1.000
 3780.00    1.20140   1.04700   -1.000
 3781.00    1.29288   1.07214   -1.000
 3782.00    0.99328   1.09305   -1.000
 3783.00    0.71961   1.11693   -1.000
 3784.00    0.52012   1.13864   -1.000
 3785.00    0.53208   1.15023   -1.000
 3786.00    1.06070   1.15435   -1.000
 3787.00    1.29770   1.15250   -1.000
 3788.00    0.92010   1.14298   -1.000
 3789.00    0.74801   1.13188   -1.000
 3790.00    0.95237   1.12350   -1.000
 3791.00    1.16241   1.11472   -1.000
 3792.00    1.38153   1.10350   -1.000
 3793.00    1.41116   1.08806   -1.000
 3794.00    1.17461   1.06617   -1.000
 3795.00    1.03558   1.03996   -1.000
 3796.00    1.01708   1.00837   -1.000
 3797.00    0.78903   0.96250   -1.000
 3798.00    0.33267   0.89876   -1.000
 3799.00    0.41682   0.82167   -1.000
 3800.00    1.02040   0.73854   -1.000
 3801.00    1.22007   0.67684   -1.000
 3802.00    1.07745   0.67934   -1.000
 3803.00    0.87652   0.74947   -1.000
 3804.00    0.63208   0.84180   -1.000
 3805.00    0.51277   0.91952   -1.000
 3806.00    0.47549   0.97833   -1.000
 3807.00    0.53223   1.02336   -1.000
 3808.00    0.64292   1.04845   -1.000
 3809.00    0.56377   1.04998   -1.000
 3810.00    0.38974   1.05353   -1.000
 3811.00    0.46948   1.08303   -1.000
 3812.00    0.65895   1.11985   -1.000
 3813.00    0.85362   1.14281   -1.000
 3814.00    1.05020   1.15483   -1.000
 3815.00    0.89289   1.15835   -1.000
 3816.00    0.62433   1.15343   -1.000
 3817.00    0.67539   1.14519   -1.000
 3818.00    0.81030   1.13825   -1.000
 3819.00    0.79205   1.13213   -1.000
 3820.00    0.74098   1.12207   -1.000
 3821.00    0.59960   1.09070   -1.000
 3822.00    0.44290   1.02046   -1.000
 3823.00    0.66059   0.95540   -1.000
 3824.00    0.92633   0.97038   -1.000
 3825.00    1.00355   1.04216   -1.000
 3826.00    1.06386   1.09393   -1.000
 3827.00    0.88675   1.10655   -1.000
 3828.00    0.69688   1.09761   -1.000
 3829.00    0.43612   1.08413   -1.000
 3830.00    0.17865   1.07097   -1.000
 3831.00    0.31875   1.05493   -1.000
 3832.00    0.45606   1.03278   -1.000
 3833.00    0.53141   1.00299   -1.000
 3834.00    0.61633   0.96278   -1.000
 3835.00    0.82023   0.90640   -1.000
 3836.00    0.97038   0.83384   -1.000
 3837.00    0.66620   0.75122   -1.000
 3838.00    0.43651   0.67453   -1.000
 3839.00    0.67538   0.64394   -1.000
 3840.00    0.85535   0.68212   -1.000
 3841.00    0.74466   0.75535   -1.000
 3842.00    0.70633   0.82973   -1.000
 3843.00    0.95765   0.89872   -1.000
 3844.00    1.07787   0.95667   -1.000
 3845.00    0.76222   1.00231   -1.000
 3846.00    0.53810   1.03913   -1.000
 3847.00    0.57102   1.06881    0.000
 3848.00    0.66335   1.09083    0.000
 3849.00    0.89840   1.10613    0.000
 3850.00    1.07901   1.11693    0.000
 3851.00    1.14676   1.12511    0.000
 3852.00    1.13580   1.12966    0.000
 3853.00    0.98289   1.12884    0.000
 3854.00    0.87264   1.12690    0.000
 3855.00    0.82970   1.13435    0.000
 3856.00    0.88942   1.14659    0.000
 3857.00    1.09130   1.14908    0.000
 3858.00    1.19529   1.14175    0.000
 3859.00    1.18003   1.13112    0.000
 3860.00    1.07579   1.12812    0.000
 3861.00    0.87598   1.13887    0.000
 3862.00    0.75778   1.14546    0.000
 3863.00    0.71691   1.13874    0.000
 3864.00    0.60896   1.13230    0.000
 3865.00    0.44498   1.13564    0.000
 3866.00    0.34838   1.13916    0.000
 3867.00    0.30133   1.13647    0.000
 3868.00    0.45985   1.13406    0.000
 3869.00    0.75116   1.13260    0.000
 3870.00    0.88506   1.12050    0.000
 3871.00    0.93002   1.10578    0.000
 3872.00    0.81838   1.11541    0.000
 3873.00    0.62973   1.13189    0.000
 3874.00    0.52821   1.11867    0.000
 3875.00    0.46374   1.08865    0.000
 3876.00    0.37513   1.08072    0.000
 3877.00    0.27773   1.10133    0.000
 3878.00    0.34178   1.11388    0.000
 3879.00    0.45560   1.09989    0.000
 3880.00    0.60078   1.07980    0.000
 3881.00    0.75401   1.07223   -1.000
 3882.00    0.72271   1.06910   -1.000
 3883.00    0.65283   1.06420   -1.000
 3884.00    0.53258   1.05280   -1.000
 3885.00    0.40402   1.02654   -1.000
 3886.00    0.47843   0.99505   -1.000
 3887.00    0.57798   0.97108   -1.000
 3888.00    0.73090   0.93923   -1.000
 3889.00    0.88839   0.88126   -1.000
 3890.00    0.73305   0.80344   -1.000
 3891.00    0.56212   0.71786   -1.000
 3892.00    0.84254   0.64529   -1.000
 3893.00    1.12343   0.63379   -1.000
 3894.00    0.95803   0.70003   -1.000
 3895.00    0.79333   0.79464   -1.000
 3896.00    0.64293   0.87424   -1.000
 3897.00    0.52376   0.93230   -1.000
 3898.00    0.77389   0.97401   -1.000
 3899.00    0.98398   1.00624   -1.000
 3900.00    0.86795   1.03556   -1.000
 3901.00    0.73705   1.05759   -1.000
 3902.00    0.51542   1.06469   -1.000
 3903.00    0.35460   1.07057   -1.000
 3904.00    0.48641   1.08961   -1.000
 3905.00    0.61874   1.11103   -1.000
 3906.00    0.75312   1.12203   -1.000
 3907.00    0.83286   1.12722   -1.000
 3908.00    0.73453   1.13071   -1.000
 3909.00    0.64739   1.12928   -1.000
 3910.00    0.59115   1.13052   -1.000
 3911.00    0.66382   1.14109   -1.000
 3912.00    1.04090   1.15399   -1.000
 3913.00    1.19385   1.16203   -1.000
 3914.00    0.88939   1.15997   -1.000
 3915.00    0.64996   1.15124   -1.000
 3916.00    0.52604   1.14844   -1.000
 3917.00    0.58854   1.15570   -1.000
 3918.00    0.94071   1.16238   -1.000
 3919.00    1.03713   1.16425   -1.000
 3920.00    0.78460   1.16081   -1.000
 3921.00    0.53898   1.14768   -1.000
 3922.00    0.30165   1.11904   -1.000
 3923.00    0.38374   1.08720   -1.000
 3924.00    0.80411   1.07741   -1.000
 3925.00    0.88623   1.09748   -1.000
 3926.00    0.65235   1.12340   -1.000
 3927.00    0.65053   1.12717   -1.000
 3928.00    0.83981   1.11510   -1.000
 3929.00    0.82602   1.09558   -1.000
 3930.00    0.66503   1.07398   -1.000
 3931.00    0.44640   1.07403   -1.000
 3932.00    0.19109   1.08861   -1.000
 3933.00    0.23281   1.09721   -1.000
 3934.00    0.43983   1.09940   -1.000
 3935.00    0.50194   1.09019   -1.000
 3936.00    0.49389   1.06644   -1.000
 3937.00    0.50138   1.04280   -1.000
 3938.00    0.51536   1.04460   -1.000
 3939.00    0.61935   1.06706   -1.000
 3940.00    0.75553   1.08873   -1.000
 3941.00    0.72434   1.10555   -1.000
 3942.00    0.64257   1.11705   -1.000
 3943.00    0.79918   1.12415   -1.000
 3944.00    1.01566   1.12925   -1.000
 3945.00    1.19199   1.13023   -1.000
 3946.00    1.36012   1.12745   -1.000
 3947.00    1.19665   1.11974   -1.000
 3948.00    0.98008   1.11082   -1.000
 3949.00    0.91197   1.11412   -1.000
 3950.00    0.86157   1.12611   -1.000
 3951.00    0.54358   1.13006   -1.000
 3952.00    0.20380   1.12855   -1.000
 3953.00    0.48764   1.13135   -1.000
 3954.00    0.80014   1.13569   -1.000
 3955.00    0.81048   1.13338   -1.000
 3956.00    0.81682   1.12244   -1.000
 3957.00    0.81512   1.11035   -1.000
 3958.00    0.79559   1.10253   -1.000
 3959.00    0.43810   1.09839   -1.000
 3960.00    0.14962   1.09455    0.000
 3961.00    0.63891   1.09046    0.000
 3962.00    1.05976   1.08625    0.000
 3963.00    0.94266   1.07575    0.000
 3964.00    0.83744   1.05004    0.000
 3965.00    0.80275   1.01351    0.000
 3966.00    0.76819   0.98192    0.000
 3967.00    0.73423   0.94663    0.000
 3968.00    0.70308   0.89568    0.000
 3969.00    0.68267   0.85232    0.000
 3970.00    0.67859   0.81603    0.000
 3971.00    0.72669   0.75605    0.000
 3972.00    0.69682   0.67378    0.000
 3973.00    0.45575   0.60112    0.000
 3974.00    0.37615   0.58443    0.000
 3975.00    0.67145   0.64085    0.000
 3976.00    0.84103   0.72491    0.000
 3977.00    0.75811   0.80005    0.000
 3978.00    0.61951   0.86917    0.000
 3979.00    0.38349   0.92873    0.000
 3980.00    0.43520   0.97149    0.000
 3981.00    0.92740   1.00410   -1.000
 3982.00    1.21282   1.03175   -1.000
 3983.00    1.22014   1.05459   -1.000
 3984.00    1.13799   1.07167   -1.000
 3985.00    0.94990   1.07842   -1.000
 3986.00    0.92644   1.07634   -1.000
 3987.00    1.07490   1.08041   -1.000
 3988.00    1.07253   1.09732   -1.000
 3989.00    0.93123   1.11450   -1.000
 3990.00    0.83219   1.12437   -1.000
 3991.00    0.76747   1.13354   -1.000
 3992.00    0.86552   1.14086   -1.000
 3993.00    1.07986   1.14056   -1.000
 3994.00    1.18953   1.13912   -1.000
 3995.00    1.23358   1.14395   -1.000
 3996.00    1.22304   1.15026   -1.000
 3997.00    1.18261   1.14825   -1.000
 3998.00    1.37576   1.13507   -1.000
 3999.00    1.68018   1.12729   -1.000
 4000.00    1.51239   1.13300   -1.000
 4001.00    1.15050   1.13799   -1.000
 4002.00    1.18250   1.14012   -1.000
 4003.00    1.35284   1.14884   -1.000
 4004.00    1.37837   1.15749   -1.000
 4005.00    1.36099   1.15909   -1.000
 4006.00    1.21346   1.15739   -1.000
 4007.00    1.03395   1.15289   -1.000
 4008.00    0.88300   1.14005   -1.000
 4009.00    0.73773   1.12315   -1.000
 4010.00    0.87410   1.11739   -1.000
 4011.00    1.05424   1.11076   -1.000
 4012.00    0.96438   1.08491   -1.000
 4013.00    0.84347   1.06495   -1.000
 4014.00    0.57860   1.08557   -1.000
 4015.00    0.30260   1.12320   -1.000
 4016.00    0.55397   1.14479   -1.000
 4017.00    0.82755   1.15467   -1.000
 4018.00    0.97102   1.16000   -1.000
 4019.00    1.10381   1.16421   -1.000
 4020.00    0.82104   1.16432   -1.000
 4021.00    0.57874   1.15968   -1.000
 4022.00    1.04995   1.15971   -1.000
 4023.00    1.47644   1.16433   -1.000
 4024.00    1.42176   1.16237   -1.000
 4025.00    1.35575   1.15092   -1.000
 4026.00    1.20384   1.13608   -1.000
 4027.00    1.06252   1.11088   -1.000
 4028.00    0.98228   1.05993   -1.000
 4029.00    0.89255   0.99073   -1.000
 4030.00    0.75938   0.95843   -1.000
 4031.00    0.70353   1.00976   -1.000
 4032.00    0.93773   1.08723   -1.000
 4033.00    1.13617   1.12291   -1.000
 4034.00    1.22247   1.12424   -1.000
 4035.00    1.42257   1.11862   -1.000
 4036.00    1.92544   1.11724   -1.000
 4037.00    2.15931   1.11620   -1.000
 4038.00    1.77894   1.11730   -1.000
 4039.00    1.46295   1.12637   -1.000
 4040.00    1.27426   1.14875   -1.000
 4041.00    1.11327   1.16980   -1.000
 4042.00    1.00000   1.17536   -1.000
 4043.00    0.95597   1.16894   -1.000
 4044.00    1.01638   1.15722   -1.000
 4045.00    1.00336   1.14860   -1.000
 4046.00    0.89299   1.14850   -1.000
 4047.00    0.65645   1.14232   -1.000
 4048.00    0.27258   1.12348   -1.000
 4049.00    0.29843   1.10834   -1.000
 4050.00    0.74610   1.11064   -1.000
 4051.00    1.00629   1.12897   -1.000
 4052.00    1.09623   1.14576   -1.000
 4053.00    0.97024   1.15521   -1.000
 4054.00    0.67144   1.16145   -1.000
 4055.00    0.70216   1.16335   -1.000
 4056.00    0.96492   1.15743   -1.000
 4057.00    1.24791   1.14706   -1.000
 4058.00    1.54339   1.13777   -1.000
 4059.00    1.73477   1.13466   -1.000
 4060.00    1.86998   1.13597   -1.000
 4061.00    1.45511   1.13348   -1.000
 4062.00    0.78244   1.13057   -1.000
 4063.00    0.50441   1.13122   -1.000
 4064.00    0.38583   1.13160   -1.000
 4065.00    0.63741   1.12996   -1.000
 4066.00    1.01662   1.12028   -1.000
 4067.00    1.11628   1.10581   -1.000
 4068.00    1.13476   1.10645   -1.000
 4069.00    0.98831   1.12241   -1.000
 4070.00    0.80224   1.13014   -1.000
 4071.00    0.65743   1.12686   -1.000
 4072.00    0.52061   1.12195   -1.000
 4073.00    0.59257   1.11185   -1.000
 4074.00    0.69599   1.09649   -1.000
 4075.00    0.83118   1.08214   -1.000
 4076.00    0.96988   1.08104   -1.000
 4077.00    1.05641   1.10107   -1.000
 4078.00    1.13912   1.10715   -1.000
 4079.00    0.87281   1.08336   -1.000
 4080.00    0.59315   1.06679   -1.000
 4081.00    1.10030   1.07245   -1.000
 4082.00    1.59154   1.08414   -1.000
 4083.00    1.31848   1.09838   -1.000
 4084.00    1.05648   1.11702   -1.000
 4085.00    0.97665   1.12714   -1.000
 4086.00    0.90508   1.12164   -1.000
 4087.00    0.91848   1.10684   -1.000
 4088.00    0.94802   1.09171   -1.000
 4089.00    1.09595   1.08682   -1.000
 4090.00    1.24423   1.09246   -1.000
 4091.00    1.39450   1.09460   -1.000
 4092.00    1.47102   1.08582    0.000
 4093.00    1.21756   1.07708    0.000
 4094.00    1.02126   1.07901    0.000
 4095.00    1.03486   1.07614    0.000
 4096.00    1.08203   1.05703    0.000
 4097.00    1.23243   1.03817    0.000
 4098.00    1.32336   1.02120    0.000
 4099.00    1.25887   0.98324    0.000
 4100.00    1.18618   0.93200    0.000
 4101.00    1.09510   0.88982    0.000
 4102.00    1.04445   0.85271    0.000
 4103.00    1.07245   0.79961    0.000
 4104.00    1.06275   0.71740    0.000
 4105.00    0.98910   0.63653    0.000
 4106.00    0.84223   0.62725    0.000
 4107.00    0.58651   0.69750    0.000
 4108.00    0.57437   0.78105    0.000
 4109.00    0.88051   0.85094    0.000
 4110.00    1.06887   0.91152    0.000
 4111.00    1.12165   0.95536    0.000
 4112.00    1.20404   0.98325    0.000
 4113.00    1.31650   1.00134   -1.000
 4114.00    1.35882   1.01222   -1.000
 4115.00    1.33834   1.02263   -1.000
 4116.00    1.12103   1.03972   -1.000
 4117.00    0.74842   1.05967   -1.000
 4118.00    0.78919   1.07140   -1.000
 4119.00    1.11681   1.07358   -1.000
 4120.00    1.07733   1.07750   -1.000
 4121.00    0.81445   1.08442   -1.000
 4122.00    0.87077   1.07340   -1.000
 4123.00    1.09666   1.04394   -1.000
 4124.00    0.94689   1.01811   -1.000
 4125.00    0.62390   1.02190   -1.000
 4126.00    0.68616   1.05815   -1.000
 4127.00    0.90141   1.09408   -1.000
 4128.00    0.74085   1.11288   -1.000
 4129.00    0.45311   1.12382   -1.000
 4130.00    0.69803   1.12132   -1.000
 4131.00    1.09451   1.10379   -1.000
 4132.00    1.15030   1.08807   -1.000
 4133.00    1.12610   1.08762   -1.000
 4134.00    1.30644   1.08318   -1.000
 4135.00    1.52539   1.07132   -1.000
 4136.00    0.99024   1.06712   -1.000
 4137.00    0.34498   1.07482   -1.000
 4138.00    0.53064   1.09051   -1.000
 4139.00    0.80460   1.10947   -1.000
 4140.00    0.77693   1.12020   -1.000
 4141.00    0.72839   1.11878   -1.000
 4142.00    0.93085   1.11705   -1.000
 4143.00    1.14196   1.11858   -1.000
 4144.00    0.96853   1.11551   -1.000
 4145.00    0.79991   1.09809   -1.000
 4146.00    0.81548   1.04662   -1.000
 4147.00    0.82591   0.97662   -1.000
 4148.00    0.75695   0.96365   -1.000
 4149.00    0.69659   1.02365   -1.000
 4150.00    0.72093   1.07986   -1.000
 4151.00    0.75145   1.10317   -1.000
 4152.00    0.82589   1.10926   -1.000
 4153.00    0.86939   1.10190   -1.000
 4154.00    0.74405   1.09513   -1.000
 4155.00    0.65409   1.09861   -1.000
 4156.00    0.71882   1.09541   -1.000
 4157.00    0.83637   1.08487   -1.000
 4158.00    1.14392   1.08773   -1.000
 4159.00    1.28699   1.09595   -1.000
 4160.00    0.93374   1.09680   -1.000
 4161.00    0.71353   1.10212   -1.000
 4162.00    0.83498   1.11554   -1.000
 4163.00    1.00040   1.12505   -1.000
 4164.00    1.26296   1.12480   -1.000
 4165.00    1.39314   1.12095   -1.000
 4166.00    1.26971   1.11739   -1.000
 4167.00    1.15252   1.11603   -1.000
 4168.00    1.04576   1.11198   -1.000
 4169.00    1.05123   1.10790   -1.000
 4170.00    1.22109   1.10657   -1.000
 4171.00    1.36691   1.10023   -1.000
 4172.00    1.48176   1.08669   -1.000
 4173.00    1.38295   1.08417   -1.000
 4174.00    1.04165   1.09717   -1.000
 4175.00    0.83767   1.09897   -1.000
 4176.00    0.77112   1.08276   -1.000
 4177.00    0.69190   1.07389   -1.000
 4178.00    0.60149   1.07909   -1.000
 4179.00    0.74201   1.08711   -1.000
 4180.00    1.06212   1.09064   -1.000
 4181.00    1.33125   1.09032   -1.000
 4182.00    1.56551   1.09061   -1.000
 4183.00    1.40355   1.09786   -1.000
 4184.00    1.00408   1.10692   -1.000
 4185.00    0.83396   1.10683   -1.000
 4186.00    0.78380   1.10223   -1.000
 4187.00    0.87201   1.10368   -1.000
 4188.00    1.02300   1.10532   -1.000
 4189.00    1.05189   1.10330   -1.000
 4190.00    1.03314   1.09669   -1.000
 4191.00    0.91140   1.08791   -1.000
 4192.00    0.75545   1.08701   -1.000
 4193.00    0.98525   1.08697   -1.000
 4194.00    1.32256   1.08758   -1.000
 4195.00    1.24487   1.09613   -1.000
 4196.00    1.07196   1.10753   -1.000
 4197.00    1.01354   1.11890   -1.000
 4198.00    0.97616   1.11923   -1.000
 4199.00    0.88025   1.10670   -1.000
 4200.00    0.77607   1.09392   -1.000
 4201.00    0.70448   1.08660   -1.000
 4202.00    0.63621   1.07980   -1.000
 4203.00    0.59862   1.07529   -1.000
 4204.00    0.56303   1.07657   -1.000
 4205.00    0.86259   1.07711   -1.000
 4206.00    1.17198   1.07836   -1.000
 4207.00    1.17770   1.08617   -1.000
 4208.00    1.17405   1.09400   -1.000
 4209.00    0.89517   1.09774   -1.000
 4210.00    0.65115   1.10491   -1.000
 4211.00    0.91459   1.11287   -1.000
 4212.00    1.14585   1.11824    0.694
 4213.00    1.07270   1.11627    0.061
 4214.00    1.02266   1.10940    0.034
 4215.00    1.13145   1.10820    0.033
 4216.00    1.23347   1.11113    0.032
 4217.00    1.29953   1.10964    0.033
 4218.00    1.34526   1.10044    0.033
 4219.00    1.30418   1.08356    0.032
 4220.00    1.28760   1.08043    0.032
 4221.00    1.35739   1.09813    0.032
 4222.00    1.43188   1.11471    0.032
 4223.00    1.52033   1.12045    0.032
 4224.00    1.47615   1.12023    0.032
 4225.00    1.09724   1.11580    0.032
 4226.00    0.83989   1.10213    0.032
 4227.00    0.84667   1.08760    0.031
 4228.00    0.87140   1.07218    0.030
 4229.00    0.93001   1.04960    0.030
 4230.00    0.94828   1.02564    0.030
 4231.00    0.90012   1.01809    0.030
 4232.00    0.87316   1.04093    0.030
 4233.00    0.87677   1.07289    0.030
 4234.00    0.91416   1.09181    0.029
 4235.00    0.99444   1.09977    0.029
 4236.00    1.01451   1.09379    0.029
 4237.00    0.96721   1.08068    0.028
 4238.00    1.00060   1.08096    0.028
 4239.00    1.11360   1.08508    0.029
 4240.00    1.15078   1.07568    0.029
 4241.00    1.12197   1.07204    0.029
 4242.00    1.21381   1.08193    0.029
 4243.00    1.39814   1.08967    0.029
 4244.00    1.46688   1.09228    0.029
 4245.00    1.45774   1.09219    0.030
 4246.00    1.35706   1.09206    0.030
 4247.00    1.20233   1.10283    0.031
 4248.00    1.05396   1.12124    0.031
 4249.00    0.90886   1.12647    0.031
 4250.00    0.84273   1.11241    0.031
 4251.00    0.81184   1.09693    0.031
 4252.00    0.95804   1.09098    0.031
 4253.00    1.17215   1.08615    0.030
 4254.00    1.29894   1.07455    0.030
 4255.00    1.39728   1.07198    0.031
 4256.00    1.41333   1.07659    0.031
 4257.00    1.40692   1.06153    0.031
 4258.00    1.18926   1.04378    0.031
 4259.00    0.92426   1.05468    0.030
 4260.00    0.80289   1.08054    0.030
 4261.00    0.70720   1.09748    0.030
 4262.00    0.89495   1.09446    0.031
 4263.00    1.12149   1.08032    0.031
 4264.00    1.22871   1.06734    0.031
 4265.00    1.32427   1.06594    0.031
 4266.00    1.10608   1.08282    0.031
 4267.00    0.86869   1.10520    0.030
 4268.00    0.98490   1.11648    0.030
 4269.00    1.11072   1.11258    0.030
 4270.00    1.24880   1.07574    0.030
 4271.00    1.37922   1.02964    0.030
 4272.00    1.30704   1.03695    0.031
 4273.00    1.23834   1.07055    0.031
 4274.00    1.21748   1.07163    0.031
 4275.00    1.18471   1.04965    0.030
 4276.00    1.04378   1.03691    0.031
 4277.00    0.90150   1.04315    0.031
 4278.00    0.75022   1.04348    0.031
 4279.00    0.66180   1.03466    0.031
 4280.00    0.89881   1.03871    0.031
 4281.00    1.10772   1.05975    0.032
 4282.00    1.19933   1.08584   -2.000
 4283.00    1.31194   1.09786   -2.000
 4284.00    1.49699   1.08929   -2.000
 4285.00    1.68907   1.07823   -2.000
 4286.00    1.90157   1.07056   -2.000
 4287.00    1.86782   1.06621   -2.000
 4288.00    1.22328   1.06459   -2.000
 4289.00    0.75340   1.06090   -2.000
 4290.00    0.65691   1.06505   -2.000
 4291.00    0.66006   1.07427   -2.000
 4292.00    0.84821   1.06582   -2.000
 4293.00    0.96265   1.04204   -2.000
 4294.00    0.95752   1.02683   -2.000
 4295.00    0.94057   1.03495   -2.000
 4296.00    0.90678   1.05989   -2.000
 4297.00    0.87526   1.07608   -2.000
 4298.00    0.84658   1.06478    0.032
 4299.00    0.76595   1.05632    0.032
 4300.00    0.62801   1.06374    0.031
 4301.00    0.70809   1.06573    0.030
 4302.00    1.00031   1.05527    0.031
 4303.00    1.00477   1.03438    0.031
 4304.00    0.76236   1.02055    0.031
 4305.00    0.74710   1.02550    0.031
 4306.00    0.90348   1.02596    0.031
 4307.00    0.99841   1.01460    0.031
 4308.00    1.05252   1.01610    0.031
 4309.00    0.88723   1.02718    0.031
 4310.00    0.59434   1.02841    0.030
 4311.00    0.59269   1.01561    0.030
 4312.00    0.73865   1.00014    0.030
 4313.00    0.86366   1.00026    0.029
 4314.00    0.97950   1.01663    0.029
 4315.00    1.13299   1.03615    0.029
 4316.00    1.30067   1.04676    0.030
 4317.00    1.26032   1.04703    0.030
 4318.00    1.15345   1.04669    0.030
 4319.00    1.15962   1.05962    0.030
 4320.00    1.19599   1.08274    0.030
 4321.00    1.28124   1.09526    0.030
 4322.00    1.37719   1.09389    0.030
 4323.00    1.20934   1.08421    0.030
 4324.00    0.99561   1.07703    0.029
 4325.00    0.80257   1.07841    0.029
 4326.00    0.61227   1.07995    0.028
 4327.00    0.85955   1.06571    0.029
 4328.00    1.14772   1.03374    0.030
 4329.00    1.31581   0.99467    0.029
 4330.00    1.47702   0.97847    0.000
 4331.00    1.41745   1.00315    0.000
 4332.00    1.35294   1.03917    0.000
 4333.00    1.31054   1.05261    0.000
 4334.00    1.26758   1.04167    0.000
 4335.00    1.21128   1.02422    0.000
 4336.00    1.16641   1.00959    0.000
 4337.00    1.27035   0.99613    0.000
 4338.00    1.34684   0.98503    0.000
 4339.00    1.18363   0.97030    0.000
 4340.00    1.03443   0.92963    0.000
 4341.00    0.97575   0.85517    0.000
 4342.00    0.94766   0.77529    0.000
 4343.00    1.07391   0.69757    0.000
 4344.00    1.14529   0.62801    0.000
 4345.00    0.99271   0.63186    0.000
 4346.00    0.91647   0.71593    0.000
 4347.00    1.09850   0.80100    0.000
 4348.00    1.21501   0.85411    0.000
 4349.00    1.14457   0.89565    0.000
 4350.00    1.03579   0.92930    0.000
 4351.00    0.83352   0.95326    0.029
 4352.00    0.75762   0.97987    0.028
 4353.00    0.94752   1.00702    0.029
 4354.00    0.99782   1.01212    0.029
 4355.00    0.79289   0.99007    0.029
 4356.00    0.71378   0.97840    0.029
 4357.00    0.83568   1.00072    0.028
 4358.00    0.96008   1.03126    0.029
 4359.00    1.08797   1.05318    0.029
 4360.00    1.17494   1.07231    0.029
 4361.00    1.21144   1.08604    0.029
 4362.00    1.25291   1.08279    0.029
 4363.00    1.29979   1.07069    0.029
 4364.00    1.33246   1.06972    0.029
 4365.00    1.35149   1.07992    0.029
 4366.00    1.38121   1.09227    0.029
 4367.00    1.41995   1.10045    0.029
 4368.00    1.32611   1.10630    0.029
 4369.00    1.13352   1.11271    0.029
 4370.00    1.00581   1.10191    0.029
 4371.00    0.92055   1.07939    0.029
 4372.00    0.81855   1.06978    0.029
 4373.00    0.70695   1.07690    0.029
 4374.00    0.68918   1.08521    0.029
 4375.00    0.71821   1.08668    0.029
 4376.00    0.87891   1.08225    0.029
 4377.00    1.09642   1.07360    0.029
 4378.00    1.02148   1.05951    0.029
 4379.00    0.83832   1.05025    0.029
 4380.00    0.88570   1.05961    0.029
 4381.00    1.00538   1.08229    0.029
 4382.00    1.02497   1.09708    0.029
 4383.00    1.01838   1.09604    0.029
 4384.00    1.03624   1.09058    0.029
 4385.00    1.05931   1.08377    0.029
 4386.00    1.13665   1.05975    0.029
 4387.00    1.22317   1.01637    0.028
 4388.00    1.23563   0.98690    0.029
 4389.00    1.23863   0.99539    0.029
 4390.00    1.14861   1.01340    0.029
 4391.00    1.05028   0.99118    0.029
 4392.00    1.01108   0.96520    0.029
 4393.00    0.97504   0.99144    0.029
 4394.00    1.13027   1.03266    0.029
 4395.00    1.28206   1.05559    0.030
 4396.00    0.85000   1.07577    0.029
 4397.00    0.44984   1.08792    0.028
 4398.00    0.75095   1.08048    0.029
 4399.00    1.03237   1.06617    0.029
 4400.00    1.07037   1.07511    0.029
 4401.00    1.11684   1.10362    0.029
 4402.00    1.23453   1.11721    0.029
 4403.00    1.27697   1.10682    0.029
 4404.00    0.84779   1.08639    0.029
 4405.00    0.52026   1.08021    0.030
 4406.00    0.69271   1.09439    0.030
 4407.00    0.89679   1.09249    0.030
 4408.00    1.22710   1.05808    0.030
 4409.00    1.42465   1.03150    0.029
 4410.00    1.18191   1.03942    0.029
 4411.00    0.98194   1.05500    0.029
 4412.00    0.90179   1.05812    0.029
 4413.00    0.87237   1.06667    0.029
 4414.00    0.96454   1.08649    0.029
 4415.00    1.02403   1.10025    0.029
 4416.00    1.01586   1.10950    0.029
 4417.00    1.06684   1.10956    0.029
 4418.00    1.22428   1.07659    0.029
 4419.00    1.27796   1.03511    0.029
 4420.00    1.16828   1.02592    0.029
 4421.00    1.14564   1.04323    0.029
 4422.00    1.24325   1.07289    0.029
 4423.00    1.24720   1.10086    0.029
 4424.00    1.13723   1.11279    0.029
 4425.00    1.10646   1.10923    0.029
 4426.00    1.16063   1.09410    0.029
 4427.00    1.13699   1.08623    0.029
 4428.00    1.03976   1.09347    0.029
 4429.00    0.98454   1.09879    0.029
 4430.00    0.96436   1.09215    0.029
 4431.00    0.95077   1.08354    0.028
 4432.00    0.94202   1.08713    0.029
 4433.00    0.86969   1.09226    0.029
 4434.00    0.75636   1.08280    0.029
 4435.00    0.80815   1.07869    0.029
 4436.00    0.95307   1.08831    0.029
 4437.00    1.14435   1.08796    0.030
 4438.00    1.35838   1.07107    0.030
 4439.00    1.34628   1.05337    0.030
 4440.00    1.23822   1.04770    0.029
 4441.00    1.19935   1.05612    0.029
 4442.00    1.18563   1.08061    0.029
 4443.00    1.07844   1.11098    0.029
 4444.00    0.94250   1.12007    0.029
 4445.00    0.89192   1.10135    0.029
 4446.00    0.86319   1.07426    0.029
 4447.00    1.06166   1.06023    0.029
 4448.00    1.30748   1.07147    0.029
 4449.00    1.20170   1.09897    0.029
 4450.00    1.03815   1.11162    0.028
 4451.00    1.08249   1.10208    0.028
 4452.00    1.15246   1.09867    0.028
 4453.00    0.99321   1.10579    0.028
 4454.00    0.81446   1.10566    0.027
 4455.00    0.77579   1.10299    0.027
 4456.00    0.74403   1.10114    0.027
 4457.00    0.82724   1.09416    0.027
 4458.00    0.91117   1.07940    0.027
 4459.00    0.92530   1.06137    0.027
 4460.00    0.94270   1.05755    0.027
 4461.00    1.02615   1.06602    0.000
 4462.00    1.09722   1.07058    0.000
 4463.00    1.02283   1.06809    0.000
 4464.00    0.97321   1.06471    0.000
 4465.00    1.12439   1.05832    0.000
 4466.00    1.27082   1.05359    0.000
 4467.00    1.38834   1.06846    0.000
 4468.00    1.43827   1.08807    0.000
 4469.00    1.16397   1.08881    0.000
 4470.00    0.93352   1.07972    0.000
 4471.00    0.87434   1.07288    0.000
 4472.00    0.82975   1.06305    0.000
 4473.00    0.83261   1.04279    0.000
 4474.00    0.86902   1.00120    0.000
 4475.00    0.99773   0.94764    0.000
 4476.00    1.11716   0.94673    0.000
 4477.00    1.21470   1.01617    0.000
 4478.00    1.25421   1.08087    0.000
 4479.00    1.17552   1.10344    0.000
 4480.00    1.13135   1.11299    0.000
 4481.00    1.14840   1.12691    0.000
 4482.00    1.14081   1.13293    0.027
 4483.00    1.09501   1.11462    0.027
 4484.00    1.09157   1.06939    0.027
 4485.00    1.14582   1.02911    0.027
 4486.00    1.15480   1.03245    0.027
 4487.00    1.10952   1.07302    0.027
 4488.00    1.02153   1.11012    0.026
 4489.00    0.88841   1.13110    0.026
 4490.00    0.86407   1.14004    0.025
 4491.00    0.94116   1.13439    0.025
 4492.00    1.00859   1.11323    0.026
 4493.00    1.06807   1.08999    0.026
 4494.00    1.14310   1.08211    0.026
 4495.00    1.22937   1.09363    0.026
 4496.00    1.33181   1.11190    0.026
 4497.00    1.44452   1.11702    0.027
 4498.00    1.45093   1.10163    0.027
 4499.00    1.39829   1.08393    0.026
 4500.00    1.24193   1.07978    0.026
 4501.00    1.03545   1.08979    0.026
 4502.00    1.02080   1.10717    0.026
 4503.00    1.08618   1.12233    0.026
 4504.00    1.11285   1.12389    0.026
 4505.00    1.12571   1.11272    0.026
 4506.00    1.28462   1.11221    0.026
 4507.00    1.48758   1.13397    0.026
 4508.00    1.53965   1.15485    0.026
 4509.00    1.55392   1.15784    0.026
 4510.00    1.40401   1.14706    0.026
 4511.00    1.22074   1.13315    0.026
 4512.00    1.19189   1.12682    0.026
 4513.00    1.18768   1.13080    0.026
 4514.00    1.22222   1.13847    0.026
 4515.00    1.26136   1.13811    0.026
 4516.00    1.29213   1.12450    0.026
 4517.00    1.32222   1.10881    0.026
 4518.00    1.16105   1.09983    0.025
 4519.00    0.99118   1.09992    0.025
 4520.00    1.04193   1.10897    0.025
 4521.00    1.09673   1.11285    0.026
 4522.00    1.21962   1.10828    0.026
 4523.00    1.32717   1.11054    0.026
 4524.00    1.14674   1.12269    0.026
 4525.00    0.98437   1.13388    0.026
 4526.00    1.02428   1.12753    0.026
 4527.00    1.06263   1.10887    0.026
 4528.00    1.08866   1.09931    0.026
 4529.00    1.09923   1.09557    0.026
 4530.00    1.01838   1.08671    0.025
 4531.00    0.98131   1.07164    0.025
 4532.00    1.14919   1.05244    0.026
 4533.00    1.25988   1.03986    0.026
 4534.00    1.15197   1.04480    0.026
 4535.00    1.06825   1.06187    0.026
 4536.00    1.06170   1.08058    0.026
 4537.00    1.07697   1.08339    0.025
 4538.00    1.15120   1.06698    0.026
 4539.00    1.21259   1.05217    0.026
 4540.00    1.24424   1.06283    0.025
 4541.00    1.26979   1.09763    0.025
 4542.00    1.28312   1.12346    0.025
 4543.00    1.21729   1.12350    0.025
 4544.00    1.01330   1.10815    0.025
 4545.00    0.98057   1.09430    0.025
 4546.00    1.20954   1.09721    0.025
 4547.00    1.24196   1.11047    0.025
 4548.00    1.01054   1.11182    0.026
 4549.00    0.86877   1.10124    0.026
 4550.00    0.83297   1.09827    0.000
 4551.00    0.90313   1.10363    0.000
 4552.00    1.08372   1.10085    0.000
 4553.00    1.18734   1.08653    0.000
 4554.00    1.22018   1.08334    0.000
 4555.00    1.21388   1.09279    0.000
 4556.00    1.17585   1.08420    0.000
 4557.00    1.10661   1.06804    0.000
 4558.00    1.01510   1.06709    0.000
 4559.00    0.94166   1.07304    0.000
 4560.00    0.87953   1.08546    0.000
 4561.00    0.91530   1.10835    0.000
 4562.00    1.00462   1.12672    0.000
 4563.00    1.15176   1.13307    0.000
 4564.00    1.32639   1.13211    0.000
 4565.00    1.32768   1.13137    0.000
 4566.00    1.25788   1.13115    0.000
 4567.00    1.22147   1.11978    0.000
 4568.00    1.19675   1.10159    0.000
 4569.00    1.25654   1.09307    0.000
 4570.00    1.34132   1.09880    0.000
 4571.00    1.24636   1.10948    0.000
 4572.00    1.10738   1.11744    0.000
 4573.00    1.05517   1.12545    0.000
 4574.00    1.02015   1.12593    0.000
 4575.00    1.04429   1.10790    0.000
 4576.00    1.07759   1.09592    0.000
 4577.00    1.10870   1.10931    0.000
 4578.00    1.13955   1.11972    0.000
 4579.00    1.26339   1.11501    0.000
 4580.00    1.39438   1.11635    0.000
 4581.00    1.22691   1.12367    0.000
 4582.00    1.04700   1.12141    0.000
 4583.00    0.98403   1.10624    0.000
 4584.00    0.92273   1.08929    0.000
 4585.00    0.88959   1.08525    0.000
 4586.00    0.85705   1.09436    0.000
 4587.00    0.83509   1.10162    0.000
 4588.00    0.84097   1.10111    0.000
 4589.00    1.14468   1.09910    0.000
 4590.00    1.38560   1.09758    0.000
 4591.00    1.15202   1.10172    0.000
 4592.00    0.97026   1.11472    0.000
 4593.00    1.08644   1.12653    0.000
 4594.00    1.19964   1.12178    0.000
 4595.00    1.29919   1.10415    0.000
 4596.00    1.32368   1.09324    0.000
 4597.00    1.06735   1.09519    0.000
 4598.00    0.88143   1.09670    0.000
 4599.00    0.91573   1.08906    0.000
 4600.00    0.94808   1.08221    0.000
 4601.00    0.97526   1.08707    0.000
 4602.00    1.00125   1.10007    0.000
 4603.00    1.02452   1.10931    0.000
 4604.00    1.10314   1.10469    0.000
 4605.00    1.29098   1.08994    0.000
 4606.00    1.38209   1.08428    0.000
 4607.00    1.30687   1.09158    0.000
 4608.00    1.21324   1.10028    0.000
 4609.00    1.09190   1.10027    0.000
 4610.00    1.04678   1.09623    0.000
 4611.00    1.10249   1.10118    0.000
 4612.00    1.14627   1.11806    0.000
 4613.00    1.17612   1.13319    0.000
 4614.00    1.24705   1.13615    0.000
 4615.00    1.36019   1.13206    0.000
 4616.00    1.31952   1.12570    0.000
 4617.00    1.13943   1.11677    0.000
 4618.00    1.12499   1.11527    0.000
 4619.00    1.24291   1.12539    0.000
 4620.00    1.23929   1.13233    0.000
 4621.00    1.15025   1.13322    0.000
 4622.00    1.11869   1.12588    0.000
 4623.00    1.12256   1.10924    0.000
 4624.00    1.18135   1.10457    0.000
 4625.00    1.26973   1.11782    0.000
 4626.00    1.26592   1.12805    0.000
 4627.00    1.21899   1.13177    0.000
 4628.00    1.24728   1.13422    0.000
 4629.00    1.30589   1.13159    0.000
 4630.00    1.33931   1.12442    0.000
 4631.00    1.36407   1.12288    0.000
 4632.00    1.31020   1.12412    0.000
 4633.00    1.23354   1.11566    0.000
 4634.00    1.18592   1.10608    0.000
 4635.00    1.14526   1.11315    0.000
 4636.00    1.16128   1.12553    0.000
 4637.00    1.18824   1.12100    0.000
 4638.00    1.17161   1.10837    0.000
 4639.00    1.14844   1.10507    0.000
 4640.00    1.11369   1.10895    0.000
 4641.00    1.07767   1.10570    0.000
 4642.00    1.17182   1.09060    0.000
 4643.00    1.27543   1.07485    0.000
 4644.00    1.27036   1.06800    0.000
 4645.00    1.26118   1.07142    0.000
 4646.00    1.01923   1.08119    0.000
 4647.00    0.78442   1.09195    0.000
 4648.00    0.85817   1.09953    0.000
 4649.00    0.94228   1.09675    0.000
 4650.00    1.19564   1.07620    0.000
 4651.00    1.41114   1.05008    0.000
 4652.00    1.23924   1.03689    0.000
 4653.00    1.08957   1.03772    0.000
 4654.00    1.10241   1.04584    0.000
 4655.00    1.11628   1.06139    0.000
 4656.00    1.13593   1.08354    0.000
 4657.00    1.14249   1.10206    0.000
 4658.00    1.09065   1.10073    0.000
 4659.00    1.06329   1.08776    0.000
 4660.00    1.12563   1.08192    0.000
 4661.00    1.18494   1.08963    0.000
 4662.00    1.23495   1.11073    0.000
 4663.00    1.21809   1.13555    0.000
 4664.00    1.02686   1.14755    0.000
 4665.00    0.95568   1.13658    0.000
 4666.00    1.15353   1.11451    0.000
 4667.00    1.27389   1.10095    0.000
 4668.00    1.24372   1.10022    0.000
 4669.00    1.16296   1.10143    0.000
 4670.00    0.99649   1.08884    0.000
 4671.00    0.96178   1.06235    0.000
 4672.00    1.12256   1.04463    0.000
 4673.00    1.16299   1.05129    0.000
 4674.00    1.04648   1.07512    0.000
 4675.00    1.02435   1.09977    0.000
 4676.00    1.11067   1.11072    0.000
 4677.00    1.14841   1.10468    0.000
 4678.00    1.13693   1.09426    0.000
 4679.00    1.13157   1.09065    0.000
 4680.00    1.13168   1.09644    0.000
 4681.00    1.15038   1.10464    0.000
 4682.00    1.18373   1.10688    0.000
 4683.00    1.17443   1.10171    0.000
 4684.00    1.13559   1.09367    0.000
 4685.00    1.12226   1.08581    0.000
 4686.00    1.12443   1.08286    0.000
 4687.00    1.20862   1.09004    0.000
 4688.00    1.33629   1.09897    0.000
 4689.00    1.23832   1.09873    0.000
 4690.00    1.03653   1.09432    0.000
 4691.00    1.08826   1.09264    0.000
 4692.00    1.24044   1.09402    0.000
 4693.00    1.34401   1.09878    0.000
 4694.00    1.43118   1.10102    0.000
 4695.00    1.37167   1.09591    0.000
 4696.00    1.27053   1.09300    0.000
 4697.00    1.25517   1.09717    0.000
 4698.00    1.25989   1.10359    0.000
 4699.00    1.23371   1.11204    0.000
 4700.00    1.20172   1.12054    0.000
 4701.00    1.33146   1.11868    0.000
 4702.00    1.48471   1.09732    0.000
 4703.00    1.24520   1.07141    0.000
 4704.00    0.96416   1.06635    0.000
 4705.00    0.89464   1.07637    0.000
 4706.00    0.83965   1.07865    0.000
 4707.00    0.99284   1.07316    0.000
 4708.00    1.15312   1.07209    0.000
 4709.00    1.08034   1.07682    0.000
 4710.00    1.01008   1.08020    0.000
 4711.00    1.03363   1.07957    0.000
 4712.00    1.05381   1.07600    0.000
 4713.00    1.02224   1.07137    0.000
 4714.00    0.99708   1.07362    0.000
 4715.00    1.03470   1.08743    0.000
 4716.00    1.09292   1.08540    0.000
 4717.00    1.29671   1.05772    0.000
 4718.00    1.42713   1.04133    0.000
 4719.00    1.15837   1.05640    0.000
 4720.00    0.94768   1.08018    0.000
 4721.00    0.99008   1.09845    0.000
 4722.00    1.03832   1.11210    0.000
 4723.00    1.10752   1.12247    0.000
 4724.00    1.14433   1.12977    0.000
 4725.00    1.08366   1.13116    0.000
 4726.00    1.02912   1.12486    0.000
 4727.00    0.99030   1.11805    0.000
 4728.00    0.95551   1.12149    0.000
 4729.00    0.92957   1.13091    0.000
 4730.00    0.93538   1.12992    0.000
 4731.00    1.00188   1.10911    0.000
 4732.00    1.06703   1.08093    0.000
 4733.00    1.12994   1.06694    0.000
 4734.00    1.10391   1.06875    0.000
 4735.00    0.94785   1.07525    0.000
 4736.00    0.90755   1.08399    0.000
 4737.00    1.01607   1.09364    0.000
 4738.00    1.08414   1.10003    0.000
 4739.00    1.10638   1.10567    0.000
 4740.00    1.11325   1.10489    0.000
 4741.00    1.10474   1.09685    0.000
 4742.00    1.07300   1.09930    0.000
 4743.00    1.02078   1.11028    0.000
 4744.00    1.04348   1.11082    0.000
 4745.00    1.12436   1.10138    0.000
 4746.00    1.15004   1.09618    0.000
 4747.00    1.13806   1.10163    0.000
 4748.00    1.07458   1.10887    0.000
 4749.00    0.98028   1.10902    0.000
 4750.00    0.95984   1.11066    0.000
 4751.00    0.97795   1.11761    0.000
 4752.00    1.04396   1.12007    0.000
 4753.00    1.13166   1.11826    0.000
 4754.00    1.07949   1.11849    0.000
 4755.00    0.97287   1.11754    0.000
 4756.00    0.92014   1.11113    0.000
 4757.00    0.88527   1.10359    0.000
 4758.00    0.92670   1.09842    0.000
 4759.00    0.98934   1.09615    0.000
 4760.00    0.99643   1.09619    0.000
 4761.00    0.99081   1.09613    0.023
 4762.00    1.03595   1.09569    0.023
 4763.00    1.09038   1.09759    0.022
 4764.00    1.12337   1.10225    0.022
 4765.00    1.15334   1.10148    0.023
 4766.00    1.02407   1.08935    0.023
 4767.00    0.87864   1.07627    0.023
 4768.00    0.91474   1.07029    0.023
 4769.00    0.96258   1.06519    0.022
 4770.00    1.10281   1.05977    0.023
 4771.00    1.24539   1.06166    0.024
 4772.00    1.16769   1.07199    0.024
 4773.00    1.09369   1.08586    0.023
 4774.00    1.12688   1.09686    0.023
 4775.00    1.15819   1.09530    0.024
 4776.00    1.16247   1.08450    0.023
 4777.00    1.16648   1.08127    0.023
 4778.00    1.16800   1.09155    0.023
 4779.00    1.17483   1.10307    0.023
 4780.00    1.21808   1.10454    0.023
 4781.00    1.25975   1.10259    0.023
 4782.00    1.29313   1.10281    0.022
 4783.00    1.29155   1.09891    0.022
 4784.00    1.14109   1.09200    0.022
 4785.00    1.02494   1.08844    0.022
 4786.00    1.02941   1.08491    0.022
 4787.00    1.03473   1.07624    0.023
 4788.00    1.04261   1.07099    0.022
 4789.00    1.05970   1.07527    0.022
 4790.00    1.09997   1.07671    0.023
 4791.00    1.14495   1.07265    0.023
 4792.00    1.20009   1.07332    0.023
 4793.00    1.18172   1.07466    0.023
 4794.00    1.02495   1.07432    0.023
 4795.00    0.95478   1.07807    0.023
 4796.00    1.02692   1.08431    0.022
 4797.00    1.09783   1.09401    0.022
 4798.00    1.16698   1.10937    0.023
 4799.00    1.18088   1.12196    0.023
 4800.00    1.12475   1.12265    0.023
 4801.00    1.07524   1.11373    0.023
 4802.00    1.03312   1.10149    0.024
 4803.00    1.09468   1.08892    0.024
 4804.00    1.25839   1.08179    0.023
 4805.00    1.27651   1.08701    0.023
 4806.00    1.16815   1.09996    0.023
 4807.00    1.07288   1.10865    0.023
 4808.00    0.98762   1.10726    0.023
 4809.00    1.04398   1.09770    0.023
 4810.00    1.19560   1.08896    0.023
 4811.00    1.21503   1.08525    0.023
 4812.00    1.15656   1.08213    0.023
 4813.00    1.06414   1.08210    0.023
 4814.00    0.95429   1.08814    0.023
 4815.00    0.97002   1.09382    0.023
 4816.00    1.04168   1.09279    0.024
 4817.00    1.01802   1.08773    0.024
 4818.00    0.95789   1.08532    0.024
 4819.00    0.97897   1.08653    0.024
 4820.00    1.02646   1.09037    0.023
 4821.00    1.04195   1.09884    0.023
 4822.00    1.04873   1.10735    0.024
 4823.00    1.19510   1.10751    0.023
 4824.00    1.37267   1.10312    0.023
 4825.00    1.15535   1.10292    0.023
 4826.00    0.86767   1.10211    0.023
 4827.00    0.84266   1.08738    0.024
 4828.00    0.85345   1.06813    0.024
 4829.00    0.91413   1.06867    0.024
 4830.00    0.97967   1.08488    0.024
 4831.00    0.97156   1.09330    0.024
 4832.00    0.95898   1.08514    0.024
 4833.00    1.11154   1.07307    0.024
 4834.00    1.26729   1.07331    0.024
 4835.00    1.20806   1.07795    0.024
 4836.00    1.15035   1.07060    0.024
 4837.00    1.13247   1.06441    0.024
 4838.00    1.11180   1.07443    0.024
 4839.00    1.05299   1.08627    0.024
 4840.00    0.99772   1.08752    0.023
 4841.00    0.97446   1.08460    0.023
 4842.00    0.95375   1.08176    0.023
 4843.00    0.94984   1.07316    0.024
 4844.00    0.96364   1.06163    0.024
 4845.00    1.06877   1.05819    0.024
 4846.00    1.13017   1.06093    0.024
 4847.00    1.00950   1.05714    0.024
 4848.00    0.91466   1.05084    0.000
 4849.00    0.90877   1.05679    0.000
 4850.00    0.91490   1.06787    0.000
 4851.00    0.95588   1.06603    0.000
 4852.00    0.99515   1.04900    0.000
 4853.00    1.03019   1.03193    0.000
 4854.00    1.02133   1.02956    0.000
 4855.00    0.91882   1.03291    0.000
 4856.00    0.85774   1.02676    0.000
 4857.00    0.87339   1.01492    0.000
 4858.00    0.87420   0.99606    0.000
 4859.00    0.85098   0.96189    0.000
 4860.00    0.82950   0.92813    0.000
 4861.00    0.81049   0.91248    0.000
 4862.00    0.81413   0.89817    0.000
 4863.00    0.84605   0.85874    0.000
 4864.00    0.90738   0.78546    0.000
 4865.00    1.00111   0.69919    0.000
 4866.00    0.98900   0.66396    0.000
 4867.00    0.87412   0.71381    0.000
 4868.00    0.88172   0.79375    0.000
 4869.00    0.99423   0.85062    0.000
 4870.00    1.05242   0.89361    0.000
 4871.00    1.06965   0.93010    0.000
 4872.00    0.99095   0.95455    0.000
 4873.00    0.84867   0.97277    0.000
 4874.00    0.74787   0.98408    0.000
 4875.00    0.67116   0.97637    0.024
 4876.00    0.73873   0.96379    0.024
 4877.00    0.87927   0.97565    0.024
 4878.00    0.95829   1.00334    0.024
 4879.00    1.01036   1.01958    0.024
 4880.00    0.97137   1.02662    0.024
 4881.00    0.89816   1.03814    0.024
 4882.00    0.88397   1.05109    0.024
 4883.00    0.88861   1.06337    0.024
 4884.00    0.87764   1.07341    0.023
 4885.00    0.86251   1.06711    0.023
 4886.00    0.81123   1.05246    0.023
 4887.00    0.75206   1.05264    0.024
 4888.00    0.84767   1.06013    0.024
 4889.00    0.97010   1.05515    0.024
 4890.00    0.92167   1.04186    0.024
 4891.00    0.85073   1.03789    0.024
 4892.00    0.84718   1.04623    0.024
 4893.00    0.84989   1.05315    0.024
 4894.00    0.99242   1.04529    0.024
 4895.00    1.14289   1.02494    0.024
 4896.00    1.01096   1.01966    0.023
 4897.00    0.87569   1.04642    0.023
 4898.00    1.07782   1.08134    0.023
 4899.00    1.26805   1.10587    0.024
 4900.00    1.17570   1.12048    0.024
 4901.00    1.09453   1.12469    0.023
 4902.00    1.15805   1.12254    0.023
 4903.00    1.20388   1.11269    0.023
 4904.00    1.09594   1.09457    0.023
 4905.00    1.00247   1.08494    0.023
 4906.00    1.00218   1.08899    0.023
 4907.00    0.99704   1.08781    0.023
 4908.00    0.96754   1.08065    0.023
 4909.00    0.94467   1.08537    0.023
 4910.00    0.94877   1.10104    0.023
 4911.00    0.98433   1.10876    0.023
 4912.00    1.12602   1.10144    0.023
 4913.00    1.21421   1.08722    0.023
 4914.00    1.15008   1.07296    0.023
 4915.00    1.08446   1.06640    0.023
 4916.00    1.01524   1.07328    0.023
 4917.00    0.98487   1.08482    0.023
 4918.00    1.03607   1.09249    0.023
 4919.00    1.05867   1.10021    0.023
 4920.00    1.02909   1.10822    0.023
 4921.00    0.98102   1.10469    0.022
 4922.00    0.90347   1.08166    0.022
 4923.00    0.87569   1.04362    0.022
 4924.00    0.91760   1.00181    0.022
 4925.00    0.94880   0.96216    0.022
 4926.00    0.96682   0.94231    0.023
 4927.00    1.04358   0.96502    0.023
 4928.00    1.18409   1.00377    0.023
 4929.00    1.20113   1.02862    0.022
 4930.00    1.09993   1.04931    0.022
 4931.00    1.08949   1.08048    0.022
 4932.00    1.15571   1.10187    0.022
 4933.00    1.11413   1.11366    0.022
 4934.00    0.99242   1.12269    0.022
 4935.00    0.94530   1.12421    0.022
 4936.00    0.94688   1.11804    0.022
 4937.00    0.94524   1.09925    0.022
 4938.00    0.94176   1.07414    0.022
 4939.00    0.95835   1.07046    0.022
 4940.00    0.98492   1.08633    0.000
 4941.00    1.03986   1.08794    0.000
 4942.00    1.10700   1.06581    0.000
 4943.00    1.08865   1.04249    0.000
 4944.00    1.03874   1.04131    0.000
 4945.00    1.07699   1.06143    0.000
 4946.00    1.14282   1.08054    0.000
 4947.00    1.15386   1.08737    0.000
 4948.00    1.15060   1.09688    0.000
 4949.00    1.10119   1.10565    0.000
 4950.00    1.04196   1.10406    0.000
 4951.00    1.07185   1.10214    0.000
 4952.00    1.11675   1.10833    0.000
 4953.00    0.96360   1.11480    0.000
 4954.00    0.78525   1.11918    0.000
 4955.00    0.80119   1.12415    0.000
 4956.00    0.83437   1.12571    0.000
 4957.00    0.91880   1.11767    0.000
 4958.00    1.00593   1.10673    0.000
 4959.00    1.07421   1.09833    0.000
 4960.00    1.14089   1.08386    0.000
 4961.00    1.11051   1.05142    0.000
 4962.00    1.08267   1.01566    0.000
 4963.00    1.11004   1.01962    0.000
 4964.00    1.13068   1.05989    0.000
 4965.00    1.06865   1.08946    0.000
 4966.00    1.00769   1.09435    0.000
 4967.00    0.95572   1.09280    0.000
 4968.00    0.91668   1.09157    0.000
 4969.00    0.95839   1.08011    0.000
 4970.00    0.99414   1.06235    0.000
 4971.00    1.00073   1.05505    0.000
 4972.00    1.02614   1.05737    0.000
 4973.00    1.12646   1.06137    0.000
 4974.00    1.17788   1.06763    0.000
 4975.00    1.06751   1.07450    0.000
 4976.00    1.00352   1.08340    0.000
 4977.00    1.06914   1.09263    0.000
 4978.00    1.14321   1.09840    0.000
 4979.00    1.23749   1.10156    0.000
 4980.00    1.22275   1.09920    0.000
 4981.00    0.98282   1.09262    0.000
 4982.00    0.86103   1.08272    0.000
 4983.00    0.95148   1.06985    0.000
 4984.00    1.00775   1.06305    0.000
 4985.00    1.01031   1.05748    0.000
 4986.00    0.95685   1.03817    0.000
 4987.00    0.82611   1.01373    0.000
 4988.00    0.81808   1.00807    0.000
 4989.00    0.95901   1.02143    0.000
 4990.00    1.04412   1.03753    0.000
 4991.00    1.06948   1.05344    0.000
 4992.00    1.06714   1.06892    0.000
 4993.00    1.03865   1.07423    0.000
 4994.00    1.03518   1.06859    0.000
 4995.00    1.05253   1.05886    0.000
 4996.00    1.01343   1.05594    0.000
 4997.00    0.93296   1.06324    0.000
 4998.00    0.97401   1.06396    0.000
 4999.00    1.09327   1.06135    0.000
 5000.00    1.04109   1.06832    0.000
 5001.00    0.89240   1.07520    0.000
 5002.00    0.86610   1.07389    0.000
 5003.00    0.89977   1.06445    0.000
 5004.00    0.97654   1.04381    0.000
 5005.00    1.07155   1.02219    0.000
 5006.00    1.04961   1.01489    0.000
 5007.00    0.98526   1.02270    0.000
 5008.00    0.98306   1.03424    0.000
 5009.00    0.99994   1.02818    0.000
 5010.00    1.00651   1.01037    0.000
 5011.00    1.01045   1.00237    0.000
 5012.00    1.11137   1.01814    0.000
 5013.00    1.23244   1.04192    0.000
 5014.00    1.08328   1.05105    0.000
 5015.00    0.88988   1.04667    0.000
 5016.00    0.85686   1.03650    0.000
 5017.00    0.84352   1.01859    0.000
 5018.00    0.87441   0.99606    0.000
 5019.00    0.90903   0.97105    0.000
 5020.00    0.95051   0.95747    0.000
 5021.00    0.99233   0.97615    0.000
 5022.00    0.98075   1.00345    0.000
 5023.00    0.96759   1.01879    0.000
 5024.00    0.90819   1.02860    0.000
 5025.00    0.84477   1.03782    0.000
 5026.00    0.70065   1.03369    0.000
 5027.00    0.58449   1.02504    0.000
 5028.00    0.79503   1.03172    0.000
 5029.00    0.99176   1.04635    0.022
 5030.00    1.07702   1.05165    0.022
 5031.00    1.14036   1.04648    0.023
 5032.00    1.07086   1.03516    0.022
 5033.00    1.01666   1.03597    0.022
 5034.00    1.03565   1.05110    0.022
 5035.00    1.03645   1.06118    0.021
 5036.00    0.96640   1.06746    0.021
 5037.00    0.94003   1.07799    0.021
 5038.00    1.05532   1.08662    0.021
 5039.00    1.13034   1.07707    0.021
 5040.00    1.09479   1.04880    0.021
 5041.00    0.99146   1.03040    0.021
 5042.00    0.72875   1.03616    0.021
 5043.00    0.59286   1.03541    0.021
 5044.00    0.71473   1.01013    0.021
 5045.00    0.84872   0.97246    0.021
 5046.00    1.00412   0.95937    0.021
 5047.00    1.10025   0.99203    0.021
 5048.00    1.10461   1.03658    0.021
 5049.00    1.11459   1.05926    0.022
 5050.00    1.13221   1.07388    0.022
 5051.00    1.06763   1.07537    0.022
 5052.00    0.90466   1.05252    0.022
 5053.00    0.86265   1.02709    0.021
 5054.00    0.94830   1.02100    0.021
 5055.00    0.96793   1.02682    0.021
 5056.00    0.92613   1.02899    0.021
 5057.00    0.95297   1.03606    0.021
 5058.00    1.03616   1.05015    0.022
 5059.00    1.11129   1.06025    0.022
 5060.00    1.18060   1.05479    0.022
 5061.00    1.12323   1.05008    0.022
 5062.00    0.98553   1.05969    0.021
 5063.00    1.03031   1.07534    0.021
 5064.00    1.17624   1.07802    0.022
 5065.00    1.14644   1.08204    0.022
 5066.00    1.03192   1.08986    0.022
 5067.00    0.96320   1.08754    0.022
 5068.00    0.91355   1.06648    0.022
 5069.00    0.95187   1.03478    0.022
 5070.00    1.02151   1.02072    0.023
 5071.00    1.06325   1.03206    0.023
 5072.00    1.09659   1.03919    0.023
 5073.00    1.00686   1.03564    0.022
 5074.00    0.88640   1.03977    0.022
 5075.00    0.89936   1.04983    0.023
 5076.00    0.93936   1.04613    0.023
 5077.00    0.95598   1.03482    0.023
 5078.00    0.96889   1.03880    0.023
 5079.00    0.97923   1.04911    0.023
 5080.00    0.98926   1.04781    0.023
 5081.00    1.01390   1.04414    0.023
 5082.00    1.03973   1.04608    0.023
 5083.00    1.03028   1.03576    0.022
 5084.00    1.01924   1.00500    0.022
 5085.00    1.00544   0.99014    0.022
 5086.00    0.99002   1.00183    0.022
 5087.00    0.89610   1.01318    0.022
 5088.00    0.81193   1.01592    0.022
 5089.00    0.90939   1.02420    0.021
 5090.00    1.00671   1.03672    0.021
 5091.00    1.10260   1.04244    0.022
 5092.00    1.18052   1.04352    0.022
 5093.00    1.11834   1.04731    0.023
 5094.00    1.06733   1.05248    0.023
 5095.00    1.08203   1.05206    0.023
 5096.00    1.11203   1.05175    0.023
 5097.00    1.21348   1.05954    0.023
 5098.00    1.25306   1.07014    0.022
 5099.00    1.05680   1.06862    0.021
 5100.00    0.91008   1.05492    0.021
 5101.00    0.92095   1.04084    0.021
 5102.00    0.93941   1.02913    0.021
 5103.00    0.97835   1.01457    0.021
 5104.00    0.99364   1.00458    0.021
 5105.00    0.95422   1.01520    0.022
 5106.00    0.92102   1.03409    0.022
 5107.00    0.90024   1.04130    0.022
 5108.00    0.87948   1.03707    0.022
 5109.00    0.85874   1.03101    0.021
 5110.00    0.85936   1.02904    0.021
 5111.00    0.89256   1.02451    0.021
 5112.00    0.92734   1.01516    0.021
 5113.00    0.96424   1.01247    0.022
 5114.00    1.01510   1.01386    0.022
 5115.00    1.08242   1.01295    0.022
 5116.00    1.09235   1.02180    0.022
 5117.00    1.04257   1.03180    0.022
 5118.00    1.00652   1.03326    0.022
 5119.00    0.98308   1.03923    0.022
 5120.00    0.98133   1.04936    0.022
 5121.00    0.99715   1.05817    0.021
 5122.00    1.04947   1.06721    0.021
 5123.00    1.12779   1.06874    0.021
 5124.00    1.12778   1.05992    0.021
 5125.00    1.07885   1.04701    0.021
 5126.00    0.99686   1.03176    0.021
 5127.00    0.89683   1.01599    0.021
 5128.00    0.92299   0.99824    0.021
 5129.00    1.00900   0.99094    0.022
 5130.00    0.95652   0.99888    0.022
 5131.00    0.84737   1.00183    0.021
 5132.00    0.81797   0.99643    0.021
 5133.00    0.81646   0.99497    0.022
 5134.00    0.79878   0.99903    0.022
 5135.00    0.77634   1.00596    0.022
 5136.00    0.79039   1.01865    0.021
 5137.00    0.81334   1.02454    0.021
 5138.00    0.90086   1.02466    0.021
 5139.00    1.00114   1.03370    0.022
 5140.00    0.99942   1.04819    0.022
 5141.00    0.98198   1.04452    0.022
 5142.00    0.93100   1.02935    0.022
 5143.00    0.87619   1.01536    0.021
 5144.00    0.91130   1.00658    0.021
 5145.00    0.95326   1.01767    0.021
 5146.00    0.93132   1.02634    0.021
 5147.00    0.90674   1.00790    0.022
 5148.00    0.92647   0.99817    0.021
 5149.00    0.94602   1.00710    0.021
 5150.00    0.94253   1.00701    0.021
 5151.00    0.93562   0.99969    0.022
 5152.00    0.86957   1.00019    0.022
 5153.00    0.80684   1.00581    0.022
 5154.00    0.77944   1.01426    0.022
 5155.00    0.75773   1.00881    0.022
 5156.00    0.77887   0.99623    0.023
 5157.00    0.81170   0.99031    0.023
 5158.00    0.91144   0.99012    0.023
 5159.00    0.99089   0.99322    0.022
 5160.00    0.97793   1.00400    0.022
 5161.00    0.98149   1.02399    0.022
 5162.00    1.04677   1.04392    0.022
 5163.00    1.08838   1.05518    0.023
 5164.00    1.05616   1.05114    0.022
 5165.00    0.97795   1.05146    0.022
 5166.00    0.77795   1.05307    0.022
 5167.00    0.66976   1.04338    0.022
 5168.00    0.77037   1.03377    0.022
 5169.00    0.80597   1.02252    0.022
 5170.00    0.71358   0.98958    0.022
 5171.00    0.67263   0.94016    0.022
 5172.00    0.71996   0.89834    0.022
 5173.00    0.73919   0.89036    0.022
 5174.00    0.71621   0.91988    0.022
 5175.00    0.70108   0.94895    0.022
 5176.00    0.69631   0.93394    0.022
 5177.00    0.74406   0.89153    0.022
 5178.00    0.85291   0.88667    0.022
 5179.00    0.91171   0.93268    0.022
 5180.00    0.91916   0.97776    0.022
 5181.00    0.90194   0.99489    0.021
 5182.00    0.86239   1.00281    0.021
 5183.00    0.83949   1.00923    0.020
 5184.00    0.82987   1.00547    0.020
 5185.00    0.84218   0.99421    0.020
 5186.00    0.86988   0.97429    0.020
 5187.00    0.85376   0.93502    0.021
 5188.00    0.81068   0.88893    0.020
 5189.00    0.73081   0.88663    0.020
 5190.00    0.63116   0.93905    0.000
 5191.00    0.68004   0.99415    0.000
 5192.00    0.79826   1.01942    0.000
 5193.00    0.92498   1.02294    0.000
 5194.00    1.05513   1.02917    0.000
 5195.00    1.01932   1.03440    0.000
 5196.00    0.92656   1.00833    0.000
 5197.00    0.84158   0.97371    0.000
 5198.00    0.75885   0.97163    0.000
 5199.00    0.79303   0.98981    0.000
 5200.00    0.85513   0.99818    0.000
 5201.00    0.91908   1.00867    0.000
 5202.00    0.98338   1.02429    0.000
 5203.00    1.06958   1.03493    0.000
 5204.00    1.15905   1.04287    0.000
 5205.00    0.96509   1.04096    0.000
 5206.00    0.74009   1.03277    0.000
 5207.00    0.75626   1.02496    0.000
 5208.00    0.78985   1.01659    0.000
 5209.00    0.81110   0.98894    0.000
 5210.00    0.83189   0.95377    0.000
 5211.00    0.84076   0.94012    0.021
 5212.00    0.85147   0.94213    0.021
 5213.00    0.93073   0.93610    0.021
 5214.00    1.00083   0.93819    0.021
 5215.00    0.92244   0.95877    0.021
 5216.00    0.85349   0.98674    0.021
 5217.00    0.88056   1.01772    0.022
 5218.00    0.91464   1.04229    0.022
 5219.00    0.99975   1.05023    0.022
 5220.00    1.07311   1.03619    0.022
 5221.00    1.08099   1.02098    0.022
 5222.00    1.08851   1.02605    0.022
 5223.00    1.09444   1.04434    0.022
 5224.00    1.06375   1.05911    0.022
 5225.00    0.89925   1.06634    0.022
 5226.00    0.76017   1.07284    0.022
 5227.00    0.69886   1.07023    0.022
 5228.00    0.68452   1.05071    0.023
 5229.00    0.79236   1.01984    0.023
 5230.00    0.88034   0.98808    0.023
 5231.00    0.92390   0.96065    0.022
 5232.00    0.95241   0.95648    0.022
 5233.00    0.95173   0.99269    0.022
 5234.00    0.93779   1.03680    0.022
 5235.00    0.90146   1.05664    0.022
 5236.00    0.88123   1.06316    0.022
 5237.00    0.88487   1.04924    0.022
 5238.00    0.91938   1.02225    0.022
 5239.00    0.99407   1.01370    0.022
 5240.00    1.06392   1.02802    0.022
 5241.00    1.12821   1.05452    0.022
 5242.00    1.12553   1.07515    0.022
 5243.00    1.05510   1.07852    0.021
 5244.00    1.05477   1.07188    0.021
 5245.00    1.11696   1.06751    0.021
 5246.00    1.18358   1.07041    0.021
 5247.00    1.25367   1.07062    0.021
 5248.00    1.13179   1.06955    0.021
 5249.00    0.87718   1.07928    0.021
 5250.00    0.90755   1.08182    0.021
 5251.00    1.11067   1.05012    0.022
 5252.00    1.14582   1.01403    0.021
 5253.00    1.09208   1.01588    0.021
 5254.00    1.02810   1.02688    0.021
 5255.00    0.95941   1.01479    0.020
 5256.00    0.97883   1.01043    0.021
 5257.00    1.03307   1.02723    0.021
 5258.00    0.99305   1.04168    0.021
 5259.00    0.92127   1.03625    0.021
 5260.00    0.97700   1.02551    0.021
 5261.00    1.06882   1.04113    0.021
 5262.00    0.98146   1.07193    0.021
 5263.00    0.85227   1.09006    0.021
 5264.00    0.90220   1.08828    0.021
 5265.00    0.98571   1.07227    0.022
 5266.00    0.99212   1.04896    0.021
 5267.00    0.98737   1.02040    0.021
 5268.00    0.79985   0.98881    0.021
 5269.00    0.59310   0.96495    0.021
 5270.00    0.64805   0.95121    0.022
 5271.00    0.72084   0.95373    0.022
 5272.00    0.77230   0.98132    0.022
 5273.00    0.82304   0.98616    0.022
 5274.00    0.72963   0.93967    0.022
 5275.00    0.64562   0.91452    0.021
 5276.00    0.86745   0.95508    0.022
 5277.00    1.07486   1.00440    0.022
 5278.00    1.06275   1.02298    0.022
 5279.00    1.03792   1.02574    0.022
 5280.00    0.88897   1.01885    0.022
 5281.00    0.77167   1.02368    0.021
 5282.00    0.87732   1.05631    0.021
 5283.00    0.96567   1.08344    0.022
 5284.00    0.96023   1.08515    0.022
 5285.00    0.96402   1.06988    0.022
 5286.00    1.00797   1.04946    0.022
 5287.00    1.04148   1.03294    0.022
 5288.00    1.03766   1.02039    0.022
 5289.00    1.02142   1.02259    0.022
 5290.00    0.96785   1.05407    0.022
 5291.00    0.96593   1.09043    0.022
 5292.00    1.09609   1.10160    0.022
 5293.00    1.17406   1.09262    0.022
 5294.00    1.13721   1.08741    0.022
 5295.00    1.09439   1.09323    0.022
 5296.00    1.04017   1.09741    0.022
 5297.00    1.04056   1.09166    0.022
 5298.00    1.13189   1.08262    0.022
 5299.00    1.16781   1.08216    0.022
 5300.00    1.12288   1.07624    0.022
 5301.00    1.08597   1.04771    0.022
 5302.00    1.05935   1.00682    0.022
 5303.00    1.01827   0.98981    0.022
 5304.00    0.96085   1.01156    0.022
 5305.00    1.01223   1.03621    0.022
 5306.00    1.17213   1.03764    0.022
 5307.00    1.16241   1.04051    0.022
 5308.00    1.00349   1.06032    0.021
 5309.00    0.97497   1.08688    0.021
 5310.00    1.04751   1.10180    0.021
 5311.00    1.07016   1.09654    0.021
 5312.00    1.05882   1.08305    0.021
 5313.00    1.06342   1.08160    0.021
 5314.00    1.07754   1.09351    0.021
 5315.00    1.13213   1.10098    0.021
 5316.00    1.20779   1.09816    0.020
 5317.00    1.16139   1.09234    0.020
 5318.00    1.05984   1.08590    0.020
 5319.00    1.03859   1.08388    0.020
 5320.00    1.04854   1.07995    0.020
 5321.00    1.07610   1.06921    0.020
 5322.00    1.10949   1.06477    0.021
 5323.00    1.07683   1.07105    0.020
 5324.00    1.02585   1.07432    0.020
 5325.00    1.03983   1.07020    0.020
 5326.00    1.06862   1.06934    0.020
 5327.00    1.04691   1.06737    0.021
 5328.00    1.01598   1.05519    0.021
 5329.00    0.98087   1.03751    0.021
 5330.00    0.94517   1.03829    0.021
 5331.00    0.92420   1.03916    0.021
 5332.00    0.90472   0.99894    0.021
 5333.00    0.92172   0.94167    0.021
 5334.00    0.94106   0.94163    0.021
 5335.00    0.96846   0.99260    0.021
 5336.00    0.99594   1.03615    0.021
 5337.00    0.95648   1.04790    0.021
 5338.00    0.92094   1.04995    0.021
 5339.00    0.99747   1.06536    0.021
 5340.00    1.06519   1.08074    0.021
 5341.00    1.00657   1.08034    0.021
 5342.00    0.95799   1.07406    0.021
 5343.00    1.00347   1.07117    0.022
 5344.00    1.04404   1.05480    0.022
 5345.00    1.05114   1.02290    0.021
 5346.00    1.06625   1.01156    0.021
 5347.00    1.12366   1.03464    0.022
 5348.00    1.14605   1.05704    0.022
 5349.00    1.01978   1.06380    0.022
 5350.00    0.91535   1.05149    0.021
 5351.00    0.88750   1.04176    0.021
 5352.00    0.87435   1.04762    0.021
 5353.00    0.90457   1.04525    0.021
 5354.00    0.95816   1.03259    0.022
 5355.00    1.07043   1.04021    0.022
 5356.00    1.14233   1.06524    0.022
 5357.00    1.12683   1.08456    0.022
 5358.00    1.11447   1.08899    0.022
 5359.00    1.10802   1.09718    0.022
 5360.00    1.11266   1.10916    0.021
 5361.00    1.13550   1.11288    0.021
 5362.00    1.14644   1.11358    0.021
 5363.00    1.14026   1.11539    0.021
 5364.00    1.14289   1.11528    0.021
 5365.00    1.15664   1.10869    0.021
 5366.00    1.10108   1.09220    0.021
 5367.00    0.96824   1.07573    0.021
 5368.00    0.93404   1.07325   -2.000
 5369.00    0.99684   1.07205   -2.000
 5370.00    1.01855   1.06501   -2.000
 5371.00    1.00463   1.06262   -2.000
 5372.00    0.96002   1.06433   -2.000
 5373.00    0.89196   1.06343   -2.000
 5374.00    0.91159   1.04813   -2.000
 5375.00    0.99011   1.01426   -2.000
 5376.00    1.00660   0.98626   -2.000
 5377.00    0.98662   0.99714   -2.000
 5378.00    0.96835   1.03961   -2.000
 5379.00    0.95095   1.07692   -2.000
 5380.00    0.99977   1.09224   -2.000
 5381.00    1.07800   1.08961   -2.000
 5382.00    1.09106   1.08296   -2.000
 5383.00    1.07925   1.08877    0.021
 5384.00    1.09594   1.09607    0.021
 5385.00    1.12187   1.09051    0.021
 5386.00    1.09152   1.08073    0.021
 5387.00    1.04587   1.07461    0.021
 5388.00    1.06683   1.06843    0.021
 5389.00    1.10262   1.06758    0.021
 5390.00    0.99535   1.07575    0.021
 5391.00    0.86268   1.08033    0.021
 5392.00    0.93318   1.08051    0.021
 5393.00    1.03124   1.07645    0.021
 5394.00    0.95326   1.06460    0.021
 5395.00    0.85828   1.04861    0.021
 5396.00    0.82410   1.04236    0.021
 5397.00    0.79359   1.04442    0.021
 5398.00    0.99164   1.04548    0.021
 5399.00    1.19456   1.04300    0.021
 5400.00    1.21606   1.03847    0.022
 5401.00    1.23288   1.01743    0.022
 5402.00    1.12935   0.99239    0.021
 5403.00    1.02539   1.00693    0.021
 5404.00    0.91556   1.04115    0.021
 5405.00    0.82338   1.05240    0.021
 5406.00    0.88992   1.05157    0.021
 5407.00    0.94942   1.05760    0.021
 5408.00    0.96244   1.05182    0.021
 5409.00    0.96169   1.02205    0.021
 5410.00    0.89007   0.98616    0.021
 5411.00    0.84570   0.97535    0.021
 5412.00    0.91442   0.99722    0.021
 5413.00    0.95695   1.01856    0.021
 5414.00    0.90947   1.01328    0.021
 5415.00    0.91209   1.00201    0.021
 5416.00    1.05966   1.01836    0.021
 5417.00    1.15489   1.04809    0.021
 5418.00    1.12087   1.06549    0.021
 5419.00    1.09021   1.06830    0.021
 5420.00    1.06667   1.06959    0.020
 5421.00    1.03367   1.08064    0.020
 5422.00    0.98316   1.09167    0.020
 5423.00    0.98370   1.09056    0.020
 5424.00    1.06672   1.08102    0.020
 5425.00    1.09420   1.06906    0.020
 5426.00    1.04297   1.06765    0.020
 5427.00    0.98668   1.07771    0.020
 5428.00    0.92410   1.07405    0.020
 5429.00    0.91138   1.05623    0.020
 5430.00    0.95348   1.05593    0.020
 5431.00    1.01613   1.07562    0.020
 5432.00    1.09870   1.09279    0.020
 5433.00    1.11456   1.07810    0.020
 5434.00    1.07338   1.02926    0.020
 5435.00    1.00587   1.00733    0.020
 5436.00    0.91853   1.02785    0.021
 5437.00    0.90318   1.03557    0.021
 5438.00    0.93546   1.02251    0.020
 5439.00    0.97875   1.01008    0.020
 5440.00    1.02842   1.00685    0.020
 5441.00    1.05365   1.01646    0.020
 5442.00    1.06654   1.03623    0.020
 5443.00    1.10754   1.06274    0.021
 5444.00    1.16083   1.08497    0.021
 5445.00    1.07850   1.09664    0.021
 5446.00    0.94531   1.10061    0.021
 5447.00    0.96018   1.10205    0.021
 5448.00    1.02216   1.10382    0.021
 5449.00    1.05608   1.09460    0.021
 5450.00    1.08253   1.06516    0.021
 5451.00    1.06261   1.01988    0.021
 5452.00    1.03261   0.99283    0.021
 5453.00    1.07372   1.00940    0.021
 5454.00    1.12710   1.04129    0.021
 5455.00    1.07084   1.06015    0.021
 5456.00    1.00019   1.06336    0.021
 5457.00    0.97493   1.05938    0.021
 5458.00    0.95387   1.04839    0.021
 5459.00    1.01173   1.02770    0.021
 5460.00    1.07403   0.99885    0.021
 5461.00    1.08413   0.99380    0.021
 5462.00    1.09274   1.02124    0.021
 5463.00    1.06756   1.05448    0.021
 5464.00    1.04381   1.06861    0.021
 5465.00    1.05365   1.06258    0.021
 5466.00    1.06555   1.05195    0.021
 5467.00    1.10380   1.04082    0.021
 5468.00    1.12940   1.02915    0.020
 5469.00    1.04545   1.03419    0.020
 5470.00    0.97524   1.04894    0.020
 5471.00    0.99305   1.05154    0.020
 5472.00    1.00232   1.05328    0.020
 5473.00    0.96877   1.06164    0.020
 5474.00    0.95386   1.06164    0.019
 5475.00    1.01464   1.04959    0.020
 5476.00    1.05305   1.04459    0.020
 5477.00    1.01618   1.04426    0.020
 5478.00    0.97991   1.03365   -2.000
 5479.00    0.94532   1.02650   -2.000
 5480.00    0.94042   1.02648   -2.000
 5481.00    1.00758   1.00813   -2.000
 5482.00    1.03194   0.99170   -2.000
 5483.00    0.96665   1.01230   -2.000
 5484.00    0.90656   1.04274   -2.000
 5485.00    0.85596   1.04506   -2.000
 5486.00    0.61290   1.02296   -2.000
 5487.00    0.06350   1.01416   -2.000
 5488.00   -0.15476   1.02755   -2.000
 5489.00    0.08959   1.04911   -2.000
 5490.00    0.22831   1.06666   -2.000
 5491.00    0.23718   1.06637   -2.000
 5492.00    0.88099   1.04808   -2.000
 5493.00    2.21289   1.03696   -2.000
 5494.00    2.43171   1.04219   -2.000
 5495.00    1.58654   1.04559   -2.000
 5496.00    1.09696   1.05090   -2.000
 5497.00    0.90710   1.05969   -2.000
 5498.00    0.94160   1.05631   -2.000
 5499.00    1.14260   1.05054   -2.000
 5500.00    1.17095   1.05440   -2.000
 5501.00    1.08674   1.05237   -2.000
 5502.00    1.06467   1.03927    0.021
 5503.00    1.07807   1.03934    0.021
 5504.00    1.06173   1.05874    0.021
 5505.00    1.03062   1.06409    0.021
 5506.00    1.07259   1.04687    0.021
 5507.00    1.14596   1.03349    0.020
 5508.00    1.00145   1.03556    0.020
 5509.00    0.77669   1.04215    0.021
 5510.00    0.88593   1.03825    0.020
 5511.00    1.09940   1.02090    0.020
 5512.00    1.10996   1.01551    0.020
 5513.00    1.06772   1.03396    0.020
 5514.00    0.96531   1.04758    0.020
 5515.00    0.85012   1.04779    0.020
 5516.00    0.86516   1.03797    0.020
 5517.00    0.90205   1.01941    0.020
 5518.00    0.90303   1.00662    0.020
 5519.00    0.89946   1.00552    0.020
 5520.00    1.01778   1.01197    0.020
 5521.00    1.14685   1.02323    0.020
 5522.00    1.22335   1.03718    0.020
 5523.00    1.29709   1.05773    0.020
 5524.00    1.24413   1.07362    0.020
 5525.00    1.18876   1.07443    0.020
 5526.00    1.13041   1.06961    0.020
 5527.00    1.07316   1.06790    0.020
 5528.00    1.03970   1.06864    0.020
 5529.00    0.99760   1.06846    0.020
 5530.00    0.85022   1.06255    0.020
 5531.00    0.73598   1.05163    0.020
 5532.00    0.89795   1.03425    0.020
 5533.00    1.05560   1.01655    0.020
 5534.00    1.18634   1.01959    0.020
 5535.00    1.28050   1.04126    0.020
 5536.00    1.19589   1.05751    0.020
 5537.00    1.10878   1.05857    0.020
 5538.00    1.01172   1.05393    0.020
 5539.00    0.96300   1.04829    0.020
 5540.00    1.07384   1.04203    0.021
 5541.00    1.13653   1.04387    0.021
 5542.00    1.06492   1.05021    0.021
 5543.00    1.01928   1.05181    0.021
 5544.00    1.03563   1.05766    0.021
 5545.00    1.06927   1.06999    0.021
 5546.00    1.13856   1.07813    0.021
 5547.00    1.15747   1.07334    0.020
 5548.00    1.08606   1.06073    0.020
 5549.00    1.03602   1.05444    0.020
 5550.00    1.01947   1.05434    0.021
 5551.00    1.04283   1.05236    0.021
 5552.00    1.12113   1.05683    0.021
 5553.00    1.16956   1.07048    0.021
 5554.00    1.18181   1.08056    0.021
 5555.00    1.20098   1.08290    0.021
 5556.00    1.22757   1.08253    0.021
 5557.00    1.23572   1.07863    0.020
 5558.00    1.22649   1.06934    0.020
 5559.00    1.19759   1.06050    0.020
 5560.00    1.15235   1.05899    0.020
 5561.00    1.11245   1.06113    0.020
 5562.00    1.07645   1.05841    0.020
 5563.00    1.09918   1.05556    0.020
 5564.00    1.15963   1.05918    0.020
 5565.00    1.12877   1.06200    0.020
 5566.00    1.04662   1.05996    0.019
 5567.00    1.01458   1.05293    0.019
 5568.00    1.00704   1.04600    0.019
 5569.00    1.02949   1.04531    0.019
 5570.00    1.06460   1.04276    0.019
 5571.00    1.03367   1.03515    0.019
 5572.00    0.97885   1.03372    0.019
 5573.00    0.93116   1.03735    0.019
 5574.00    0.88566   1.03613    0.019
 5575.00    0.95568   1.03799    0.020
 5576.00    1.05513   1.04888    0.020
 5577.00    1.09556   1.04673    0.020
 5578.00    1.12376   1.03500    0.020
 5579.00    1.06993   1.04162    0.020
 5580.00    1.00271   1.05295    0.020
 5581.00    1.08262   1.05284    0.021
 5582.00    1.18050   1.05426    0.021
 5583.00    1.13427   1.05538    0.021
 5584.00    1.07594   1.05391    0.021
 5585.00    1.05278   1.05881    0.021
 5586.00    1.03132   1.06061    0.021
 5587.00    1.00048   1.05434    0.021
 5588.00    0.97098   1.05191    0.020
 5589.00    1.02895   1.05009    0.021
 5590.00    1.08156   1.04117    0.021
 5591.00    1.02759   1.02364    0.021
 5592.00    0.97925   1.00090    0.021
 5593.00    0.99641   0.98528    0.021
 5594.00    1.01820   0.98231    0.021
 5595.00    1.07720   0.99247    0.021
 5596.00    1.12303   1.00800    0.021
 5597.00    1.08929   1.01680    0.021
 5598.00    1.06303   1.01929    0.021
 5599.00    1.07235   1.02010    0.021
 5600.00    1.05782   1.02959    0.021
 5601.00    0.95061   1.04962    0.020
 5602.00    0.88245   1.05357    0.020
 5603.00    0.94063   1.03451    0.020
 5604.00    0.97650   1.01924    0.020
 5605.00    0.95127   1.01544    0.020
 5606.00    0.94329   1.01037    0.020
 5607.00    0.97580   1.00383    0.020
 5608.00    1.02487   1.00395    0.020
 5609.00    1.10753   1.01965    0.019
 5610.00    1.17699   1.04171    0.019
 5611.00    1.22314   1.06030    0.019
 5612.00    1.24871   1.07112    0.019
 5613.00    1.24247   1.07407    0.019
 5614.00    1.21119   1.07119    0.019
 5615.00    1.14592   1.06767    0.019
 5616.00    1.08173   1.06955    0.019
 5617.00    1.01883   1.07573    0.019
 5618.00    1.01801   1.07729    0.019
 5619.00    1.08259   1.05732    0.019
 5620.00    1.08306   1.01754    0.020
 5621.00    1.02394   0.99663    0.019
 5622.00    0.99291   1.01013    0.019
 5623.00    0.98488   1.02755    0.019
 5624.00    1.02305   1.03033    0.020
 5625.00    1.09454   1.02935    0.020
 5626.00    1.11471   1.03761    0.020
 5627.00    1.10240   1.04933    0.020
 5628.00    1.05455   1.04620    0.020
 5629.00    0.98703   1.02323    0.020
 5630.00    1.00891   1.00433    0.020
 5631.00    1.07381   1.01073    0.019
 5632.00    1.16225   1.02731    0.020
 5633.00    1.26046   1.03785    0.020
 5634.00    1.23805   1.04700    0.020
 5635.00    1.17279   1.05563    0.020
 5636.00    1.08872   1.06046    0.020
 5637.00    0.99901   1.06138    0.020
 5638.00    0.97781   1.05991    0.019
 5639.00    0.97369   1.05693    0.019
 5640.00    1.01053   1.05057    0.019
 5641.00    1.05565   1.04062    0.020
 5642.00    1.03024   1.03170    0.019
 5643.00    0.99367   1.03012    0.019
 5644.00    0.99306   1.03176    0.019
 5645.00    0.99668   1.02888    0.019
 5646.00    0.95399   1.02120    0.018
 5647.00    0.90761   1.02277    0.018
 5648.00    0.97964   1.03074    0.018
 5649.00    1.05694   1.03477    0.018
 5650.00    1.04037   1.03614    0.018
 5651.00    1.02244   1.03706    0.019
 5652.00    0.99004   1.03815    0.019
 5653.00    0.95767   1.03909    0.019
 5654.00    0.92615   1.03896    0.019
 5655.00    0.90220   1.04100    0.018
 5656.00    0.96207   1.04841    0.018
 5657.00    1.01164   1.05911    0.018
 5658.00    0.98120   1.06425    0.018
 5659.00    0.95433   1.05709    0.019
 5660.00    0.94847   1.04682    0.019
 5661.00    0.94633   1.04625    0.019
 5662.00    0.96155   1.03804    0.019
 5663.00    0.98195   1.00799    0.019
 5664.00    1.02202   0.98963    0.019
 5665.00    1.04161   1.00597    0.018
 5666.00    0.99619   1.02227    0.019
 5667.00    0.96719   1.01670    0.020
 5668.00    0.98237   1.01151    0.020
 5669.00    1.01074   1.02289    0.020
 5670.00    1.06952   1.03775    0.020
 5671.00    1.09480   1.04141    0.020
 5672.00    1.05319   1.03390    0.020
 5673.00    1.02614   1.02640    0.020
 5674.00    1.02443   1.02869    0.020
 5675.00    1.01400   1.03362    0.020
 5676.00    0.99031   1.03602    0.020
 5677.00    1.00954   1.04308    0.020
 5678.00    1.08617   1.05711    0.020
 5679.00    1.11534   1.06506    0.020
 5680.00    1.08860   1.06035    0.020
 5681.00    1.04453   1.05745    0.019
 5682.00    0.98244   1.06234    0.019
 5683.00    0.97941   1.06214    0.019
 5684.00    1.03049   1.05217    0.019
 5685.00    1.04503   1.04621    0.018
 5686.00    1.03008   1.04607    0.018
 5687.00    1.03355   1.03981    0.018
 5688.00    1.05011   1.03053    0.018
 5689.00    1.07016   1.03408    0.018
 5690.00    1.09239   1.04278    0.018
 5691.00    1.08202   1.04101    0.018
 5692.00    1.05389   1.02953    0.018
 5693.00    1.00827   1.02221    0.018
 5694.00    0.95437   1.02563    0.018
 5695.00    1.00168   1.03782    0.018
 5696.00    1.09034   1.05083    0.019
 5697.00    1.08915   1.06190    0.019
 5698.00    1.05663   1.06847    0.019
 5699.00    1.04839   1.06653    0.019
 5700.00    1.04731   1.05744    0.019
 5701.00    1.08919   1.05019    0.019
 5702.00    1.14154   1.04623    0.019
 5703.00    1.13279   1.03953    0.019
 5704.00    1.11200   1.03397    0.019
 5705.00    1.09015   1.03065    0.019
 5706.00    1.06814   1.02248    0.019
 5707.00    1.05669   1.01398    0.019
 5708.00    1.04644   1.01606    0.019
 5709.00    0.98309   1.02801    0.019
 5710.00    0.91572   1.03543    0.019
 5711.00    0.93481   1.02860    0.019
 5712.00    0.95742   1.01489    0.019
 5713.00    0.95187   1.00113    0.019
 5714.00    0.94736   0.98999    0.018
 5715.00    0.99514   0.99065    0.018
 5716.00    1.04388   0.99631    0.018
 5717.00    1.10895   0.99819    0.018
 5718.00    1.17227   1.01197    0.018
 5719.00    1.21701   1.03383    0.019
 5720.00    1.24998   1.04647    0.019
 5721.00    1.19476   1.05134    0.019
 5722.00    1.14039   1.05262    0.018
 5723.00    1.09089   1.05231    0.018
 5724.00    1.05328   1.05553    0.018
 5725.00    1.06968   1.06091    0.018
 5726.00    1.09081   1.06485    0.018
 5727.00    1.12952   1.06943    0.018
 5728.00    1.15149   1.07333    0.018
 5729.00    1.12134   1.07337    0.018
 5730.00    1.11713   1.07127    0.017
 5731.00    1.18144   1.06169    0.017
 5732.00    1.21087   1.04481    0.018
 5733.00    1.16113   1.03873    0.018
 5734.00    1.11383   1.05060    0.018
 5735.00    1.07133   1.05900    0.018
 5736.00    1.07164   1.05019    0.018
 5737.00    1.14531   1.04166    0.018
 5738.00    1.17561   1.04866    0.018
 5739.00    1.14086   1.06074    0.019
 5740.00    1.13210   1.06725    0.000
 5741.00    1.15761   1.06666    0.000
 5742.00    1.14777   1.06199    0.000
 5743.00    1.09687   1.05695    0.000
 5744.00    1.07728   1.05160    0.000
 5745.00    1.08974   1.04888    0.000
 5746.00    1.08301   1.05120    0.000
 5747.00    1.05894   1.05454    0.000
 5748.00    1.01417   1.05224    0.000
 5749.00    0.95291   1.05389    0.000
 5750.00    0.96841   1.06529    0.000
 5751.00    1.03767   1.07429    0.000
 5752.00    1.05184   1.06728    0.000
 5753.00    1.03218   1.04944    0.000
 5754.00    1.03931   1.04426    0.000
 5755.00    1.06082   1.05738    0.000
 5756.00    1.06855   1.06807    0.000
 5757.00    1.06985   1.06144    0.000
 5758.00    1.07800   1.04165    0.000
 5759.00    1.08889   1.02576    0.000
 5760.00    1.09603   1.03004    0.000
 5761.00    1.10187   1.05111    0.000
 5762.00    1.08895   1.07063    0.000
 5763.00    1.07062   1.07882    0.000
 5764.00    1.05058   1.07510    0.000
 5765.00    1.03013   1.06110    0.000
 5766.00    1.11844   1.04213    0.000
 5767.00    1.22762   1.02580    0.000
 5768.00    1.25360   1.02213    0.000
 5769.00    1.26720   1.03776    0.000
 5770.00    1.16591   1.05952    0.000
 5771.00    1.05211   1.07083    0.000
 5772.00    1.05584   1.07388    0.000
 5773.00    1.06801   1.07475    0.000
 5774.00    1.09962   1.07274    0.000
 5775.00    1.13195   1.06998    0.000
 5776.00    1.14739   1.06751    0.000
 5777.00    1.16299   1.06335    0.000
 5778.00    1.18696   1.06023    0.000
 5779.00    1.20205   1.05794    0.000
 5780.00    1.07425   1.05509    0.000
 5781.00    0.95866   1.05559    0.000
 5782.00    0.96665   1.05880    0.000
 5783.00    0.96801   1.06106    0.000
 5784.00    0.92139   1.05833    0.000
 5785.00    0.88910   1.04253    0.000
 5786.00    0.93642   1.01544    0.000
 5787.00    0.98501   0.99836    0.000
 5788.00    1.03919   1.00132    0.000
 5789.00    1.06946   1.00634    0.000
 5790.00    1.01260   1.00084    0.000
 5791.00    0.97990   1.00026   -2.000
 5792.00    1.02094   1.01622   -2.000
 5793.00    1.04202   1.03462   -2.000
 5794.00    1.01127   1.04560   -2.000
 5795.00    0.97966   1.04545   -2.000
 5796.00    0.94612   1.03608   -2.000
 5797.00    0.94163   1.03521   -2.000
 5798.00    0.99333   1.04745   -2.000
 5799.00    1.01040   1.06156   -2.000
 5800.00    0.96904   1.07217   -2.000
 5801.00    0.94851   1.07329   -2.000
 5802.00    0.95876   1.05827   -2.000
 5803.00    0.97719   1.04080   -2.000
 5804.00    1.00627   1.04473   -2.000
 5805.00    1.02669   1.06589   -2.000
 5806.00    1.03719   1.08205   -2.000
 5807.00    1.10156   1.08832   -2.000
 5808.00    1.22032   1.08616   -2.000
 5809.00    1.23916   1.07290   -2.000
 5810.00    1.16902   1.05852   -2.000
 5811.00    1.11817   1.05480    0.000
 5812.00    1.08245   1.05864    0.000
 5813.00    1.08518   1.06289    0.000
 5814.00    1.11444   1.06517    0.000
 5815.00    1.14085   1.06807    0.000
 5816.00    1.16553   1.07176    0.000
 5817.00    1.10897   1.07235    0.000
 5818.00    1.00951   1.06993    0.000
 5819.00    1.02922   1.06542    0.000
 5820.00    1.10354   1.05639    0.000
 5821.00    1.12777   1.04528    0.000
 5822.00    1.13224   1.04365    0.000
 5823.00    1.09521   1.05576    0.000
 5824.00    1.04423   1.06991    0.000
 5825.00    1.09614   1.07722    0.000
 5826.00    1.17709   1.07964    0.000
 5827.00    1.23203   1.07750    0.000
 5828.00    1.28091   1.07103    0.000
 5829.00    1.24324   1.06592    0.000
 5830.00    1.18940   1.06672    0.000
 5831.00    1.17602   1.06965    0.000
 5832.00    1.16849   1.07074    0.000
 5833.00    1.15354   1.07217    0.000
 5834.00    1.13781   1.07540    0.000
 5835.00    1.06157   1.07735    0.000
 5836.00    0.98123   1.07545    0.000
 5837.00    0.95867   1.07346    0.000
 5838.00    0.93801   1.07234    0.000
 5839.00    1.03752   1.06653    0.000
 5840.00    1.13502   1.05880    0.000
 5841.00    1.16675   1.06038    0.000
 5842.00    1.19192   1.06693    0.000
 5843.00    1.11800   1.06450    0.000
 5844.00    1.05062   1.05838    0.000
 5845.00    1.04673   1.06227    0.000
 5846.00    1.04544   1.07347    0.000
 5847.00    1.06236   1.08105    0.000
 5848.00    1.07702   1.08213    0.000
 5849.00    1.07952   1.07880    0.000
 5850.00    1.07854   1.07274    0.000
 5851.00    1.06248   1.06467    0.000
 5852.00    1.04914   1.05550    0.000
 5853.00    1.04552   1.05001    0.000
 5854.00    1.04057   1.05138    0.000
 5855.00    1.03164   1.05482    0.000
 5856.00    1.02881   1.05381    0.000
 5857.00    1.04154   1.04418    0.000
 5858.00    1.06139   1.02884    0.000
 5859.00    1.09684   1.02221    0.000
 5860.00    1.09908   1.02995    0.000
 5861.00    1.03808   1.03476    0.000
 5862.00    1.01949   1.02206    0.000
 5863.00    1.07136   1.00495    0.000
 5864.00    1.08980   1.00458    0.000
 5865.00    1.05953   1.01999    0.000
 5866.00    1.03939   1.03589    0.000
 5867.00    1.03223   1.04071    0.000
 5868.00    1.03761   1.03646    0.000
 5869.00    1.05714   1.03598    0.000
 5870.00    1.08606   1.04009    0.000
 5871.00    1.12435   1.03644    0.000
 5872.00    1.13156   1.02686    0.000
 5873.00    1.11148   1.02762    0.000
 5874.00    1.07523   1.04046    0.000
 5875.00    1.02648   1.05271    0.000
 5876.00    1.01741   1.05734    0.000
 5877.00    1.03535   1.05330    0.000
 5878.00    1.06669   1.04450    0.000
 5879.00    1.10602   1.02849    0.000
 5880.00    1.10711   1.00174    0.000
 5881.00    1.08832   0.98099    0.000
 5882.00    1.07383   0.98365    0.000
 5883.00    1.06128   1.00778    0.000
 5884.00    1.06271   1.02323    0.000
 5885.00    1.06957   1.01622    0.000
 5886.00    1.02488   1.01074    0.000
 5887.00    0.96319   1.01741    0.000
 5888.00    0.89995   1.02428    0.000
 5889.00    0.83626   1.02107    0.000
 5890.00    0.82829   1.01626    0.000
 5891.00    0.83299   1.01508    0.000
 5892.00    0.81777   1.00709    0.000
 5893.00    0.79892   0.97244    0.000
 5894.00    0.75516   0.89824    0.000
 5895.00    0.70792   0.81722    0.000
 5896.00    0.74795   0.79589    0.000
 5897.00    0.79674   0.84326    0.000
 5898.00    0.83812   0.89763    0.000
 5899.00    0.87902   0.91952    0.000
 5900.00    0.84894   0.89851    0.000
 5901.00    0.81707   0.85156    0.016
 5902.00    0.88348   0.84324    0.016
 5903.00    0.95058   0.88938    0.016
 5904.00    1.03684   0.93674    0.016
 5905.00    1.11543   0.96256    0.017
 5906.00    1.08459   0.98379    0.016
 5907.00    1.05529   1.00124    0.016
 5908.00    1.04034   1.01058    0.016
 5909.00    1.03204   1.01699    0.016
 5910.00    1.06891   1.01924    0.016
 5911.00    1.10351   1.01704    0.016
 5912.00    1.12619   1.01847    0.016
 5913.00    1.13451   1.02549    0.016
 5914.00    1.08207   1.03084    0.016
 5915.00    1.04228   1.03202    0.016
 5916.00    1.04674   1.03473    0.016
 5917.00    1.04566   1.03778    0.017
 5918.00    1.02825   1.03195    0.017
 5919.00    1.01077   1.01703    0.017
 5920.00    0.99309   1.00497    0.017
 5921.00    0.98419   1.00315    0.017
 5922.00    0.99423   1.00890    0.017
 5923.00    0.99350   1.01808    0.017
 5924.00    0.97254   1.02373    0.017
 5925.00    0.98069   1.02765    0.017
 5926.00    1.03650   1.03098    0.017
 5927.00    1.07490   1.02792    0.017
 5928.00    1.08831   1.02388    0.016
 5929.00    1.09386   1.02595    0.016
 5930.00    1.08948   1.02992    0.016
 5931.00    1.10238   1.03365    0.016
 5932.00    1.13449   1.03662    0.016
 5933.00    1.13291   1.03462    0.016
 5934.00    1.09824   1.02706    0.016
 5935.00    1.04428   1.01841    0.016
 5936.00    0.97361   1.01807    0.016
 5937.00    0.94461   1.02912    0.016
 5938.00    0.94739   1.03731    0.016
 5939.00    0.96344   1.03049    0.016
 5940.00    0.98839   1.01782    0.016
 5941.00    1.01144   1.01680    0.016
 5942.00    1.03338   1.02727    0.016
 5943.00    1.03029   1.03569    0.016
 5944.00    1.01439   1.04055    0.016
 5945.00    1.00534   1.03871    0.016
 5946.00    0.99931   1.02460    0.016
 5947.00    1.00130   1.01203    0.017
 5948.00    1.00635   1.01461    0.017
 5949.00    1.00709   1.02444    0.016
 5950.00    1.00643   1.03388    0.016
 5951.00    1.03448   1.04289    0.017
 5952.00    1.07032   1.04667    0.017
 5953.00    1.08604   1.03885    0.017
 5954.00    1.09731   1.02463    0.016
 5955.00    1.10362   1.01942    0.017
 5956.00    1.10905   1.02621    0.017
 5957.00    1.05550   1.02843    0.017
 5958.00    0.99397   1.01931    0.016
 5959.00    1.03886   1.01568    0.016
 5960.00    1.09398   1.02293    0.017
 5961.00    1.06790   1.02331    0.016
 5962.00    1.03699   1.01281    0.016
 5963.00    1.03146   1.00788    0.016
 5964.00    1.02689   1.01545    0.016
 5965.00    1.07020   1.02914    0.016
 5966.00    1.11157   1.04099    0.016
 5967.00    1.10341   1.04679    0.016
 5968.00    1.09475   1.04728    0.016
 5969.00    1.07940   1.04496    0.016
 5970.00    1.06739   1.04035    0.016
 5971.00    1.08522   1.03337    0.015
 5972.00    1.10403   1.03233    0.015
 5973.00    1.12922   1.03958    0.015
 5974.00    1.14575   1.04586    0.015
 5975.00    1.11788   1.04965    0.016
 5976.00    1.09557   1.05320    0.016
 5977.00    1.09625   1.05478    0.016
 5978.00    1.11499   1.05398    0.016
 5979.00    1.19556   1.05171    0.016
 5980.00    1.24460   1.04477    0.016
 5981.00    1.20265   1.03275    0.016
 5982.00    1.16027   1.02118    0.016
 5983.00    1.11680   1.01343    0.016
 5984.00    1.07850   1.01173    0.016
 5985.00    1.05120   1.01991    0.016
 5986.00    1.04718   1.03162    0.016
 5987.00    1.08617   1.03623    0.017
 5988.00    1.11174   1.02833    0.016
 5989.00    1.11570   1.01142    0.016
 5990.00    1.10704   1.00047    0.016
 5991.00    1.08054   1.00925    0.017
 5992.00    1.06480   1.02480    0.017
 5993.00    1.06245   1.03079    0.016
 5994.00    1.08030   1.03233    0.016
 5995.00    1.12030   1.03577    0.016
 5996.00    1.12896   1.03545    0.016
 5997.00    1.10729   1.03097    0.016
 5998.00    1.08392   1.03426    0.015
 5999.00    1.05909   1.04706    0.015
 6000.00    1.05092   1.05493    0.015
 6001.00    1.05526   1.05043    0.015
 6002.00    1.04298   1.03900    0.015
 6003.00    1.01972   1.02844    0.015
 6004.00    0.99331   1.02423    0.015
 6005.00    0.96509   1.02722    0.015
 6006.00    0.94706   1.03335    0.016
 6007.00    0.93417   1.03346    0.016
 6008.00    0.95187   1.02493    0.016
 6009.00    0.98291   1.02197    0.016
 6010.00    0.98449   1.02909    0.016
 6011.00    0.97504   1.03053    0.016
 6012.00    0.97959   1.02089    0.016
 6013.00    0.98857   1.00725    0.017
 6014.00    0.95884   1.00308    0.017
 6015.00    0.91884   1.01815    0.016
 6016.00    0.93475   1.03662    0.016
 6017.00    0.96279   1.03796    0.016
 6018.00    0.99642   1.02521    0.016
 6019.00    1.03102   1.01610    0.017
 6020.00    0.98478   1.02036    0.016
 6021.00    0.92799   1.02388    0.016
 6022.00    0.96374   1.01761    0.016
 6023.00    1.00798   1.01404    0.016
 6024.00    1.03305   1.01708    0.016
 6025.00    1.05704   1.01677    0.016
 6026.00    1.07151   1.01396    0.016
 6027.00    1.08555   1.01561    0.015
 6028.00    1.07842   1.01986    0.015
 6029.00    1.07011   1.02223    0.015
 6030.00    1.03445   1.02604    0.015
 6031.00    1.00273   1.03391    0.015
 6032.00    1.02128   1.03772    0.015
 6033.00    1.04033   1.03848    0.015
 6034.00    1.06359   1.04529    0.015
 6035.00    1.08131   1.05130    0.015
 6036.00    1.06363   1.04888    0.015
 6037.00    1.05606   1.04468    0.015
 6038.00    1.09908   1.04781    0.015
 6039.00    1.13586   1.05405    0.016
 6040.00    1.14737   1.05690    0.016
 6041.00    1.15214   1.05702    0.016
 6042.00    1.13429   1.05642    0.016
 6043.00    1.12673   1.05552    0.016
 6044.00    1.14839   1.05340    0.016
 6045.00    1.16404   1.04779    0.016
 6046.00    1.16512   1.04425    0.016
 6047.00    1.15613   1.04532    0.016
 6048.00    1.12608   1.04855    0.016
 6049.00    1.09427   1.05532    0.016
 6050.00    1.05927   1.06165    0.016
 6051.00    1.04704   1.06432    0.016
 6052.00    1.07099   1.06570    0.016
 6053.00    1.10557   1.06508    0.016
 6054.00    1.15494   1.06131    0.016
 6055.00    1.17582   1.05990    0.016
 6056.00    1.16174   1.06354    0.016
 6057.00    1.11451   1.06408    0.016
 6058.00    1.03142   1.05815    0.016
 6059.00    0.99123   1.05128    0.015
 6060.00    0.99198   1.04739    0.015
 6061.00    1.00924   1.04313    0.015
 6062.00    1.04040   1.03705    0.015
 6063.00    1.04866   1.03407    0.015
 6064.00    1.03994   1.03800    0.015
 6065.00    1.06680   1.04805    0.015
 6066.00    1.11680   1.05590    0.015
 6067.00    1.14388   1.05583    0.016
 6068.00    1.15791   1.04814    0.016
 6069.00    1.13680   1.03603    0.015
 6070.00    1.09825   1.02079    0.015
 6071.00    1.08177   1.01058    0.016
 6072.00    1.07475   1.02361    0.016
 6073.00    1.05835   1.04933    0.016
 6074.00    1.03850   1.06429    0.016
 6075.00    1.08808   1.06824    0.016
 6076.00    1.15926   1.06885    0.017
 6077.00    1.17371   1.07097    0.016
 6078.00    1.17343   1.07366    0.016
 6079.00    1.15088   1.07376    0.016
 6080.00    1.12362   1.07210    0.016
 6081.00    1.08911   1.06892    0.016
 6082.00    1.05339   1.06314    0.016
 6083.00    1.06628   1.05381    0.016
 6084.00    1.08529   1.04290    0.016
 6085.00    1.11123   1.03947    0.016
 6086.00    1.13777   1.03988    0.016
 6087.00    1.10907   1.03055    0.016
 6088.00    1.07751   1.02230    0.016
 6089.00    1.04126   1.02876    0.015
 6090.00    1.00597   1.03645    0.015
 6091.00    1.04647   1.03451    0.015
 6092.00    1.08567   1.03497    0.015
 6093.00    1.09721   1.04197    0.015
 6094.00    1.10388   1.04492    0.015
 6095.00    1.05150   1.03455    0.015
 6096.00    1.00711   1.02054    0.015
 6097.00    1.02896   1.01878    0.015
 6098.00    1.05106   1.02340    0.015
 6099.00    1.07475   1.02788    0.016
 6100.00    1.09558   1.04036    0.016
 6101.00    1.10248   1.05149    0.016
 6102.00    1.10047   1.04841    0.016
 6103.00    1.06314   1.04067    0.016
 6104.00    1.04155   1.04291    0.016
 6105.00    1.07173   1.05176    0.016
 6106.00    1.09030   1.05297    0.016
 6107.00    1.07657   1.03198    0.016
 6108.00    1.06613   0.99276    0.016
 6109.00    1.06351   0.97904    0.016
 6110.00    1.06258   1.00419    0.016
 6111.00    1.06511   1.03018    0.016
 6112.00    1.06116   1.03744    0.016
 6113.00    1.04559   1.03445    0.016
 6114.00    1.04067   1.03510    0.016
 6115.00    1.05243   1.04471    0.016
 6116.00    1.06258   1.04654    0.016
 6117.00    1.07052   1.03677    0.015
 6118.00    1.07806   1.03663    0.015
 6119.00    1.08511   1.04916    0.015
 6120.00    1.07525   1.05820    0.015
 6121.00    1.04734   1.05456    0.015
 6122.00    1.01686   1.04404    0.015
 6123.00    0.98395   1.04281    0.015
 6124.00    0.94727   1.04526    0.015
 6125.00    0.90746   1.03354    0.015
 6126.00    0.92132   1.01172    0.015
 6127.00    0.97436   0.98892    0.015
 6128.00    1.04216   0.97617    0.015
 6129.00    1.11941   0.99460    0.015
 6130.00    1.13583   1.02205    0.015
 6131.00    1.11814   1.02840    0.015
 6132.00    1.09318   1.02303    0.015
 6133.00    1.06467   1.01795    0.016
 6134.00    1.07606   1.01629    0.016
 6135.00    1.10427   1.02501    0.016
 6136.00    1.11277   1.04267    0.016
 6137.00    1.11416   1.05510    0.016
 6138.00    1.05833   1.05775    0.016
 6139.00    0.98504   1.05258    0.017
 6140.00    0.97673   1.03336    0.016
 6141.00    0.98492   0.99914    0.015
 6142.00    1.02489   0.95929    0.015
 6143.00    1.07141   0.93945    0.015
 6144.00    1.11024   0.96718    0.016
 6145.00    1.14782   1.01555    0.016
 6146.00    1.17655   1.03275    0.016
 6147.00    1.20421   1.01864    0.015
 6148.00    1.17103   1.01257    0.015
 6149.00    1.13277   1.03088    0.015
 6150.00    1.09744   1.05046    0.015
 6151.00    1.06225   1.05478    0.014
 6152.00    1.00823   1.05031    0.015
 6153.00    0.95422   1.04409    0.015
 6154.00    0.91667   1.03314    0.015
 6155.00    0.88103   1.01833    0.015
 6156.00    0.88309   1.00984    0.015
 6157.00    0.88309   1.01613    0.015
 6158.00    0.85929   1.03019    0.015
 6159.00    0.83997   1.03772    0.016
 6160.00    0.85644   1.03002    0.016
 6161.00    0.87823   1.02060    0.016
 6162.00    0.93201   1.02004    0.016
 6163.00    0.96899   1.01900    0.016
 6164.00    0.92614   1.01531    0.016
 6165.00    0.88696   1.00722    0.015
 6166.00    0.86196   0.98041    0.015
 6167.00    0.84344   0.93541    0.015
 6168.00    0.84580   0.90495    0.016
 6169.00    0.83543   0.91104    0.016
 6170.00    0.79022   0.93795    0.016
 6171.00    0.76288   0.96195    0.015
 6172.00    0.77740   0.97632    0.015
 6173.00    0.80847   0.98643    0.015
 6174.00    0.87303   0.97870    0.015
 6175.00    0.92608   0.94982    0.015
 6176.00    0.95881   0.94122    0.015
 6177.00    0.97317   0.96717    0.015
 6178.00    0.95916   0.99021    0.015
 6179.00    0.95447   0.99210    0.015
 6180.00    0.96237   0.99328    0.015
 6181.00    0.95984   0.99866    0.015
 6182.00    0.94486   0.99856    0.014
 6183.00    0.93475   0.99871    0.015
 6184.00    0.92976   1.00698    0.015
 6185.00    0.92647   1.01210    0.015
 6186.00    0.92477   1.00952    0.015
 6187.00    0.92365   1.01270    0.015
 6188.00    0.92302   1.01888    0.015
 6189.00    0.92126   1.01911    0.015
 6190.00    0.91868   1.01739    0.016
 6191.00    0.92664   1.01177    0.016
 6192.00    0.94124   0.99702    0.016
 6193.00    0.94578   0.98418    0.016
 6194.00    0.94476   0.98024    0.016
 6195.00    0.89829   0.97711    0.016
 6196.00    0.83000   0.96225   -2.000
 6197.00    0.67012   0.93921   -2.000
 6198.00    0.47228   0.94182   -2.000
 6199.00    0.20401   0.97149   -2.000
 6200.00   -0.08922   0.99322   -2.000
 6201.00   -0.06895   1.00286   -2.000
 6202.00    0.04514   1.00980   -2.000
 6203.00    0.27152   1.01268   -2.000
 6204.00    0.52579   1.00122   -2.000
 6205.00    0.69306   0.97816   -2.000
 6206.00    0.84281   0.96893   -2.000
 6207.00    0.88460   0.98382   -2.000
 6208.00    0.90935   1.00288    0.015
 6209.00    0.92934   1.01168    0.015
 6210.00    0.94878   1.01128    0.015
 6211.00    0.98039   1.00966    0.015
 6212.00    1.01297   1.01232    0.015
 6213.00    1.02618   1.01531    0.015
 6214.00    1.03853   1.01566    0.015
 6215.00    1.04455   1.01209    0.015
 6216.00    1.05054   1.00277    0.015
 6217.00    1.05897   0.99397    0.015
 6218.00    1.06593   0.98338    0.015
 6219.00    1.04609   0.96110    0.015
 6220.00    1.02862   0.94131    0.015
 6221.00    1.03716   0.93675    0.015
 6222.00    1.04521   0.94338    0.015
 6223.00    1.04940   0.95912    0.015
 6224.00    1.04782   0.96665    0.016
 6225.00    1.01248   0.95691    0.015
 6226.00    0.98182   0.94843    0.015
 6227.00    0.97290   0.95138    0.015
 6228.00    0.97348   0.96060    0.015
 6229.00    1.01009   0.96532    0.015
 6230.00    1.04259   0.96293    0.015
 6231.00    1.06211   0.96611    0.015
 6232.00    1.06746   0.97332    0.015
 6233.00    1.03479   0.97521    0.015
 6234.00    1.01357   0.97102    0.015
 6235.00    1.01873   0.95293    0.014
 6236.00    1.02432   0.92397    0.014
 6237.00    1.03076   0.91334    0.014
 6238.00    1.02137   0.92769    0.014
 6239.00    0.98449   0.94735    0.014
 6240.00    0.96208   0.97155    0.014
 6241.00    0.96166   0.99048    0.015
 6242.00    0.95747   0.99310    0.015
 6243.00    0.94824   0.98431    0.015
 6244.00    0.93577   0.96853    0.015
 6245.00    0.91947   0.94777    0.015
 6246.00    0.91698   0.93605    0.015
 6247.00    0.92880   0.94376    0.015
 6248.00    0.95375   0.94357    0.015
 6249.00    0.99069   0.92846    0.015
 6250.00    0.99442   0.93042    0.015
 6251.00    0.97137   0.94091    0.015
 6252.00    0.95847   0.94544    0.015
 6253.00    0.95276   0.95989    0.016
 6254.00    0.96425   0.97732    0.015
 6255.00    0.98643   0.98278    0.015
 6256.00    1.01091   0.97915    0.015
 6257.00    1.03666   0.96545    0.015
 6258.00    1.05946   0.94323    0.015
 6259.00    1.08086   0.93437    0.016
 6260.00    1.00821   0.93929    0.016
 6261.00    0.89723   0.94203    0.017
 6262.00    0.78322   0.93222    0.018
 6263.00    0.66816   0.91322    0.018
 6264.00    0.69146   0.89989    0.018
 6265.00    0.75536   0.91052    0.018
 6266.00    0.88893   0.93699    0.017
 6267.00    1.03942   0.95070    0.016
 6268.00    1.04612   0.96542    0.015
 6269.00    1.02459   0.98449    0.015
 6270.00    1.00986   0.98268    0.015
 6271.00    0.99618   0.96483    0.015
 6272.00    1.02841   0.96264    0.015
 6273.00    1.06583   0.97300    0.015
 6274.00    1.06047   0.97269    0.015
 6275.00    1.05190   0.96740    0.015
 6276.00    1.02875   0.97050    0.015
 6277.00    1.00501   0.97811    0.016
 6278.00    0.99957   0.98387    0.016
 6279.00    0.99412   0.98532    0.016
 6280.00    0.98312   0.98162    0.000
 6281.00    0.97030   0.98100    0.000
 6282.00    0.92674   0.98229    0.000
 6283.00    0.88776   0.98322    0.000
 6284.00    0.89696   0.98440    0.000
 6285.00    0.90876   0.97840    0.000
 6286.00    0.94003   0.96330    0.000
 6287.00    0.97266   0.95806    0.000
 6288.00    1.01298   0.96689    0.000
 6289.00    1.04795   0.97923    0.000
 6290.00    1.05864   0.98733    0.000
 6291.00    1.06395   0.98527    0.000
 6292.00    1.04929   0.98921    0.000
 6293.00    1.03643   1.00178    0.000
 6294.00    1.02915   1.01204    0.000
 6295.00    1.02678   1.01605    0.000
 6296.00    1.03738   1.00812    0.000
 6297.00    1.04275   0.99571    0.000
 6298.00    1.03630   0.98722    0.000
 6299.00    1.02610   0.98409    0.000
 6300.00    1.00852   0.98944    0.000
 6301.00    1.00433   0.98688    0.000
 6302.00    1.02301   0.96809    0.000
 6303.00    1.03563   0.95638    0.000
 6304.00    1.03916   0.96467    0.000
 6305.00    1.04452   0.98039    0.000
 6306.00    1.05227   0.98331    0.000
 6307.00    1.07165   0.97288    0.000
 6308.00    1.10451   0.96680    0.000
 6309.00    1.11053   0.97458    0.000
 6310.00    1.08914   0.98303    0.000
 6311.00    1.06518   0.98139    0.000
 6312.00    1.03890   0.98383    0.000
 6313.00    1.02166   1.00201    0.000
 6314.00    1.01162   1.01599    0.000
 6315.00    1.00644   1.01515    0.000
 6316.00    1.00465   1.00532    0.000
 6317.00    0.98932   0.99282    0.000
 6318.00    0.96567   0.98822    0.000
 6319.00    0.95636   0.99292    0.000
 6320.00    0.95472   0.98899    0.000
 6321.00    0.95078   0.97784    0.014
 6322.00    0.94578   0.98022    0.015
 6323.00    0.97349   0.97966    0.015
 6324.00    1.01431   0.96438    0.014
 6325.00    1.05439   0.96506    0.015
 6326.00    1.09420   0.98279    0.015
 6327.00    1.08123   0.99382    0.015
 6328.00    1.05309   0.99544    0.016
 6329.00    1.05855   1.00084    0.016
 6330.00    1.07199   1.00937    0.015
 6331.00    1.07171   1.01082    0.015
 6332.00    1.06881   1.00980    0.015
 6333.00    1.05359   1.00780    0.015
 6334.00    1.03655   1.01261    0.015
 6335.00    1.04930   1.01839    0.015
 6336.00    1.06528   1.01143    0.015
 6337.00    1.10914   1.01041    0.015
 6338.00    1.15499   1.02135    0.015
 6339.00    1.15552   1.02857    0.014
 6340.00    1.15441   1.01669    0.014
 6341.00    1.13079   0.98602    0.014
 6342.00    1.10740   0.96718    0.014
 6343.00    1.09461   0.97860    0.014
 6344.00    1.07958   0.99517    0.014
 6345.00    1.02871   1.00097    0.014
 6346.00    0.97976   1.01085    0.014
 6347.00    0.95017   1.02001    0.014
 6348.00    0.92482   1.01384    0.014
 6349.00    0.93004   0.99440    0.014
 6350.00    0.93949   0.97808    0.015
 6351.00    0.97229   0.98023    0.015
 6352.00    1.00523   0.98724    0.015
 6353.00    1.03879   0.99411    0.015
 6354.00    1.05795   1.00337    0.015
 6355.00    1.02475   1.01591    0.015
 6356.00    0.99969   1.02127    0.015
 6357.00    0.99943   1.02295    0.015
 6358.00    0.99845   1.02294    0.015
 6359.00    0.99560   1.01501    0.015
 6360.00    0.99309   0.99856    0.015
 6361.00    0.99131   0.98810    0.015
 6362.00    0.98608   0.99332    0.015
 6363.00    0.97418   0.99330    0.015
 6364.00    0.96887   0.97450    0.015
 6365.00    0.97465   0.95958    0.015
 6366.00    0.98024   0.95995    0.015
 6367.00    0.98558   0.95875    0.015
 6368.00    0.97718   0.95150    0.014
 6369.00    0.95098   0.95280    0.014
 6370.00    0.93397   0.96422    0.014
 6371.00    0.92747   0.97653    0.014
 6372.00    0.93214   0.98771    0.014
 6373.00    0.94808   1.00116    0.014
 6374.00    0.98213   1.01497    0.014
 6375.00    1.03229   1.01752    0.015
 6376.00    1.05463   1.00712    0.015
 6377.00    1.05520   1.00505    0.015
 6378.00    1.00803   1.01688    0.015
 6379.00    0.92798   1.02940    0.015
 6380.00    0.94112   1.03105    0.015
 6381.00    1.01055   1.02636    0.015
 6382.00    1.06490   1.02720    0.015
 6383.00    1.11129   1.02541    0.015
 6384.00    1.10108   1.01224    0.015
 6385.00    1.06497   1.00022    0.015
 6386.00    1.03494   0.99913    0.015
 6387.00    1.00731   1.00123    0.014
 6388.00    0.99397   1.00733    0.014
 6389.00    0.98542   1.01194    0.014
 6390.00    1.03380   1.00910    0.014
 6391.00    1.09821   1.00835    0.014
 6392.00    1.08658   1.01528    0.014
 6393.00    1.05730   1.01979    0.014
 6394.00    1.00721   1.01773    0.015
 6395.00    0.95323   1.01636    0.015
 6396.00    0.95444   1.01832    0.015
 6397.00    0.96358   1.01544    0.015
 6398.00    0.96538   0.99773    0.014
 6399.00    0.96642   0.97108    0.014
 6400.00    0.94072   0.96836    0.015
 6401.00    0.91322   0.99199    0.015
 6402.00    0.93836   1.01471    0.015
 6403.00    0.96521   1.02651    0.015
 6404.00    0.98559   1.02376    0.015
 6405.00    1.00557   0.99591    0.015
 6406.00    1.01343   0.96471    0.015
 6407.00    1.02103   0.97533    0.015
 6408.00    1.02465   1.00892    0.015
 6409.00    1.02786   1.02660    0.015
 6410.00    1.02700   1.03319    0.015
 6411.00    1.02837   1.03260    0.015
 6412.00    1.04523   1.02460    0.015
 6413.00    1.06342   1.01022    0.015
 6414.00    1.08871   0.99968    0.015
 6415.00    1.11047   1.01084    0.015
 6416.00    1.11693   1.01967    0.014
 6417.00    1.11273   1.00491    0.014
 6418.00    1.07057   0.99423    0.014
 6419.00    1.03739   0.99795    0.015
 6420.00    1.03108   1.00397    0.014
 6421.00    1.02807   1.01299    0.014
 6422.00    1.03345   1.02189    0.014
 6423.00    1.03127   1.02271    0.014
 6424.00    1.01255   1.01570    0.014
 6425.00    1.00474   1.00299    0.014
 6426.00    1.01767   0.98541    0.014
 6427.00    1.02107   0.97739    0.015
 6428.00    1.00870   0.99437    0.015
 6429.00    0.99824   1.02133    0.015
 6430.00    0.99056   1.02999    0.015
 6431.00    0.98757   1.02693    0.015
 6432.00    0.99059   1.03089    0.015
 6433.00    0.99740   1.03902    0.015
 6434.00    1.00847   1.03959    0.015
 6435.00    1.00216   1.02469    0.016
 6436.00    0.97859   0.99428    0.015
 6437.00    0.98697   0.97342    0.015
 6438.00    1.02335   0.98620    0.015
 6439.00    1.05666   1.00951    0.015
 6440.00    1.08759   1.02139    0.015
 6441.00    1.09012   1.02525    0.015
 6442.00    1.07336   1.02934    0.014
 6443.00    1.04832   1.02566    0.014
 6444.00    1.01835   1.00302    0.014
 6445.00    1.01826   0.98277    0.014
 6446.00    1.03367   0.99571    0.014
 6447.00    1.01246   1.02242    0.014
 6448.00    0.97479   1.03578    0.014
 6449.00    0.92559   1.04029    0.014
 6450.00    0.87192   1.04134    0.014
 6451.00    0.87281   1.04415    0.015
 6452.00    0.89166   1.04871    0.015
 6453.00    0.91189   1.04780    0.015
 6454.00    0.93251   1.02614    0.015
 6455.00    0.97497   0.97894    0.015
 6456.00    1.02238   0.94447    0.015
 6457.00    1.04533   0.95861    0.015
 6458.00    1.06383   0.99294    0.015
 6459.00    1.06548   1.01900    0.015
 6460.00    1.06478   1.02731    0.015
 6461.00    1.06390   1.01408    0.015
 6462.00    1.06299   1.00394    0.015
 6463.00    1.04824   1.01571    0.015
 6464.00    1.03261   1.03538    0.015
 6465.00    1.01460   1.04861    0.015
 6466.00    0.99650   1.05104    0.015
 6467.00    0.97432   1.03286    0.014
 6468.00    0.95263   0.99254    0.014
 6469.00    0.94467   0.96988    0.014
 6470.00    0.94113   0.98770    0.014
 6471.00    1.00012   1.01144    0.014
 6472.00    1.05192   1.02487    0.015
 6473.00    1.03700   1.03447    0.015
 6474.00    1.02496   1.03889    0.015
 6475.00    1.03231   1.03366    0.015
 6476.00    1.03812   1.02528    0.015
 6477.00    1.03587   1.01609    0.015
 6478.00    1.03744   1.01472    0.015
 6479.00    1.05516   1.02381    0.015
 6480.00    1.07150   1.02297    0.015
 6481.00    1.08304   1.01312    0.015
 6482.00    1.08294   1.01547    0.015
 6483.00    1.04866   1.02791    0.015
 6484.00    1.02098   1.03210    0.015
 6485.00    1.00980   1.03179    0.015
 6486.00    1.01295   1.02813    0.015
 6487.00    1.04697   1.00905    0.016
 6488.00    1.07210   0.98433    0.016
 6489.00    1.08062   0.97958    0.016
 6490.00    1.09331   0.99578    0.015
 6491.00    1.11286   1.01262    0.015
 6492.00    1.11847   1.02071    0.015
 6493.00    1.10412   1.02483    0.015
 6494.00    1.08822   1.02726    0.014
 6495.00    1.07036   1.02177    0.014
 6496.00    1.02620   1.00993    0.014
 6497.00    0.95281   1.00153    0.014
 6498.00    0.90496   0.99707    0.014
 6499.00    0.88214   0.97446    0.014
 6500.00    0.87398   0.92996    0.014
 6501.00    0.87849   0.90032    0.014
 6502.00    0.88684   0.90031    0.015
 6503.00    0.89813   0.91455    0.015
 6504.00    0.92912   0.93389    0.015
 6505.00    0.97330   0.94605    0.015
 6506.00    0.97270   0.96193    0.015
 6507.00    0.94586   0.98075    0.015
 6508.00    0.92556   0.99346    0.015
 6509.00    0.90860   1.00238    0.015
 6510.00    0.93415   1.00876    0.015
 6511.00    0.97850   1.01517    0.015
 6512.00    1.03812   1.02018    0.015
 6513.00    1.10354   1.01764    0.015
 6514.00    1.11253   1.00753    0.015
 6515.00    1.10330   1.00372    0.015
 6516.00    1.07227   1.01152    0.015
 6517.00    1.03535   1.02031    0.015
 6518.00    1.02432   1.02231    0.015
 6519.00    1.01903   1.02238    0.014
 6520.00    1.01229   1.02023    0.014
 6521.00    1.00530   1.01242    0.014
 6522.00    0.97494   1.00491    0.014
 6523.00    0.94142   1.00116    0.014
 6524.00    0.93032   0.99485    0.014
 6525.00    0.92135   0.99471    0.014
 6526.00    0.91876   1.00721    0.014
 6527.00    0.91655   1.01986    0.015
 6528.00    0.93951   1.02417    0.000
 6529.00    0.96308   1.02340    0.000
 6530.00    0.98341   1.02523    0.000
 6531.00    1.00368   1.02691    0.000
 6532.00    1.02247   1.01799    0.000
 6533.00    1.03804   1.00648    0.000
 6534.00    1.01073   1.00791    0.000
 6535.00    0.98820   1.01762    0.000
 6536.00    1.00843   1.02273    0.000
 6537.00    1.03103   1.01655    0.000
 6538.00    1.06925   1.00472    0.000
 6539.00    1.09802   0.99943    0.000
 6540.00    1.07852   1.00691    0.000
 6541.00    1.05909   1.02021    0.000
 6542.00    1.03994   1.02555    0.000
 6543.00    1.03035   1.01941    0.000
 6544.00    1.05342   1.01560    0.000
 6545.00    1.08027   1.02305    0.000
 6546.00    1.11797   1.03118    0.000
 6547.00    1.15031   1.02850    0.000
 6548.00    1.16950   1.01749    0.000
 6549.00    1.18184   1.00638    0.000
 6550.00    1.17969   0.99955    0.000
 6551.00    1.17376   0.98815    0.000
 6552.00    1.16088   0.97051    0.000
 6553.00    1.12626   0.96695    0.000
 6554.00    1.05666   0.97959    0.000
 6555.00    0.99656   0.98993    0.000
 6556.00    0.94990   0.98797    0.000
 6557.00    0.95421   0.97771    0.000
 6558.00    1.02187   0.97050    0.000
 6559.00    1.03904   0.96504    0.000
 6560.00    1.00092   0.95093    0.000
 6561.00    0.98585   0.93342    0.000
 6562.00    0.99305   0.92462    0.000
 6563.00    1.04617   0.92582    0.000
 6564.00    1.13843   0.92654    0.000
 6565.00    1.22506   0.91956    0.000
 6566.00    1.30746   0.90290    0.000
 6567.00    1.31564   0.84723    0.000
 6568.00    1.27488   0.73904    0.000
 6569.00    1.20888   0.66636    0.000
 6570.00    1.12833   0.71573    0.000
 6571.00    1.06427   0.82155    0.000
 6572.00    1.00850   0.89137    0.000
 6573.00    0.98004   0.92667    0.000
 6574.00    0.96348   0.94277    0.000
 6575.00    0.94724   0.94047    0.000
 6576.00    0.93113   0.94220    0.000
 6577.00    0.96115   0.95204    0.000
 6578.00    1.00578   0.95115    0.000
 6579.00    1.02202   0.93974    0.000
 6580.00    1.03075   0.93264    0.000
 6581.00    1.04368   0.93836    0.000
 6582.00    1.05752   0.95609    0.000
 6583.00    1.11396   0.97410    0.000
 6584.00    1.17770   0.98458    0.000
 6585.00    1.23079   0.98667    0.000
 6586.00    1.28249   0.98307    0.000
 6587.00    1.24362   0.97487    0.000
 6588.00    1.19647   0.97320    0.000
 6589.00    1.14601   0.98425    0.000
 6590.00    1.09536   0.99348    0.000
 6591.00    1.03979   0.99838    0.000
 6592.00    0.98448   0.99613    0.000
 6593.00    0.96349   1.00057    0.000
 6594.00    0.94450   1.01138    0.000
 6595.00    0.97120   1.01662    0.000
 6596.00    0.99684   1.01694    0.000
 6597.00    1.00901   1.00829    0.000
 6598.00    1.02156   0.98095    0.000
 6599.00    1.03732   0.94956    0.000
 6600.00    1.04701   0.94680    0.000
 6601.00    1.01807   0.97011    0.000
 6602.00    0.98748   0.99074    0.000
 6603.00    0.94867   0.99481    0.000
 6604.00    0.92955   0.98793    0.000
 6605.00    0.98988   0.98454    0.000
 6606.00    1.02235   0.99598    0.000
 6607.00    0.96147   1.01173    0.000
 6608.00    0.90956   1.01801    0.000
 6609.00    0.88298   1.01496    0.015
 6610.00    0.87724   1.00600    0.015
 6611.00    0.92186   0.99570    0.015
 6612.00    0.95666   0.98909    0.015
 6613.00    0.97099   0.98482    0.015
 6614.00    0.98681   0.97597    0.015
 6615.00    1.00534   0.96535    0.015
 6616.00    1.02411   0.97276    0.015
 6617.00    1.04325   0.99647    0.015
 6618.00    1.04039   1.00989    0.015
 6619.00    1.00691   1.00472    0.014
 6620.00    0.98694   0.99887    0.015
 6621.00    0.98352   1.00740    0.015
 6622.00    1.01143   1.01648    0.015
 6623.00    1.07318   1.01541    0.015
 6624.00    1.10996   1.01178    0.016
 6625.00    1.12297   1.01287    0.016
 6626.00    1.10763   1.01739    0.016
 6627.00    1.06850   1.02002    0.015
 6628.00    1.02920   1.01705    0.016
 6629.00    0.98978   1.00536    0.016
 6630.00    0.99809   0.98637    0.016
 6631.00    1.03741   0.97516    0.016
 6632.00    1.02703   0.98348    0.016
 6633.00    0.98841   0.99642    0.016
 6634.00    0.96367   1.00027    0.015
 6635.00    0.94579   0.99808    0.015
 6636.00    0.94822   0.99427    0.015
 6637.00    0.95934   0.99117    0.015
 6638.00    0.96598   0.98527    0.015
 6639.00    0.97098   0.97384    0.015
 6640.00    0.98020   0.96710    0.015
 6641.00    0.99075   0.97535    0.015
 6642.00    0.99441   0.99028    0.015
 6643.00    0.99629   1.00072    0.015
 6644.00    0.99675   1.00330    0.015
 6645.00    0.99691   0.99802    0.015
 6646.00    1.01434   0.99362    0.015
 6647.00    1.03464   0.99869    0.015
 6648.00    1.02625   1.00004    0.015
 6649.00    1.01427   0.98611    0.015
 6650.00    0.98326   0.97601    0.015
 6651.00    0.95060   0.98452    0.015
 6652.00    0.97328   0.99536    0.016
 6653.00    0.99880   0.99548    0.016
 6654.00    1.01626   0.99349    0.016
 6655.00    1.03221   0.99717    0.016
 6656.00    0.95183   0.99905    0.016
 6657.00    0.87551   0.99515    0.015
 6658.00    0.88467   0.99072    0.015
 6659.00    0.89647   0.98988    0.015
 6660.00    0.94014   0.99130    0.015
 6661.00    0.98188   0.99370    0.015
 6662.00    1.00770   0.99311    0.015
 6663.00    1.02180   0.99095    0.015
 6664.00    0.96351   0.99223    0.015
 6665.00    0.91656   0.99283    0.015
 6666.00    0.92472   0.98944    0.015
 6667.00    0.94374   0.98484    0.015
 6668.00    1.00561   0.97725    0.015
 6669.00    1.05181   0.96388    0.015
 6670.00    1.04657   0.95909    0.015
 6671.00    1.03743   0.96692    0.015
 6672.00    1.01746   0.97087    0.015
 6673.00    1.00569   0.96910    0.016
 6674.00    1.01341   0.97201    0.016
 6675.00    1.01253   0.98277    0.016
 6676.00    0.99395   0.99482    0.016
 6677.00    0.98373   1.00161    0.016
 6678.00    0.98847   1.00215    0.016
 6679.00    0.99107   1.00076    0.016
 6680.00    0.99033   0.99968    0.016
 6681.00    0.98208   0.99903    0.016
 6682.00    0.96352   0.98729    0.016
 6683.00    0.94123   0.94952    0.016
 6684.00    0.91441   0.91197    0.015
 6685.00    0.94661   0.91194    0.015
 6686.00    1.04163   0.94421    0.016
 6687.00    1.07000   0.96900    0.015
 6688.00    1.03578   0.97527    0.015
 6689.00    0.99979   0.98027    0.015
 6690.00    0.96235   0.98679    0.015
 6691.00    0.95016   0.99016    0.015
 6692.00    0.95636   0.98968    0.015
 6693.00    0.98283   0.98602    0.015
 6694.00    1.02225   0.98221    0.016
 6695.00    1.00455   0.98365    0.016
 6696.00    0.95489   0.98798    0.000
 6697.00    0.95970   0.99064    0.000
 6698.00    0.99105   0.99068    0.000
 6699.00    0.99246   0.99030    0.000
 6700.00    0.98127   0.98970    0.000
 6701.00    0.98649   0.98379    0.000
 6702.00    0.99762   0.97178    0.000
 6703.00    0.99251   0.96494    0.000
 6704.00    0.98245   0.96778    0.000
 6705.00    0.96165   0.97578    0.000
 6706.00    0.93812   0.98629    0.000
 6707.00    0.98643   0.99301    0.000
 6708.00    1.04952   0.99185    0.000
 6709.00    1.02715   0.98430    0.000
 6710.00    0.99094   0.97615    0.000
 6711.00    1.04367   0.97559    0.000
 6712.00    1.10717   0.98196    0.000
 6713.00    1.07433   0.98762    0.000
 6714.00    1.03350   0.98964    0.000
 6715.00    1.05708   0.98781    0.000
 6716.00    1.08371   0.98182    0.000
 6717.00    1.17901   0.97897    0.000
 6718.00    1.27178   0.98092    0.000
 6719.00    1.16794   0.97901    0.000
 6720.00    1.07017   0.97225    0.000
 6721.00    1.09062   0.96280    0.000
 6722.00    1.10306   0.95077    0.000
 6723.00    1.02363   0.93785    0.000
 6724.00    0.96273   0.93516    0.000
 6725.00    1.04933   0.94945    0.000
 6726.00    1.11372   0.96425    0.000
 6727.00    1.04488   0.96768    0.000
 6728.00    0.98955   0.96714    0.000
 6729.00    0.99823   0.97185    0.000
 6730.00    1.02294   0.97803    0.000
 6731.00    1.10963   0.97677    0.000
 6732.00    1.17588   0.97052    0.000
 6733.00    1.17635   0.96900    0.000
 6734.00    1.17260   0.97386    0.000
 6735.00    1.15736   0.97928    0.000
 6736.00    1.14018   0.98384    0.000
 6737.00    1.11849   0.98551    0.000
 6738.00    1.09665   0.98308    0.000
 6739.00    1.07449   0.97858    0.000
 6740.00    1.03804   0.97610    0.000
 6741.00    0.97644   0.97799    0.000
 6742.00    0.94239   0.98220    0.000
 6743.00    0.95075   0.98168    0.000
 6744.00    0.97259   0.97329    0.000
 6745.00    1.01266   0.96402    0.000
 6746.00    1.04185   0.96345    0.000
 6747.00    1.05809   0.97063    0.000
 6748.00    1.04733   0.97102    0.000
 6749.00    1.00823   0.96348    0.000
 6750.00    0.96440   0.96294    0.000
 6751.00    0.91619   0.96839    0.000
 6752.00    0.89405   0.96842    0.000
 6753.00    0.89317   0.96467    0.018
 6754.00    0.91048   0.96218    0.018
 6755.00    0.94084   0.95984    0.018
 6756.00    0.92867   0.95707    0.019
 6757.00    0.88967   0.95888    0.019
 6758.00    0.87835   0.95849    0.019
 6759.00    0.88227   0.95161    0.018
 6760.00    0.96521   0.95393    0.019
 6761.00    1.08601   0.96492    0.019
 6762.00    1.18326   0.97366    0.020
 6763.00    1.27078   0.98113    0.021
 6764.00    1.27869   0.98776    0.021
 6765.00    1.25845   0.99172    0.020
 6766.00    1.20593   0.99347    0.020
 6767.00    1.14378   0.99158    0.020
 6768.00    1.19415   0.98618    0.020
 6769.00    1.27238   0.98396    0.020
 6770.00    1.24507   0.98599    0.020
 6771.00    1.19657   0.98505    0.020
 6772.00    1.17185   0.97533    0.019
 6773.00    1.15086   0.96225    0.019
 6774.00    1.10122   0.95895    0.018
 6775.00    1.04823   0.96615    0.018
 6776.00    1.03695   0.96983    0.018
 6777.00    1.02896   0.96602    0.018
 6778.00    1.01031   0.96693    0.018
 6779.00    0.99120   0.97625    0.018
 6780.00    1.00279   0.98615    0.018
 6781.00    1.01464   0.99270    0.018
 6782.00    1.02330   0.99647    0.018
 6783.00    1.03481   0.99670    0.018
 6784.00    1.09797   0.99631    0.019
 6785.00    1.15158   0.99868    0.019
 6786.00    1.10077   0.99997    0.019
 6787.00    1.05936   0.99517    0.019
 6788.00    1.09027   0.98272    0.019
 6789.00    1.11216   0.96459    0.020
 6790.00    1.08142   0.94882    0.020
 6791.00    1.05806   0.94404    0.020
 6792.00    1.06882   0.94912    0.020
 6793.00    1.06643   0.96006    0.019
 6794.00    1.01432   0.97144    0.019
 6795.00    1.00082   0.97495    0.019
 6796.00    1.10923   0.97233    0.019
 6797.00    1.17086   0.97256    0.019
 6798.00    1.10720   0.97420    0.019
 6799.00    1.07839   0.97008    0.019
 6800.00    1.12970   0.96504    0.019
 6801.00    1.14226   0.96559    0.019
 6802.00    1.07777   0.96882    0.019
 6803.00    1.02788   0.97277    0.018
 6804.00    1.00329   0.97550    0.018
 6805.00    0.96772   0.97648    0.018
 6806.00    0.91548   0.97927    0.018
 6807.00    0.90649   0.98296    0.018
 6808.00    0.95512   0.98515    0.018
 6809.00    0.99317   0.98467    0.019
 6810.00    1.01878   0.98173    0.020
 6811.00    1.04755   0.98124    0.020
 6812.00    1.07960   0.98084    0.020
 6813.00    1.02467   0.97725    0.021
 6814.00    0.89032   0.97710    0.021
 6815.00    0.83205   0.97916    0.021
 6816.00    0.83498   0.97765    0.020
 6817.00    0.87168   0.97707    0.020
 6818.00    0.93228   0.97908    0.020
 6819.00    0.94956   0.97961    0.019
 6820.00    0.93992   0.97511    0.019
 6821.00    1.00829   0.96767    0.019
 6822.00    1.11900   0.96876    0.019
 6823.00    1.09820   0.97928    0.019
 6824.00    1.01539   0.98584    0.018
 6825.00    1.01747   0.98262    0.018
 6826.00    1.05405   0.97568    0.019
 6827.00    1.05805   0.97472    0.019
 6828.00    1.05074   0.98154    0.019
 6829.00    0.99291   0.98901    0.019
 6830.00    0.92031   0.99225    0.019
 6831.00    0.98828   0.99298    0.019
 6832.00    1.09029   0.99239    0.019
 6833.00    1.08277   0.98670    0.019
 6834.00    1.05382   0.97590    0.019
 6835.00    1.09402   0.96958    0.020
 6836.00    1.14475   0.97365    0.020
 6837.00    1.14378   0.98137    0.021
 6838.00    1.13701   0.98228    0.021
 6839.00    1.09311   0.97767    0.021
 6840.00    1.04643   0.97946    0.021
 6841.00    0.99727   0.98759    0.020
 6842.00    0.94801   0.99121    0.020
 6843.00    0.94389   0.98818    0.019
 6844.00    0.94153   0.98269    0.019
 6845.00    0.99662   0.97462    0.019
 6846.00    1.04778   0.96354    0.019
 6847.00    1.03280   0.95224    0.019
 6848.00    1.01912   0.94627    0.019
 6849.00    1.01910   0.95129    0.019
 6850.00    1.02110   0.96472    0.019
 6851.00    1.03821   0.97704    0.019
 6852.00    1.04800   0.98140    0.019
 6853.00    1.01633   0.98122    0.019
 6854.00    0.97866   0.98235    0.019
 6855.00    0.91394   0.98268    0.019
 6856.00    0.88386   0.98007    0.020
 6857.00    0.98197   0.97813    0.020
 6858.00    1.03856   0.97965    0.020
 6859.00    0.96654   0.98185    0.021
 6860.00    0.94439   0.97647    0.021
 6861.00    1.05345   0.96283    0.020
 6862.00    1.11383   0.95538    0.020
 6863.00    1.06421   0.95933    0.020
 6864.00    1.03649   0.96523    0.019
 6865.00    1.05161   0.96896    0.019
 6866.00    1.02963   0.96694    0.019
 6867.00    0.94434   0.95594    0.019
 6868.00    0.93278   0.94885    0.019
 6869.00    1.03143   0.95936    0.019
 6870.00    1.04409   0.97838    0.019
 6871.00    0.94381   0.98790    0.019
 6872.00    0.93077   0.98364    0.019
 6873.00    1.01869   0.97125    0.019
 6874.00    1.05656   0.95928    0.019
 6875.00    1.04336   0.95875    0.018
 6876.00    0.99509   0.96900    0.018
 6877.00    0.91524   0.97253    0.019
 6878.00    0.89110   0.96429    0.019
 6879.00    0.91115   0.95968    0.020
 6880.00    0.93904   0.96467    0.020
 6881.00    0.97241   0.96993    0.020
 6882.00    1.03989   0.97275    0.020
 6883.00    1.12824   0.97894    0.020
 6884.00    1.10808   0.98799    0.020
 6885.00    1.02994   0.99302    0.019
 6886.00    0.97212   0.99108    0.019
 6887.00    0.92374   0.98249    0.019
 6888.00    0.94168   0.96930    0.019
 6889.00    0.98612   0.96013    0.019
 6890.00    1.00599   0.96318    0.019
 6891.00    1.01749   0.97322    0.018
 6892.00    1.02712   0.97774    0.019
 6893.00    1.03621   0.98007    0.019
 6894.00    1.06453   0.98735    0.019
 6895.00    1.09741   0.99361    0.019
 6896.00    1.07379   0.99696    0.019
 6897.00    1.03939   1.00047    0.019
 6898.00    1.07043   1.00005    0.019
 6899.00    1.11112   0.99582    0.020
 6900.00    1.06987   0.99415    0.020
 6901.00    1.01976   0.99264    0.020
 6902.00    0.95416   0.98818    0.020
 6903.00    0.88746   0.98754    0.020
 6904.00    1.00853   0.99289    0.020
 6905.00    1.13633   0.99467    0.020
 6906.00    1.14950   0.98830    0.020
 6907.00    1.16015   0.98481    0.020
 6908.00    1.09638   0.99195    0.019
 6909.00    1.03714   0.99922    0.019
 6910.00    1.04956   0.99826    0.019
 6911.00    1.05676   0.99468    0.019
 6912.00    1.01163   0.99589    0.018
 6913.00    0.98057   1.00133    0.018
 6914.00    1.05063   1.00524    0.018
 6915.00    1.10598   1.00681    0.019
 6916.00    1.08014   1.00700    0.019
 6917.00    1.05631   1.00299    0.019
 6918.00    1.04135   0.99574    0.019
 6919.00    1.02789   0.98828    0.019
 6920.00    1.01987   0.98090    0.019
 6921.00    1.03094   0.97962    0.020
 6922.00    1.10002   0.98515    0.020
 6923.00    1.11224   0.98757    0.021
 6924.00    0.97751   0.98848    0.020
 6925.00    0.92662   0.99288    0.020
 6926.00    1.06207   0.99805    0.021
 6927.00    1.15315   1.00249    0.021
 6928.00    1.15874   1.00496    0.020
 6929.00    1.14665   1.00219    0.020
 6930.00    1.10484   0.99094    0.020
 6931.00    1.10616   0.97658    0.020
 6932.00    1.17100   0.97060    0.020
 6933.00    1.16318   0.97728    0.020
 6934.00    1.06127   0.98907    0.020
 6935.00    0.94831   0.99679    0.020
 6936.00    0.82274   1.00029    0.019
 6937.00    0.83754   1.00062    0.019
 6938.00    0.99360   0.99644    0.019
 6939.00    1.07945   0.98855    0.020
 6940.00    1.10300   0.98574    0.020
 6941.00    1.05908   0.99337    0.020
 6942.00    0.96239   1.00016    0.020
 6943.00    0.92193   0.99936    0.020
 6944.00    0.92013   0.99702    0.020
 6945.00    0.96476   0.99884    0.020
 6946.00    1.03736   1.00466    0.020
 6947.00    1.11244   1.01002    0.021
 6948.00    1.18882   1.00996    0.021
 6949.00    1.13424   1.00264    0.021
 6950.00    1.01988   0.99060    0.021
 6951.00    1.00988   0.97873    0.021
 6952.00    1.04087   0.97674    0.020
 6953.00    0.99097   0.98818    0.020
 6954.00    0.91401   1.00117    0.020
 6955.00    0.98392   1.00786    0.020
 6956.00    1.09508   1.00807    0.019
 6957.00    1.09058   1.00060    0.019
 6958.00    1.05932   0.99164    0.019
 6959.00    1.05143   0.98714    0.019
 6960.00    1.04788   0.98412    0.020
 6961.00    1.05566   0.98490    0.020
 6962.00    1.06506   0.99389    0.019
 6963.00    1.04269   1.00442    0.020
 6964.00    1.01704   1.00806    0.020
 6965.00    0.99702   1.00677    0.020
 6966.00    0.97738   1.00613    0.020
 6967.00    0.96310   1.00718    0.020
 6968.00    0.94901   1.00889    0.020
 6969.00    0.97402   1.01002    0.020
 6970.00    0.99760   1.01161    0.020
 6971.00    0.97713   1.01103    0.020
 6972.00    0.95385   1.00627    0.021
 6973.00    0.88863   1.00558    0.020
 6974.00    0.84348   1.01328    0.020
 6975.00    0.99096   1.01998    0.020
 6976.00    1.11262   1.01744    0.020
 6977.00    1.05460   1.00876    0.020
 6978.00    0.99299   1.00497    0.020
 6979.00    0.91208   1.01066    0.019
 6980.00    0.84141   1.01405    0.019
 6981.00    0.81490   1.00709    0.019
 6982.00    0.83910   0.99693    0.019
 6983.00    1.04337   0.98482    0.020
 6984.00    1.18034   0.96294    0.020
 6985.00    1.11659   0.94169    0.020
 6986.00    1.06959   0.94545    0.020
 6987.00    1.06512   0.97067    0.020
 6988.00    1.03794   0.99307    0.020
 6989.00    0.96110   1.00657    0.020
 6990.00    0.93695   1.01442    0.020
 6991.00    1.01273   1.01738    0.021
 6992.00    1.04846   1.01796    0.021
 6993.00    1.01785   1.01731    0.020
 6994.00    0.99062   1.01275    0.020
 6995.00    0.96829   1.00340    0.020
 6996.00    1.00123   0.99545    0.020
 6997.00    1.10471   0.99707    0.020
 6998.00    1.15317   1.00679    0.020
 6999.00    1.13974   1.01449    0.020
 7000.00    1.10645   1.01308    0.020
 7001.00    1.05347   1.00774    0.020
 7002.00    1.05132   1.00732    0.020
 7003.00    1.09364   1.01046    0.020
 7004.00    1.09681   1.01052    0.020
 7005.00    1.06979   1.00315    0.020
 7006.00    1.04165   0.99082    0.020
 7007.00    1.01274   0.98727    0.020
 7008.00    1.02751   0.99763    0.020
 7009.00    1.06820   1.00818    0.021
 7010.00    1.02848   1.00567    0.021
 7011.00    0.94710   0.99617    0.020
 7012.00    0.92243   0.99336    0.020
 7013.00    0.92322   0.99633    0.021
 7014.00    0.92477   0.99997    0.021
 7015.00    0.92662   1.00505    0.021
 7016.00    0.92007   1.00934    0.021
 7017.00    0.91077   1.00774    0.021
 7018.00    0.92428   1.00537    0.021
 7019.00    0.94408   1.01002    0.020
 7020.00    0.99587   1.01327    0.020
 7021.00    1.05490   1.00063    0.020
 7022.00    1.01182   0.97435    0.020
 7023.00    0.95030   0.95948    0.020
 7024.00    0.95396   0.97499    0.020
 7025.00    0.96664   1.00215    0.020
 7026.00    0.99822   1.01722    0.020
 7027.00    1.03168   1.02158    0.020
 7028.00    1.05406   1.01965    0.020
 7029.00    1.07574   1.00715    0.020
 7030.00    0.97605   0.98961    0.020
 7031.00    0.87341   0.98223    0.020
 7032.00    0.90132   0.98933    0.021
 7033.00    0.93248   0.99908    0.021
 7034.00    1.05287   1.00296    0.021
 7035.00    1.16199   1.00574    0.021
 7036.00    1.11303   1.01102    0.022
 7037.00    1.06684   1.01599    0.022
 7038.00    1.04620   1.01686    0.021
 7039.00    1.02808   1.01436    0.021
 7040.00    1.02697   1.01263    0.021
 7041.00    1.02555   1.01495    0.021
 7042.00    1.02251   1.02087    0.021
 7043.00    1.02714   1.02050    0.020
 7044.00    1.06403   1.00374    0.020
 7045.00    1.08119   0.98657    0.020
 7046.00    1.02968   0.99639    0.020
 7047.00    0.96990   1.02601    0.020
 7048.00    0.88587   1.04776    0.020
 7049.00    0.86661   1.05398    0.020
 7050.00    1.00903   1.04863   -2.000
 7051.00    1.10206   1.03603   -2.000
 7052.00    1.08888   1.02842   -2.000
 7053.00    1.10173   1.03490   -2.000
 7054.00    1.16320   1.04744   -2.000
 7055.00    1.20308   1.05549   -2.000
 7056.00    1.20776   1.05477   -2.000
 7057.00    1.18153   1.04531   -2.000
 7058.00    1.11109   1.02744   -2.000
 7059.00    1.02249   1.00257   -2.000
 7060.00    0.91105   0.98134   -2.000
 7061.00    0.92025   0.97236   -2.000
 7062.00    1.06323   0.97600   -2.000
 7063.00    1.09521   0.98865   -2.000
 7064.00    1.01863   0.99766   -2.000
 7065.00    0.97550   0.99351   -2.000
 7066.00    0.96122   0.97955   -2.000
 7067.00    0.92301   0.96932   -2.000
 7068.00    0.86660   0.97031   -2.000
 7069.00    0.91904   0.97538   -2.000
 7070.00    1.04417   0.98023   -2.000
 7071.00    1.10397   0.98417   -2.000
 7072.00    1.12556   0.97911   -2.000
 7073.00    1.11851   0.96670   -2.000
 7074.00    1.09686   0.95642   -2.000
 7075.00    1.15584   0.95290   -2.000
 7076.00    1.25044   0.96332   -2.000
 7077.00    1.20936   0.98349   -2.000
 7078.00    1.11683   0.99716   -2.000
 7079.00    1.02865   1.00083   -2.000
 7080.00    0.94187   1.00208   -2.000
 7081.00    1.00202   1.00228   -2.000
 7082.00    1.10175   1.00058   -2.000
 7083.00    1.02471   1.00002   -2.000
 7084.00    0.90864   1.00169   -2.000
 7085.00    0.94853   1.00434   -2.000
 7086.00    1.01584   1.00679   -2.000
 7087.00   -0.07786   1.01025   -2.000
 7088.00   -1.32710   1.00925   -2.000
 7089.00   -0.25632   0.99669   -2.000
 7090.00    1.03492   0.97392   -2.000
 7091.00    1.05447   0.95257   -2.000
 7092.00    0.99941   0.94817   -2.000
 7093.00    0.98451   0.95348   -2.000
 7094.00    0.97104   0.94801   -2.000
 7095.00    1.01775   0.93734   -2.000
 7096.00    1.06010   0.93347   -2.000
 7097.00    0.99384   0.93489   -2.000
 7098.00    0.93102   0.94044   -2.000
 7099.00    0.91391   0.94431   -2.000
 7100.00    0.90424   0.94327   -2.000
 7101.00    0.96043   0.94313   -2.000
 7102.00    1.00733   0.94320   -2.000
 7103.00    0.99361   0.94386   -2.000
 7104.00    0.97805   0.94689   -2.000
 7105.00    0.95318   0.95408   -2.000
 7106.00    0.93960   0.96394   -2.000
 7107.00    0.97245   0.96574   -2.000
 7108.00    1.00637   0.95857   -2.000
 7109.00    1.04396   0.94856   -2.000
 7110.00    1.06246   0.94682   -2.000
 7111.00    1.02608   0.95714   -2.000
 7112.00    0.98035   0.96693   -2.000
 7113.00    0.91168   0.96472   -2.000
 7114.00    0.88739   0.95934   -2.000
 7115.00    0.95703   0.96047   -2.000
 7116.00    0.99052   0.96010   -2.000
 7117.00    0.95755   0.95012   -2.000
 7118.00    0.99399   0.94035   -2.000
 7119.00    1.14197   0.94386   -2.000
 7120.00    1.20745   0.95603   -2.000
 7121.00    1.15663   0.96419   -2.000
 7122.00    1.13884   0.96728   -2.000
 7123.00    1.16200   0.97025   -2.000
 7124.00    1.23879   0.97098   -2.000
 7125.00    1.37423   0.96961   -2.000
 7126.00    1.32841   0.96864   -2.000
 7127.00    1.10782   0.96764   -2.000
 7128.00    0.97704   0.96486   -2.000
 7129.00    0.92264   0.96178   -2.000
 7130.00    0.94747   0.96502   -2.000
 7131.00    1.03163   0.96292   -2.000
 7132.00    1.05754   0.94537   -2.000
 7133.00    1.04513   0.92951   -2.000
 7134.00    0.97784   0.92959   -2.000
 7135.00    0.87894   0.93511   -2.000
 7136.00    0.88382   0.92915   -2.000
 7137.00    0.94076   0.91495   -2.000
 7138.00    0.98265   0.91098   -2.000
 7139.00    1.01800   0.92219   -2.000
 7140.00    1.00595   0.93625   -2.000
 7141.00    0.97625   0.94597   -2.000
 7142.00    0.95520   0.94935   -2.000
 7143.00    0.93690   0.95074   -2.000
 7144.00    0.93492   0.95173   -2.000
 7145.00    0.93724   0.94442   -2.000
 7146.00    0.96227   0.93699   -2.000
 7147.00    0.99219   0.94313   -2.000
 7148.00    1.01103   0.95455   -2.000
 7149.00    1.02796   0.95745   -2.000
 7150.00    1.00357   0.95569   -2.000
 7151.00    0.97383   0.95495   -2.000
 7152.00    0.99782   0.95443   -2.000
 7153.00    1.02669   0.95149   -2.000
 7154.00    1.07186   0.93829   -2.000
 7155.00    1.11793   0.92383   -2.000
 7156.00    0.97893   0.92672   -2.000
 7157.00    0.83912   0.93791   -2.000
 7158.00    0.97929   0.94796   -2.000
 7159.00    1.11422   0.96134   -2.000
 7160.00    1.13028   0.97086   -2.000
 7161.00    1.13642   0.96701   -2.000
 7162.00    1.01766   0.96003   -2.000
 7163.00    0.91641   0.96673   -2.000
 7164.00    0.96461   0.97786   -2.000
 7165.00    1.00134   0.97393   -2.000
 7166.00    0.96533   0.96099   -2.000
 7167.00    0.93813   0.95569   -2.000
 7168.00    0.95462   0.96241   -2.000
 7169.00    0.97002   0.96931   -2.000
 7170.00    0.98104   0.96041   -2.000
 7171.00    0.98707   0.94095   -2.000
 7172.00    0.97642   0.93448   -2.000
 7173.00    0.95437   0.94959   -2.000
 7174.00    0.90017   0.96881   -2.000
 7175.00    0.86918   0.97634   -2.000
 7176.00    0.89421   0.97297   -2.000
 7177.00    0.91779   0.97164   -2.000
 7178.00    0.93835   0.97967   -2.000
 7179.00    0.99613   0.98956   -2.000
 7180.00    1.12132   0.99222   -2.000
 7181.00    1.13673   0.98656   -2.000
 7182.00    0.97836   0.97634   -2.000
 7183.00    0.86992   0.96985   -2.000
 7184.00    0.83084   0.97619   -2.000
 7185.00    0.82108   0.98437   -2.000
 7186.00    0.84716   0.97509   -2.000
 7187.00    0.91370   0.95372   -2.000
 7188.00    1.02383   0.94484   -2.000
 7189.00    0.99075   0.96023   -2.000
 7190.00    0.82148   0.98446   -2.000
 7191.00    0.78592   0.99406   -2.000
 7192.00    0.86246   0.98788   -2.000
 7193.00    0.87890   0.97075   -2.000
 7194.00    0.85099   0.94611   -2.000
 7195.00    0.84874   0.93208   -2.000
 7196.00    0.86313   0.93627   -2.000
 7197.00    0.88737   0.95132   -2.000
 7198.00    0.91721   0.96709   -2.000
 7199.00    1.02564   0.96904   -2.000
 7200.00    1.17290   0.96713   -2.000
 7201.00    1.08317   0.97273   -2.000
 7202.00    0.89225   0.97990   -2.000
 7203.00    0.84048   0.97516   -2.000
 7204.00    0.83962   0.96436   -2.000
 7205.00    0.82991   0.96624   -2.000
 7206.00    0.81745   0.97497   -2.000
 7207.00    0.84001   0.97560   -2.000
 7208.00    0.87160   0.96761   -2.000
 7209.00    0.91738   0.96447   -2.000
 7210.00    0.96614   0.97612   -2.000
 7211.00    0.96466   0.98866   -2.000
 7212.00    0.95484   0.98571   -2.000
 7213.00    1.07911   0.96288   -2.000
 7214.00    1.22013   0.93645   -2.000
 7215.00    1.06737   0.93280   -2.000
 7216.00    0.88917   0.94702   -2.000
 7217.00    0.82525   0.96777   -2.000
 7218.00    0.76713   0.98543   -2.000
