###################################################################
## OUTPUT of StarlightChains_v04.for    [Cid@UFSC - 01/Apr/2007] ##
###################################################################

## Some input info
KUG0210-078._26_27.txt                   [arq_obs]
Base.CB07.vall.4m                        [arq_base]
Masks.EmLines.NEW.gm                     [arq_masks]
StCv04.C11.config                        [arq_config]
   66                                    [N_base]
    0                                    [N_YAV_components = # of components with extra extinction!]
    0                                    [i_FitPowerLaw (1/0 = Yes/No)]
-9.99                                    [alpha_PowerLaw]
CCM                                      [red_law_option]
 1.458241                                [q_norm = A(l_norm)/A(V)]

## (Re)Sampling Parameters
 3741.00                                 [l_ini (A)]
 7218.00                                 [l_fin (A)]
    1.00                                 [dl    (A)]     (OBS: dl_cushion =    50.00 A)

## Normalization info
 4020.00                                 [l_norm (A) - for base]
 4010.00                                 [llow_norm (A) - window for f_obs]
 4060.00                                 [lupp_norm (A) - window for f_obs]
1.966566E-17                             [fobs_norm (in input units)]

## S/N
 3691.00                                 [llow_SN (A) - window for S/N]
 7268.00                                 [lupp_SN (A) - window for S/N]
   5.530                                 [S/N in S/N window]
   5.959                                 [S/N in norm. window]
   0.026                                 [S/N_err in S/N window]
   0.028                                 [S/N_err in norm. window]
  1.0000                                 [fscale_chi2]

## etc...
    -2007323                             [idum_orig]
  2420                                   [NOl_eff]
  2004                                   [Nl_eff]
   416    NSIGMA                         [Ntot_cliped & clip_method]
 11312000                                [Nglobal_steps]
   7                                     [N_chains]
  40                                     [NEX0s_base = N_base in EX0s-fits]
 0   0   1      416   2.0   1.794E+04    [Clip-Bug, RC-Crash & Burn-In warning-flags, n_censored_weights, wei_nsig_threshold & wei_limit]
    84     83.686     83.250      0.436  [idt_all, wdt_TotTime, wdt_UsrTime & wdt_SysTime (sec)]

## Synthesis Results - Best model ##

 1.26060E-05                             [chi2/Nl_eff]
     7.03005                             [adev (%)]

   101.41093                             [sum-of-x (%)]
 2.54078E-17                             [Flux_tot (units of input spectrum!)]
 1.26817E-12                             [Mini_tot (???)]
 6.36385E-13                             [Mcor_tot (???)]

 104.19                                  [v0_min  (km/s)]
 157.70                                  [vd_min  (km/s)]
 0.1803                                  [AV_min  (mag)]
 0.0000                                  [YAV_min (mag)]

# j     x_j(%)      Mini_j(%)     Mcor_j(%)     age_j(yr)     Z_j      (L/M)_j    YAV?  Mstars   component_j        a/Fe...       SSP_chi2r SSP_adev(%)   SSP_AV   SSP_x(%)
  1      7.2907     1.3166E-02    2.6237E-02    1.000000E+06  0.00400  1.094E-02    0   1.0000   age020_m42            0.0000     1.6387E-05    10.2380   3.0348    88.3346
  2      0.0720     3.5491E-05    7.0718E-05    3.160000E+06  0.00400  4.007E-02    0   0.9999   age045_m42            0.0000     1.5632E-05     9.5124   2.3829    91.3779
  3      0.1601     1.2456E-04    2.3552E-04    5.010000E+06  0.00400  2.539E-02    0   0.9488   age055_m42            0.0000     1.5755E-05     9.7207   2.6689    90.5045
  4      0.0000     0.0000E+00    0.0000E+00    6.610000E+06  0.00400  2.620E-02    0   0.9220   age061_m42            0.0000     1.5315E-05     9.2761   2.3081    91.6632
  5      0.0344     5.1410E-05    9.0789E-05    1.000000E+07  0.00400  1.322E-02    0   0.8862   age070_m42            0.0000     1.4325E-05     8.2108   1.9993    94.9764
  6      6.7568     1.6934E-02    2.8923E-02    1.445000E+07  0.00400  7.883E-03    0   0.8571   age078_m42            0.0000     1.4663E-05     8.5244   2.3149    92.9924
  7      0.0000     0.0000E+00    0.0000E+00    2.512000E+07  0.00400  5.251E-03    0   0.8174   age090_m42            0.0000     1.4209E-05     8.0153   1.8728    95.4210
  8      0.0000     0.0000E+00    0.0000E+00    4.000000E+07  0.00400  3.649E-03    0   0.7851   age104_m42            0.0000     1.4120E-05     7.9704   1.6594    95.6204
  9      0.0000     0.0000E+00    0.0000E+00    5.500000E+07  0.00400  3.098E-03    0   0.7629   age110_m42            0.0000     1.4456E-05     8.2976   1.8367    94.4957
 10      0.0000     0.0000E+00    0.0000E+00    1.015200E+08  0.00400  2.228E-03    0   0.7207   age116_m42            0.0000     1.4597E-05     8.4743   1.8714    94.0094
 11      0.2496     4.5123E-03    5.9778E-03    2.861200E+08  0.00400  1.093E-03    0   0.6648   age125_m42            0.0000     1.4115E-05     7.8352   1.2986    96.9051
 12      0.0000     0.0000E+00    0.0000E+00    5.088000E+08  0.00400  6.597E-04    0   0.6365   age130_m42            0.0000     1.4187E-05     8.0533   1.3141    96.5764
 13      0.0000     0.0000E+00    0.0000E+00    1.434000E+09  0.00400  2.132E-04    0   0.5798   age139_m42            0.0000     1.3238E-05     7.6326   0.3700    97.4446
 14      0.0000     0.0000E+00    0.0000E+00    4.250000E+09  0.00400  5.895E-05    0   0.5377   age158_m42            0.0000     1.3630E-05     8.3682  -0.0802    93.9881
 15      0.0511     2.8786E-02    2.9898E-02    7.500000E+09  0.00400  3.510E-05    0   0.5212   age171_m42            0.0000     1.3849E-05     8.5186  -0.2636    93.1009
 16      0.0000     0.0000E+00    0.0000E+00    1.300000E+10  0.00400  2.005E-05    0   0.5034   age193_m42            0.0000     1.4282E-05     8.7045  -0.4276    92.4797
 17      5.6772     7.3549E+00    7.2799E+00    1.800000E+10  0.00400  1.525E-05    0   0.4967   age213_m42            0.0000     1.4194E-05     8.6611  -0.4542    92.2313
 18      0.0052     8.2634E-06    1.6467E-05    1.000000E+06  0.00800  1.238E-02    0   1.0000   age020_m52            0.0000     1.6379E-05    10.2357   3.0325    88.4692
 19      8.9814     5.7723E-03    1.1464E-02    3.160000E+06  0.00800  3.074E-02    0   0.9966   age045_m52            0.0000     1.6269E-05    10.2074   2.9617    89.0252
 20      0.0000     0.0000E+00    0.0000E+00    5.010000E+06  0.00800  2.668E-02    0   0.9443   age055_m52            0.0000     1.5734E-05     9.7417   2.7420    90.0875
 21      0.0000     0.0000E+00    0.0000E+00    6.610000E+06  0.00800  2.136E-02    0   0.9177   age061_m52            0.0000     1.3780E-05     8.2016   1.4914    96.4806
 22     10.7586     1.7494E-02    3.0772E-02    1.000000E+07  0.00800  1.215E-02    0   0.8827   age070_m52            0.0000     1.4243E-05     7.9905   2.1641    95.3766
 23      0.0000     0.0000E+00    0.0000E+00    1.445000E+07  0.00800  8.717E-03    0   0.8552   age078_m52            0.0000     1.4493E-05     8.3549   2.2852    94.0847
 24      2.2303     7.8796E-03    1.2816E-02    2.512000E+07  0.00800  5.592E-03    0   0.8162   age090_m52            0.0000     1.4095E-05     7.8023   1.9440    96.2270
 25      0.0000     0.0000E+00    0.0000E+00    4.000000E+07  0.00800  3.896E-03    0   0.7841   age104_m52            0.0000     1.4131E-05     7.8404   1.8750    96.0746
 26      0.0000     0.0000E+00    0.0000E+00    1.015200E+08  0.00800  2.148E-03    0   0.7226   age116_m52            0.0000     1.4305E-05     8.1703   1.8335    94.9938
 27      0.0000     0.0000E+00    0.0000E+00    2.861200E+08  0.00800  9.925E-04    0   0.6683   age125_m52            0.0000     1.4042E-05     7.9803   1.3827    97.3187
 28      0.0000     0.0000E+00    0.0000E+00    9.047900E+08  0.00800  3.141E-04    0   0.6138   age135_m52            0.0000     1.3504E-05     7.7986   0.6411    98.7062
 29      0.0000     0.0000E+00    0.0000E+00    1.434000E+09  0.00800  1.719E-04    0   0.5853   age139_m52            0.0000     1.3184E-05     7.6713   0.0364    97.7399
 30      0.1837     4.6093E-02    5.1438E-02    2.500000E+09  0.00800  7.872E-05    0   0.5600   age150_m52            0.0000     1.3681E-05     8.3323  -0.2205    94.6443
 31      0.0000     0.0000E+00    0.0000E+00    4.250000E+09  0.00800  4.336E-05    0   0.5426   age158_m52            0.0000     1.3806E-05     8.4210  -0.2361    93.7786
 32      0.0000     0.0000E+00    0.0000E+00    6.250000E+09  0.00800  3.159E-05    0   0.5319   age166_m52            0.0000     1.4276E-05     8.6807  -0.4284    93.2985
 33      0.0000     0.0000E+00    0.0000E+00    1.300000E+10  0.00800  1.361E-05    0   0.5073   age193_m52            0.0000     1.5088E-05     9.0083  -0.8809    92.0077
 34      0.0000     0.0000E+00    0.0000E+00    1.800000E+10  0.00800  9.886E-06    0   0.4990   age213_m52            0.0000     1.5796E-05     9.3214  -0.9756    90.9490
 35      0.0000     0.0000E+00    0.0000E+00    1.000000E+06  0.02000  1.544E-02    0   1.0000   age020_m62            0.0000     1.6387E-05    10.2598   3.0243    88.8251
 36      0.4629     2.4308E-04    4.7752E-04    3.160000E+06  0.02000  3.762E-02    0   0.9858   age045_m62            0.0000     1.6303E-05    10.2661   2.9653    89.5161
 37      1.1636     6.9747E-04    1.2984E-03    5.010000E+06  0.02000  3.296E-02    0   0.9342   age055_m62            0.0000     1.5686E-05     9.6935   2.6415    91.0969
 38      0.0000     0.0000E+00    0.0000E+00    8.710000E+06  0.02000  1.154E-02    0   0.8861   age067_m62            0.0000     1.3622E-05     6.8484   1.5402   101.9311
 39      0.0000     0.0000E+00    0.0000E+00    1.445000E+07  0.02000  7.663E-03    0   0.8472   age078_m62            0.0000     1.3846E-05     7.4084   1.7960    98.2762
 40      0.0000     0.0000E+00    0.0000E+00    2.512000E+07  0.02000  4.532E-03    0   0.8099   age090_m62            0.0000     1.3870E-05     7.3148   1.7892    97.9601
 41      0.0000     0.0000E+00    0.0000E+00    5.500000E+07  0.02000  2.733E-03    0   0.7595   age110_m62            0.0000     1.3935E-05     7.7978   1.8463    95.9098
 42      0.0000     0.0000E+00    0.0000E+00    1.609000E+08  0.02000  1.369E-03    0   0.6985   age120_m62            0.0000     1.4104E-05     8.0302   1.7257    96.6463
 43      0.3948     8.6530E-03    1.1577E-02    2.861200E+08  0.02000  9.013E-04    0   0.6714   age125_m62            0.0000     1.4059E-05     7.9971   1.5055    98.0818
 44      8.1210     3.1910E-01    4.1008E-01    5.088000E+08  0.02000  5.028E-04    0   0.6449   age130_m62            0.0000     1.4195E-05     8.2485   1.1775    98.3636
 45      4.0244     3.2746E-01    4.0321E-01    9.047900E+08  0.02000  2.428E-04    0   0.6179   age135_m62            0.0000     1.3597E-05     8.1367   0.6001    97.3556
 46      0.0000     0.0000E+00    0.0000E+00    1.434000E+09  0.02000  1.263E-04    0   0.5908   age139_m62            0.0000     1.3493E-05     8.1700   0.1498    96.1922
 47      0.0000     0.0000E+00    0.0000E+00    2.500000E+09  0.02000  5.985E-05    0   0.5673   age150_m62            0.0000     1.4063E-05     8.6602  -0.2136    94.6859
 48      0.0000     0.0000E+00    0.0000E+00    4.250000E+09  0.02000  3.271E-05    0   0.5468   age158_m62            0.0000     1.5050E-05     9.1276  -0.5047    93.2468
 49      0.0000     0.0000E+00    0.0000E+00    1.000000E+10  0.02000  1.360E-05    0   0.5167   age181_m62            0.0000     1.6293E-05     9.4452  -0.8251    91.6186
 50      0.4124     1.1436E+00    1.1424E+00    1.800000E+10  0.02000  7.124E-06    0   0.5013   age213_m62            0.0000     1.7461E-05     9.7482  -1.0000    89.5630
 51      0.3280     2.4997E-04    4.9802E-04    1.000000E+06  0.05000  2.592E-02    0   0.9998   age020_m72            0.0000     1.6385E-05    10.2710   3.0097    89.1196
 52      1.4584     5.9471E-04    1.1350E-03    3.160000E+06  0.05000  4.845E-02    0   0.9577   age045_m72            0.0000     1.6178E-05    10.1325   2.8722    89.7548
 53      0.0000     0.0000E+00    0.0000E+00    5.010000E+06  0.05000  3.072E-02    0   0.9147   age055_m72            0.0000     1.4662E-05     8.3584   2.3739    94.5315
 54      8.1924     1.1124E-02    1.9678E-02    6.610000E+06  0.05000  1.455E-02    0   0.8877   age061_m72            0.0000     1.5929E-05     8.3447   1.5411   104.4659
 55      0.0000     0.0000E+00    0.0000E+00    1.000000E+07  0.05000  9.074E-03    0   0.8524   age070_m72            0.0000     1.5705E-05     9.1080   2.5484    94.2545
 56      5.1566     2.3971E-02    3.7746E-02    2.512000E+07  0.05000  4.250E-03    0   0.7902   age090_m72            0.0000     1.4897E-05     8.2957   2.2830    94.8035
 57      0.0000     0.0000E+00    0.0000E+00    4.000000E+07  0.05000  3.087E-03    0   0.7618   age104_m72            0.0000     1.4705E-05     8.0319   2.0628    96.1073
 58      0.0000     0.0000E+00    0.0000E+00    1.015200E+08  0.05000  1.700E-03    0   0.7096   age116_m72            0.0000     1.4213E-05     7.8513   1.8558    96.7552
 59      0.0000     0.0000E+00    0.0000E+00    2.861200E+08  0.05000  7.384E-04    0   0.6633   age125_m72            0.0000     1.3906E-05     7.9907   1.4036    98.0333
 60      0.0000     0.0000E+00    0.0000E+00    5.088000E+08  0.05000  3.819E-04    0   0.6372   age130_m72            0.0000     1.3594E-05     8.2313   0.9460    98.0676
 61      0.1024     1.2070E-02    1.4696E-02    9.047900E+08  0.05000  1.676E-04    0   0.6110   age135_m72            0.0000     1.3893E-05     8.7512   0.2630    95.7409
 62      1.0837     2.4228E-01    2.8360E-01    1.434000E+09  0.05000  8.837E-05    0   0.5874   age139_m72            0.0000     1.4120E-05     8.5703  -0.1987    95.4026
 63      0.1990     9.2871E-02    1.0360E-01    2.500000E+09  0.05000  4.233E-05    0   0.5598   age150_m72            0.0000     1.5291E-05     9.2081  -0.4922    93.4735
 64      5.1114     7.0371E+00    7.3608E+00    6.250000E+09  0.05000  1.435E-05    0   0.5249   age166_m72            0.0000     1.6687E-05     9.5803  -0.9129    90.8614
 65     12.0191     3.6458E+01    3.6588E+01    1.300000E+10  0.05000  6.513E-06    0   0.5036   age193_m72            0.0000     1.9074E-05     9.7135  -1.0000    85.8324
 66     10.7298     4.6826E+01    4.6143E+01    1.800000E+10  0.05000  4.527E-06    0   0.4945   age213_m72            0.0000     2.1727E-05    10.0109  -1.0000    80.8959


## Synthesis Results - Average & Chains ##

# j      x_j: min, <> & last-chain-values for 1 ...  7 chains
  1      7.2907      0.1321      0.4022      0.6153      0.3342      0.0214      0.2847      0.0081      1.1368
  2      0.0720      2.0365      1.6109      1.6866      1.5930      2.1854      1.8168      1.8157      1.2303
  3      0.1601      0.1638      0.5108      0.8052      0.5906      0.0000      0.0000      0.0349      0.1043
  4      0.0000      0.1320      0.2750      0.5005      0.2102      0.0776      0.9294      0.0936      0.0000
  5      0.0344      0.1591      0.3444      0.5381      0.0000      0.6003      0.0843      0.1575      0.0626
  6      6.7568      0.1528      0.3841      0.7351      0.1327      0.1675      0.0000      0.0243      0.8758
  7      0.0000      0.0725      0.5185      0.2377      0.0000      0.0833      0.1003      0.1388      0.3555
  8      0.0000      0.1401      0.0000      0.3891      0.0000      0.0000      0.7818      0.0959      0.8819
  9      0.0000      0.1299      0.4272      0.4982      0.8540      0.0067      0.0582      0.0749      0.5402
 10      0.0000      0.1050      0.1246      0.0000      0.0137      0.0000      0.2534      0.0236      0.3380
 11      0.2496      1.2102      0.6295      1.5454      1.1017      1.1905      1.6719      0.7991      1.0390
 12      0.0000      0.4589      0.0000      0.2471      0.0000      0.7352      0.0000      0.3626      1.0099
 13      0.0000      0.1175      0.1435      0.3744      0.3906      0.1319      0.0596      0.0664      0.2277
 14      0.0000      0.1093      0.0000      0.0000      0.2596      0.0642      0.2340      0.0000      0.3878
 15      0.0511      0.1407      0.6979      1.0365      0.1762      0.0000      0.5265      0.0823      0.0000
 16      0.0000      0.1416      0.1094      0.0000      0.8998      0.1149      0.0675      0.0000      0.3201
 17      5.6772      0.1289      0.9092      0.5642      0.0926      0.1361      0.1596      0.0268      0.2892
 18      0.0052      0.1151      0.6401      0.1902      0.3029      0.0000      0.5835      0.1451      0.1263
 19      8.9814      0.1349      0.2884      0.0000      0.1918      0.0793      0.4901      0.0533      0.0000
 20      0.0000      0.1253      0.0000      0.1870      0.0657      0.1559      0.0000      0.0050      0.0000
 21      0.0000      0.0979      0.0000      0.0000      0.5972      0.0869      0.1575      0.1169      0.0622
 22     10.7586      0.1180      0.9466      0.0000      0.0895      0.2468      0.2586      0.0000      0.0000
 23      0.0000      0.1031      0.0000      0.0000      0.4741      0.0788      0.0567      0.1269      0.0942
 24      2.2303      0.0997      0.2820      0.1035      0.1937      0.1550      0.0000      0.0122      0.0000
 25      0.0000      0.1248      1.1997      0.4865      0.0000      0.2211      0.0000      0.0519      0.0000
 26      0.0000      0.1085      0.0000      0.0000      0.2666      0.1011      0.0527      0.0000      0.1294
 27      0.0000      0.1359      0.9968      0.4669      0.0015      0.1751      0.0000      0.0534      0.7549
 28      0.0000      0.1301      0.2752      0.0516      0.4179      0.0085      0.2393      0.0936      0.0709
 29      0.0000      0.1322      0.0000      0.2111      0.0000      0.0510      0.2785      0.0920      0.4173
 30      0.1837      0.1200      0.6203      0.0000      0.0000      0.1005      0.0000      0.0497      0.3703
 31      0.0000      0.1115      0.0242      0.2991      0.1855      0.0124      0.0000      0.1057      0.3771
 32      0.0000      0.1626      0.3925      0.0000      0.4195      0.2541      0.0832      0.0856      0.4755
 33      0.0000      0.1287      0.7372      0.9135      0.1231      0.0609      0.3759      0.0478      0.4571
 34      0.0000      0.1631      0.0000      0.0737      0.0862      0.0274      1.5235      0.0208      0.0000
 35      0.0000      0.1516      0.1115      1.5436      0.0000      0.3804      0.1032      0.0604      0.0000
 36      0.4629      2.4956      2.3498      2.7743      2.2174      2.8875      2.6312      2.6103      2.1897
 37      1.1636      0.1226      0.9147      0.0000      0.3389      0.0000      0.0647      0.0000      0.3449
 38      0.0000      0.1258      0.2549      0.0103      0.0000      0.0081      0.0000      0.0537      0.0539
 39      0.0000      0.1287      0.1999      0.4129      0.0819      0.4790      0.0000      0.0637      0.0000
 40      0.0000      0.1244      0.0672      0.5528      0.1393      0.0476      0.4770      0.0268      0.2469
 41      0.0000      0.1610      0.0687      0.0000      0.1651      0.1864      0.4513      0.1753      0.1076
 42      0.0000      0.1638      0.0000      0.3421      1.7543      0.0698      0.3075      0.0625      0.5054
 43      0.3948      0.1571      0.3360      0.3455      0.0000      0.0498      1.3876      0.0315      0.0294
 44      8.1210      0.3778      0.4737      0.0000      0.8276      0.2888      0.3771      0.0077      0.3475
 45      4.0244      9.5823      8.0908      7.8929      7.8748      9.7168      8.8580     11.6619      8.9017
 46      0.0000      0.1206      0.0727      0.2583      0.1107      0.0000      0.0551      0.0795      0.0000
 47      0.0000      0.0956      0.4643      0.0000      0.0000      0.0000      0.0367      0.1124      0.0110
 48      0.0000      0.1436      0.1442      0.5508      0.1478      0.2351      0.9852      0.0407      0.1585
 49      0.0000      0.0907      0.3598      0.3032      0.0000      0.0812      0.4035      0.0045      0.0211
 50      0.4124      5.3730      4.8884      5.0344      5.6852      5.4732      5.6770      6.2540      5.8876
 51      0.3280      0.9911      1.6943      0.8603      1.4502      1.0082      0.8360      0.9749      0.8945
 52      1.4584      1.4342      2.0208      0.8038      1.6149      1.3781      1.2070      1.4428      1.5702
 53      0.0000      0.0969      0.3552      0.0000      0.1752      0.0000      0.0388      0.0742      0.4676
 54      8.1924      0.1303      0.3549      0.1280      0.0000      0.0000      0.3252      0.0331      0.2806
 55      0.0000      0.1080      0.0000      1.1069      0.0000      0.1253      0.1849      0.0214      0.1522
 56      5.1566      0.1214      0.6662      0.9825      0.3541      0.0228      0.0000      0.0503      0.2113
 57      0.0000      0.1063      0.0000      0.0000      0.5101      0.0000      0.0000      0.0178      0.0237
 58      0.0000      0.1428      0.0000      0.2647      0.4657      0.0205      0.4293      0.0557      0.0000
 59      0.0000      0.0792      0.2785      0.0000      0.0000      0.0000      0.0000      0.0223      0.0548
 60      0.0000      0.2317      0.3993      0.6735      0.4305      0.0000      0.9666      0.1677      0.1437
 61      0.1024     39.8931     34.6760     32.4107     35.7153     39.8949     35.9734     42.1158     37.1427
 62      1.0837      0.1316      0.5743      0.1713      0.0000      0.0000      1.1407      0.0333      0.4809
 63      0.1990      0.1171      0.3551      0.5082      0.1250      0.1976      0.0756      0.1777      0.4277
 64      5.1114      0.9257      0.9617      2.8692      0.7692      0.6845      0.7331      0.8751      0.8649
 65     12.0191      7.5791      8.7338      8.6679      9.1258      7.6333      7.8477      6.1985      7.9197
 66     10.7298     25.6487     21.3493     22.6065     24.5494     26.5434     21.5316     26.1596     23.2332

# j      m_j: min, <> & last-chain-values for 1 ...  7 chains
  1  2.6237E-02  3.0093E-04  1.0074E-03  1.4615E-03  7.5895E-04  4.7761E-05  7.0407E-04  1.8456E-05  2.7156E-03
  2  7.0718E-05  1.2666E-03  1.1015E-03  1.0936E-03  9.8743E-04  1.3303E-03  1.2267E-03  1.1306E-03  8.0236E-04
  3  2.3552E-04  1.5257E-04  5.2302E-04  7.8185E-04  5.4824E-04  0.0000E+00  0.0000E+00  3.2587E-05  1.0189E-04
  4  0.0000E+00  1.1575E-04  2.6516E-04  4.5767E-04  1.8371E-04  6.6640E-05  8.8496E-04  8.2193E-05  0.0000E+00
  5  9.0789E-05  2.6578E-04  6.3264E-04  9.3727E-04  0.0000E+00  9.8163E-04  1.5292E-04  2.6338E-04  1.0969E-04
  6  2.8923E-02  4.1409E-04  1.1443E-03  2.0768E-03  3.5840E-04  4.4420E-04  0.0000E+00  6.6058E-05  2.4886E-03
  7  0.0000E+00  2.8130E-04  2.2118E-03  9.6133E-04  0.0000E+00  3.1623E-04  4.2226E-04  5.3928E-04  1.4463E-03
  8  0.0000E+00  7.5115E-04  0.0000E+00  2.1751E-03  0.0000E+00  0.0000E+00  4.5512E-03  5.1479E-04  4.9588E-03
  9  0.0000E+00  7.9749E-04  2.8830E-03  3.1880E-03  5.2242E-03  4.0379E-05  3.8764E-04  4.6046E-04  3.4767E-03
 10  0.0000E+00  8.4662E-04  1.1044E-03  0.0000E+00  1.1017E-04  0.0000E+00  2.2178E-03  1.9086E-04  2.8571E-03
 11  5.9778E-03  1.8347E-02  1.0492E-02  2.4424E-02  1.6645E-02  1.7664E-02  2.7515E-02  1.2129E-02  1.6516E-02
 12  0.0000E+00  1.1034E-02  0.0000E+00  6.1959E-03  0.0000E+00  1.7304E-02  0.0000E+00  8.7302E-03  2.5466E-02
 13  0.0000E+00  7.9674E-03  1.0697E-02  2.6456E-02  2.6390E-02  8.7473E-03  4.3853E-03  4.5047E-03  1.6181E-02
 14  0.0000E+00  2.4843E-02  0.0000E+00  0.0000E+00  5.8828E-02  1.4286E-02  5.7762E-02  0.0000E+00  9.2434E-02
 15  2.9898E-02  5.2090E-02  2.8397E-01  3.9993E-01  6.5012E-02  0.0000E+00  2.1152E-01  3.0501E-02  0.0000E+00
 16  0.0000E+00  8.8628E-02  7.5269E-02  0.0000E+00  5.6122E-01  7.0347E-02  4.5829E-02  0.0000E+00  2.1006E-01
 17  7.2799E+00  1.0467E-01  8.1149E-01  4.7750E-01  7.4881E-02  1.0811E-01  1.4061E-01  2.1760E-02  2.4620E-01
 18  1.6467E-05  2.3182E-04  1.4167E-03  3.9924E-04  6.0785E-04  0.0000E+00  1.2753E-03  2.9250E-04  2.6671E-04
 19  1.1464E-02  1.0901E-04  2.5617E-04  0.0000E+00  1.5445E-04  6.2736E-05  4.2990E-04  4.3125E-05  0.0000E+00
 20  0.0000E+00  1.1049E-04  0.0000E+00  1.7198E-04  5.7729E-05  1.3460E-04  0.0000E+00  4.4061E-06  0.0000E+00
 21  0.0000E+00  1.0484E-04  0.0000E+00  0.0000E+00  6.3737E-04  9.1058E-05  1.8306E-04  1.2532E-04  6.9818E-05
 22  3.0772E-02  2.1366E-04  1.8844E-03  0.0000E+00  1.6153E-04  4.3734E-04  5.0839E-04  0.0000E+00  0.0000E+00
 23  0.0000E+00  2.5201E-04  0.0000E+00  0.0000E+00  1.1555E-03  1.8853E-04  1.5058E-04  3.1056E-04  2.4145E-04
 24  1.2816E-02  3.6282E-04  1.1279E-03  3.9259E-04  7.0226E-04  5.5173E-04  0.0000E+00  4.4495E-05  0.0000E+00
 25  0.0000E+00  6.2583E-04  6.6160E-03  2.5440E-03  0.0000E+00  1.0855E-03  0.0000E+00  2.6059E-04  0.0000E+00
 26  0.0000E+00  9.0985E-04  0.0000E+00  0.0000E+00  2.2278E-03  8.2939E-04  4.8000E-04  0.0000E+00  1.1373E-03
 27  0.0000E+00  2.2810E-03  1.8392E-02  8.1689E-03  2.4779E-05  2.8759E-03  0.0000E+00  8.9678E-04  1.3284E-02
 28  0.0000E+00  6.3379E-03  1.4735E-02  2.6211E-03  2.0286E-02  4.0577E-04  1.2651E-02  4.5657E-03  3.6227E-03
 29  0.0000E+00  1.1222E-02  0.0000E+00  1.8677E-02  0.0000E+00  4.2373E-03  2.5658E-02  7.8191E-03  3.7136E-02
 30  5.1438E-02  2.1278E-02  1.2091E-01  0.0000E+00  0.0000E+00  1.7437E-02  0.0000E+00  8.8172E-03  6.8851E-02
 31  0.0000E+00  3.4770E-02  8.2897E-03  9.7260E-02  5.7653E-02  3.7801E-03  0.0000E+00  3.3003E-02  1.2332E-01
 32  0.0000E+00  6.8218E-02  1.8111E-01  0.0000E+00  1.7545E-01  1.0437E-01  3.7912E-02  3.5957E-02  2.0922E-01
 33  0.0000E+00  1.1956E-01  7.5292E-01  8.8475E-01  1.1399E-01  5.5403E-02  3.7914E-01  4.4470E-02  4.4529E-01
 34  0.0000E+00  2.0522E-01  0.0000E+00  9.6641E-02  1.0803E-01  3.3726E-02  2.0808E+00  2.6207E-02  0.0000E+00
 35  0.0000E+00  2.4477E-04  1.9792E-04  2.5978E-03  0.0000E+00  6.0095E-04  1.8084E-04  9.7559E-05  0.0000E+00
 36  4.7752E-04  1.6299E-03  1.6872E-03  1.8890E-03  1.4434E-03  1.8457E-03  1.8655E-03  1.7069E-03  1.4996E-03
 37  1.2984E-03  8.6592E-05  7.1044E-04  0.0000E+00  2.3863E-04  0.0000E+00  4.9581E-05  0.0000E+00  2.5546E-04
 38  0.0000E+00  2.4082E-04  5.3640E-04  2.0583E-05  0.0000E+00  1.5079E-05  0.0000E+00  1.0285E-04  1.0813E-04
 39  0.0000E+00  3.5450E-04  6.0567E-04  1.1862E-03  2.2490E-04  1.2918E-03  0.0000E+00  1.7581E-04  0.0000E+00
 40  0.0000E+00  5.5420E-04  3.2913E-04  2.5672E-03  6.1842E-04  2.0772E-04  2.3064E-03  1.1945E-04  1.1533E-03
 41  0.0000E+00  1.1150E-03  5.2326E-04  0.0000E+00  1.1394E-03  1.2636E-03  3.3932E-03  1.2158E-03  7.8138E-04
 42  0.0000E+00  2.0830E-03  0.0000E+00  4.5352E-03  2.2235E-02  8.6934E-04  4.2448E-03  7.9637E-04  6.7395E-03
 43  1.1577E-02  2.9173E-03  6.8575E-03  6.6871E-03  0.0000E+00  9.0554E-04  2.7968E-02  5.8498E-04  5.7163E-04
 44  4.1008E-01  1.2077E-02  1.6650E-02  0.0000E+00  2.6370E-02  9.0359E-03  1.3088E-02  2.4758E-04  1.1650E-02
 45  4.0321E-01  6.0779E-01  5.6421E-01  5.2194E-01  4.9782E-01  6.0321E-01  6.0995E-01  7.4060E-01  5.9204E-01
 46  0.0000E+00  1.4065E-02  9.3216E-03  3.1393E-02  1.2863E-02  0.0000E+00  6.9719E-03  9.2751E-03  0.0000E+00
 47  0.0000E+00  2.2581E-02  1.2059E-01  0.0000E+00  0.0000E+00  0.0000E+00  9.4062E-03  2.6586E-02  2.7371E-03
 48  0.0000E+00  5.9845E-02  6.6072E-02  2.3926E-01  6.1370E-02  9.5866E-02  4.4563E-01  1.6971E-02  6.9225E-02
 49  0.0000E+00  8.5913E-02  3.7457E-01  2.9936E-01  0.0000E+00  7.5267E-02  4.1475E-01  4.2670E-03  2.0982E-02
 50  1.1424E+00  9.4233E+00  9.4257E+00  9.2053E+00  9.9377E+00  9.3949E+00  1.0809E+01  1.0982E+01  1.0827E+01
 51  4.9802E-04  9.5281E-04  1.7908E-03  8.6231E-04  1.3895E-03  9.4867E-04  8.7252E-04  9.3843E-04  9.0170E-04
 52  1.1350E-03  7.0660E-04  1.0946E-03  4.1287E-04  7.9296E-04  6.6450E-04  6.4555E-04  7.1167E-04  8.1115E-04
 53  0.0000E+00  7.1909E-05  2.8980E-04  0.0000E+00  1.2962E-04  0.0000E+00  3.1298E-05  5.5142E-05  3.6387E-04
 54  1.9678E-02  1.9807E-04  5.9339E-04  2.0288E-04  0.0000E+00  0.0000E+00  5.3678E-04  5.0398E-05  4.4742E-04
 55  0.0000E+00  2.5277E-04  0.0000E+00  2.7019E-03  0.0000E+00  2.8710E-04  4.6992E-04  5.0102E-05  3.7353E-04
 56  3.7746E-02  5.6257E-04  3.3942E-03  4.7467E-03  1.6355E-03  1.0360E-04  0.0000E+00  2.3326E-04  1.0266E-03
 57  0.0000E+00  6.5389E-04  0.0000E+00  0.0000E+00  3.1271E-03  0.0000E+00  0.0000E+00  1.0981E-04  1.5314E-04
 58  0.0000E+00  1.4852E-03  0.0000E+00  2.8709E-03  4.8285E-03  2.0865E-04  4.8482E-03  5.8026E-04  0.0000E+00
 59  0.0000E+00  1.7742E-03  6.8556E-03  0.0000E+00  0.0000E+00  0.0000E+00  0.0000E+00  4.9893E-04  1.2854E-03
 60  0.0000E+00  9.6374E-03  1.8257E-02  2.9198E-02  1.7841E-02  0.0000E+00  4.3636E-02  6.9826E-03  6.2650E-03
 61  1.4696E-02  3.6248E+00  3.4640E+00  3.0702E+00  3.2343E+00  3.5478E+00  3.5484E+00  3.8314E+00  3.5387E+00
 62  2.8360E-01  2.1810E-02  1.0461E-01  2.9592E-02  0.0000E+00  0.0000E+00  2.0516E-01  5.5179E-03  8.3541E-02
 63  1.0360E-01  3.8612E-02  1.2867E-01  1.7465E-01  4.1076E-02  6.3740E-02  2.7065E-02  5.8633E-02  1.4783E-01
 64  7.3608E+00  8.4393E-01  9.6391E-01  2.7271E+00  6.9894E-01  6.1079E-01  7.2552E-01  7.9879E-01  8.2680E-01
 65  3.6588E+01  1.4606E+01  1.8505E+01  1.7415E+01  1.7528E+01  1.4398E+01  1.6419E+01  1.1960E+01  1.6004E+01
 66  4.6143E+01  6.9829E+01  6.3903E+01  6.4166E+01  6.6613E+01  7.0727E+01  6.3638E+01  7.1307E+01  6.6324E+01

# AV, chi2 & Mass for <> & i_chain = 1 ...  7 solutions
AV       0.1803     -0.6459     -0.4941     -0.5483     -0.5779     -0.6125     -0.5258     -0.6092     -0.5578
chi2 1.2606E-05  1.5303E-05  1.4592E-05  1.4771E-05  1.4920E-05  1.5164E-05  1.4712E-05  1.5211E-05  1.4931E-05
Mass 6.3638E-13  3.3140E-13  3.6961E-13  3.6239E-13  3.6432E-13  3.5414E-13  3.5872E-13  3.4773E-13  3.5575E-13
 104.19                                  [v0_min (km/s) before EX0s...]
 157.70                                  [vd_min (km/s) before EX0s...]


## Synthetic spectrum (Best Model) ##l_obs f_obs f_syn wei
 3478    [Nl_obs]
 3741.00    0.52280   0.74056    0.000
 3742.00    0.67274   0.75976    0.000
 3743.00    0.89637   0.76366    0.000
 3744.00    0.56120   0.75340    0.000
 3745.00   -0.09955   0.73274    0.000
 3746.00    0.02214   0.70578   -1.000
 3747.00    0.54116   0.67497   -1.000
 3748.00    0.60727   0.64305   -1.000
 3749.00    0.47421   0.61517   -1.000
 3750.00    0.16514   0.59756   -1.000
 3751.00   -0.21040   0.59602    0.000
 3752.00   -0.17078   0.61384    0.000
 3753.00    0.00190   0.64839   -1.000
 3754.00    0.36825   0.69057   -1.000
 3755.00    0.78651   0.72964   -1.000
 3756.00    0.47313   0.75802   -1.000
 3757.00   -0.00084   0.77285    0.000
 3758.00   -0.05134   0.77596    0.000
 3759.00   -0.02791   0.77277    0.000
 3760.00    0.24719   0.76987   -1.000
 3761.00    0.55572   0.77085   -1.000
 3762.00    0.45751   0.77437   -1.000
 3763.00    0.32108   0.77656   -1.000
 3764.00    0.33290   0.77399   -1.000
 3765.00    0.35328   0.76499   -1.000
 3766.00    0.36765   0.75016   -1.000
 3767.00    0.38178   0.73114   -1.000
 3768.00    0.38460   0.70901   -1.000
 3769.00    0.39246   0.68644   -1.000
 3770.00    0.52260   0.66889   -1.000
 3771.00    0.63260   0.66107   -1.000
 3772.00    0.47873   0.66508   -1.000
 3773.00    0.33187   0.68142   -1.000
 3774.00    0.24664   0.70779   -1.000
 3775.00    0.20828   0.73850   -1.000
 3776.00    0.47381   0.76812   -1.000
 3777.00    0.82485   0.79462   -1.000
 3778.00    1.60861   0.81848   -1.000
 3779.00    2.10980   0.84008   -1.000
 3780.00    1.45440   0.85905   -1.000
 3781.00    0.89911   0.87509   -1.000
 3782.00    0.68338   0.88752   -1.000
 3783.00    0.49995   0.89476   -1.000
 3784.00    0.40887   0.89531   -1.000
 3785.00    0.39038   0.88876   -1.000
 3786.00    0.54920   0.87575   -1.000
 3787.00    0.46236   0.85761   -1.000
 3788.00   -0.14225   0.83713    0.000
 3789.00   -0.22444   0.81820    0.000
 3790.00    0.65030   0.80284   -1.000
 3791.00    1.20518   0.78964   -1.000
 3792.00    1.24803   0.77543   -1.000
 3793.00    1.09506   0.75698   -1.000
 3794.00    0.66703   0.73183   -1.000
 3795.00    0.48894   0.69951   -1.000
 3796.00    0.61978   0.66268   -1.000
 3797.00    0.63846   0.62734   -1.000
 3798.00    0.53495   0.60106   -1.000
 3799.00    0.47739   0.59038   -1.000
 3800.00    0.46400   0.59910   -1.000
 3801.00    0.34851   0.62694   -1.000
 3802.00    0.14650   0.66802   -1.000
 3803.00    0.19047   0.71247   -1.000
 3804.00    0.41801   0.75147   -1.000
 3805.00    0.48688   0.78068   -1.000
 3806.00    0.45172   0.80019   -1.000
 3807.00    0.46377   0.81300   -1.000
 3808.00    0.50290   0.82327   -1.000
 3809.00    0.53726   0.83438   -1.000
 3810.00    0.56923   0.84669   -1.000
 3811.00    0.32339   0.85691   -1.000
 3812.00   -0.04260   0.86081    0.000
 3813.00    0.17133   0.85666   -1.000
 3814.00    0.60032   0.84575   -1.000
 3815.00    0.76706   0.83135   -1.000
 3816.00    0.85135   0.81673   -1.000
 3817.00    0.80151   0.80275   -1.000
 3818.00    0.71648   0.78834   -1.000
 3819.00    0.65153   0.77358   -1.000
 3820.00    0.59088   0.76029   -1.000
 3821.00    0.55646   0.75098   -1.000
 3822.00    0.52649   0.74805   -1.000
 3823.00    0.61833   0.75134   -1.000
 3824.00    0.72580   0.75619   -1.000
 3825.00    0.75126   0.75677   -1.000
 3826.00    0.76937   0.75107   -1.000
 3827.00    0.35375   0.74115   -1.000
 3828.00   -0.08518   0.72970    0.000
 3829.00    0.28067   0.71709   -1.000
 3830.00    0.65631   0.70134   -1.000
 3831.00    0.49812   0.68008   -1.000
 3832.00    0.33397   0.65230   -1.000
 3833.00    0.03738   0.61921   -1.000
 3834.00   -0.19720   0.58503    0.000
 3835.00    0.33947   0.55636   -1.000
 3836.00    0.79312   0.53939   -1.000
 3837.00    0.54514   0.53736   -1.000
 3838.00    0.34336   0.55014   -1.000
 3839.00    0.43223   0.57446   -1.000
 3840.00    0.54458   0.60581   -1.000
 3841.00    0.77280   0.64082   -1.000
 3842.00    1.01203   0.67715   -1.000
 3843.00    1.29531   0.71232   -1.000
 3844.00    1.42285   0.74395   -1.000
 3845.00    1.03261   0.77011   -1.000
 3846.00    0.58906   0.78967   -1.000
 3847.00   -0.00418   0.80289    0.000
 3848.00   -0.21270   0.81091    0.000
 3849.00    0.50286   0.81541    0.000
 3850.00    0.99829   0.81814    0.000
 3851.00    1.03719   0.82022    0.000
 3852.00    0.98874   0.82234    0.000
 3853.00    0.78274   0.82467    0.000
 3854.00    0.54408   0.82599    0.000
 3855.00    0.25391   0.82450    0.000
 3856.00    0.37072   0.82005    0.000
 3857.00    1.05094   0.81402    0.000
 3858.00    1.31064   0.80792    0.000
 3859.00    1.05794   0.80335    0.000
 3860.00    0.81953   0.80176    0.000
 3861.00    0.59646   0.80366    0.000
 3862.00    0.45647   0.80916    0.000
 3863.00    0.39520   0.81742    0.000
 3864.00    0.29629   0.82576    0.000
 3865.00    0.16594   0.83102    0.000
 3866.00    0.13271   0.83189    0.000
 3867.00    0.17092   0.82936    0.000
 3868.00    0.32826   0.82509    0.000
 3869.00    0.56254   0.81970    0.000
 3870.00    0.72544   0.81312    0.000
 3871.00    0.84800   0.80594    0.000
 3872.00    0.69211   0.79953    0.000
 3873.00    0.39925   0.79563    0.000
 3874.00    0.29414   0.79556    0.000
 3875.00    0.26885   0.79846    0.000
 3876.00    0.36432   0.80108    0.000
 3877.00    0.50377   0.79960    0.000
 3878.00    0.66547   0.79275    0.000
 3879.00    0.83403   0.78221    0.000
 3880.00    0.75653   0.77065    0.000
 3881.00    0.61585   0.75990   -1.000
 3882.00    0.45410   0.75004   -1.000
 3883.00    0.28794   0.73853   -1.000
 3884.00    0.42836   0.72210   -1.000
 3885.00    0.61933   0.69951   -1.000
 3886.00    0.59193   0.67092   -1.000
 3887.00    0.53749   0.63772   -1.000
 3888.00    0.68129   0.60528   -1.000
 3889.00    0.84205   0.58297   -1.000
 3890.00    0.78006   0.57847   -1.000
 3891.00    0.70697   0.59332   -1.000
 3892.00    0.98240   0.62391   -1.000
 3893.00    1.25154   0.66299   -1.000
 3894.00    0.74507   0.70162   -1.000
 3895.00    0.26653   0.73399   -1.000
 3896.00    0.35927   0.75875   -1.000
 3897.00    0.44621   0.77722   -1.000
 3898.00    0.46446   0.79150   -1.000
 3899.00    0.48374   0.80351   -1.000
 3900.00    0.51143   0.81389   -1.000
 3901.00    0.51250   0.82245   -1.000
 3902.00    0.35102   0.82982   -1.000
 3903.00    0.21030   0.83614   -1.000
 3904.00    0.16943   0.84035   -1.000
 3905.00    0.19389   0.84227   -1.000
 3906.00    0.47414   0.84448   -1.000
 3907.00    0.68556   0.85008   -1.000
 3908.00    0.67259   0.85967   -1.000
 3909.00    0.64132   0.87266   -1.000
 3910.00    0.55958   0.88717   -1.000
 3911.00    0.57403   0.89977   -1.000
 3912.00    0.81561   0.90819   -1.000
 3913.00    0.94241   0.91245   -1.000
 3914.00    0.83496   0.91339   -1.000
 3915.00    0.67833   0.91141   -1.000
 3916.00    0.43436   0.90631   -1.000
 3917.00    0.27998   0.89781   -1.000
 3918.00    0.26481   0.88583   -1.000
 3919.00    0.25546   0.87093   -1.000
 3920.00    0.25402   0.85528   -1.000
 3921.00    0.29040   0.84143   -1.000
 3922.00    0.37219   0.83131   -1.000
 3923.00    0.53422   0.82572   -1.000
 3924.00    0.78124   0.82318   -1.000
 3925.00    0.82384   0.82037   -1.000
 3926.00    0.67549   0.81406   -1.000
 3927.00    0.68022   0.80306   -1.000
 3928.00    0.81102   0.78775   -1.000
 3929.00    0.67124   0.76958   -1.000
 3930.00    0.33532   0.75020   -1.000
 3931.00    0.25720   0.73031   -1.000
 3932.00    0.34315   0.71070   -1.000
 3933.00    0.40232   0.69336   -1.000
 3934.00    0.44657   0.68122   -1.000
 3935.00    0.41821   0.67733   -1.000
 3936.00    0.35469   0.68353   -1.000
 3937.00    0.12674   0.69955   -1.000
 3938.00   -0.16997   0.72247    0.000
 3939.00    0.17484   0.74773   -1.000
 3940.00    0.74912   0.77107   -1.000
 3941.00    0.90631   0.78948   -1.000
 3942.00    0.93744   0.80182   -1.000
 3943.00    1.13182   0.80909   -1.000
 3944.00    1.36719   0.81401   -1.000
 3945.00    1.28089   0.81954   -1.000
 3946.00    1.12899   0.82722   -1.000
 3947.00    0.90650   0.83722   -1.000
 3948.00    0.67270   0.84865   -1.000
 3949.00    0.71097   0.85944   -1.000
 3950.00    0.78174   0.86766   -1.000
 3951.00    0.47032   0.87337   -1.000
 3952.00    0.12778   0.87740   -1.000
 3953.00    0.46333   0.87939   -1.000
 3954.00    0.83005   0.87843   -1.000
 3955.00    0.81535   0.87462   -1.000
 3956.00    0.79043   0.86909   -1.000
 3957.00    0.48583   0.86210   -1.000
 3958.00    0.20751   0.85242   -1.000
 3959.00    0.42699   0.83886   -1.000
 3960.00    0.64053   0.82085    0.000
 3961.00    0.78701   0.79757    0.000
 3962.00    0.89406   0.76853    0.000
 3963.00    0.69123   0.73481    0.000
 3964.00    0.50792   0.69864    0.000
 3965.00    0.44041   0.66158    0.000
 3966.00    0.43291   0.62318    0.000
 3967.00    0.70717   0.58258    0.000
 3968.00    0.88335   0.54180    0.000
 3969.00    0.68364   0.50605    0.000
 3970.00    0.47663   0.48187    0.000
 3971.00    0.24631   0.47498    0.000
 3972.00    0.14329   0.48816    0.000
 3973.00    0.38505   0.52000    0.000
 3974.00    0.56941   0.56508    0.000
 3975.00    0.62047   0.61606    0.000
 3976.00    0.63484   0.66678    0.000
 3977.00    0.57550   0.71386    0.000
 3978.00    0.60463   0.75571    0.000
 3979.00    0.78851   0.79144    0.000
 3980.00    0.83317   0.82056    0.000
 3981.00    0.66469   0.84298   -1.000
 3982.00    0.60733   0.85902   -1.000
 3983.00    0.69942   0.87011   -1.000
 3984.00    0.70982   0.87852   -1.000
 3985.00    0.62350   0.88679   -1.000
 3986.00    0.57199   0.89665   -1.000
 3987.00    0.55683   0.90772   -1.000
 3988.00    0.61245   0.91840   -1.000
 3989.00    0.73324   0.92736   -1.000
 3990.00    0.73718   0.93430   -1.000
 3991.00    0.64622   0.93968   -1.000
 3992.00    0.76606   0.94363   -1.000
 3993.00    1.03651   0.94631   -1.000
 3994.00    1.19514   0.94760   -1.000
 3995.00    1.28366   0.94662   -1.000
 3996.00    1.26413   0.94337   -1.000
 3997.00    1.18539   0.93982   -1.000
 3998.00    1.33801   0.93893   -1.000
 3999.00    1.60084   0.94259   -1.000
 4000.00    1.42964   0.95068   -1.000
 4001.00    1.08005   0.96100   -1.000
 4002.00    0.98972   0.96968   -1.000
 4003.00    0.99046   0.97243   -1.000
 4004.00    1.01165   0.96749   -1.000
 4005.00    1.03891   0.95687   -1.000
 4006.00    1.00367   0.94451   -1.000
 4007.00    0.95307   0.93447   -1.000
 4008.00    0.85424   0.93014   -1.000
 4009.00    0.74583   0.93283   -1.000
 4010.00    0.91329   0.94080   -1.000
 4011.00    1.12361   0.95076   -1.000
 4012.00    1.05719   0.96064   -1.000
 4013.00    0.95894   0.97009   -1.000
 4014.00    1.00000   0.97881   -1.000
 4015.00    1.05183   0.98589   -1.000
 4016.00    1.09465   0.99099   -1.000
 4017.00    1.13709   0.99439   -1.000
 4018.00    1.03608   0.99647   -1.000
 4019.00    0.93740   0.99742   -1.000
 4020.00    0.99864   0.99706   -1.000
 4021.00    1.07116   0.99472   -1.000
 4022.00    1.34232   0.98899   -1.000
 4023.00    1.57302   0.97862   -1.000
 4024.00    1.36835   0.96450   -1.000
 4025.00    1.17791   0.95016   -1.000
 4026.00    1.09554   0.93968   -1.000
 4027.00    1.02013   0.93527   -1.000
 4028.00    0.98487   0.93627   -1.000
 4029.00    0.91180   0.93923   -1.000
 4030.00    0.66549   0.93938   -1.000
 4031.00    0.51834   0.93335   -1.000
 4032.00    0.74317   0.92215   -1.000
 4033.00    0.90139   0.91097   -1.000
 4034.00    0.85083   0.90642   -1.000
 4035.00    0.81255   0.91253   -1.000
 4036.00    0.80694   0.92865   -1.000
 4037.00    0.91378   0.95074   -1.000
 4038.00    1.27737   0.97325   -1.000
 4039.00    1.43930   0.99081   -1.000
 4040.00    1.20256   1.00009   -1.000
 4041.00    1.08113   1.00011   -1.000
 4042.00    1.15835   0.99153   -1.000
 4043.00    1.14510   0.97583   -1.000
 4044.00    0.99536   0.95517   -1.000
 4045.00    0.94953   0.93325   -1.000
 4046.00    1.04146   0.91518   -1.000
 4047.00    1.01100   0.90647   -1.000
 4048.00    0.83766   0.91093   -1.000
 4049.00    0.80216   0.92745   -1.000
 4050.00    0.90858   0.94978   -1.000
 4051.00    0.98879   0.96978   -1.000
 4052.00    1.04521   0.98152   -1.000
 4053.00    1.05805   0.98374   -1.000
 4054.00    1.03600   0.97853   -1.000
 4055.00    0.99953   0.96872   -1.000
 4056.00    0.95289   0.95742   -1.000
 4057.00    0.87624   0.94757   -1.000
 4058.00    0.78105   0.94089   -1.000
 4059.00    0.86501   0.93764   -1.000
 4060.00    1.04563   0.93619   -1.000
 4061.00    1.10860   0.93357   -1.000
 4062.00    1.11641   0.92786   -1.000
 4063.00    1.00362   0.91906   -1.000
 4064.00    0.84210   0.90915   -1.000
 4065.00    0.77012   0.90199   -1.000
 4066.00    0.72903   0.90122   -1.000
 4067.00    0.92686   0.90741   -1.000
 4068.00    1.19408   0.91731   -1.000
 4069.00    1.27021   0.92561   -1.000
 4070.00    1.30044   0.92871   -1.000
 4071.00    1.00477   0.92704   -1.000
 4072.00    0.64594   0.92299   -1.000
 4073.00    0.70561   0.91859   -1.000
 4074.00    0.82834   0.91479   -1.000
 4075.00    0.84910   0.91123   -1.000
 4076.00    0.85858   0.90696   -1.000
 4077.00    0.81707   0.90186   -1.000
 4078.00    0.77182   0.89807   -1.000
 4079.00    0.75006   0.89988   -1.000
 4080.00    0.72921   0.90967   -1.000
 4081.00    0.81486   0.92512   -1.000
 4082.00    0.90335   0.94068   -1.000
 4083.00    1.07700   0.95105   -1.000
 4084.00    1.24181   0.95451   -1.000
 4085.00    1.26075   0.95348   -1.000
 4086.00    1.27920   0.95209   -1.000
 4087.00    1.29252   0.95358   -1.000
 4088.00    1.29793   0.95835   -1.000
 4089.00    1.24536   0.96379   -1.000
 4090.00    1.20232   0.96645   -1.000
 4091.00    1.21276   0.96413   -1.000
 4092.00    1.21222   0.95614    0.000
 4093.00    1.16253   0.94280    0.000
 4094.00    1.11182   0.92480    0.000
 4095.00    1.05739   0.90239    0.000
 4096.00    0.98338   0.87554    0.000
 4097.00    0.84919   0.84477    0.000
 4098.00    0.74702   0.81064    0.000
 4099.00    0.72855   0.77393    0.000
 4100.00    0.71565   0.73715    0.000
 4101.00    0.71527   0.70423    0.000
 4102.00    0.73489   0.68028    0.000
 4103.00    0.79339   0.67108    0.000
 4104.00    0.82538   0.68013    0.000
 4105.00    0.81237   0.70616    0.000
 4106.00    0.81617   0.74321    0.000
 4107.00    0.84496   0.78251    0.000
 4108.00    0.85091   0.81632    0.000
 4109.00    0.82703   0.84128    0.000
 4110.00    0.79007   0.85789    0.000
 4111.00    0.73805   0.86897    0.000
 4112.00    0.82342   0.87818    0.000
 4113.00    1.04828   0.88818   -1.000
 4114.00    1.06776   0.89964   -1.000
 4115.00    0.90337   0.91131   -1.000
 4116.00    0.77130   0.92067   -1.000
 4117.00    0.66475   0.92558   -1.000
 4118.00    0.62773   0.92526   -1.000
 4119.00    0.63897   0.92074   -1.000
 4120.00    0.70117   0.91470   -1.000
 4121.00    0.79438   0.91019   -1.000
 4122.00    0.94979   0.90949   -1.000
 4123.00    1.13825   0.91353   -1.000
 4124.00    1.10276   0.92113   -1.000
 4125.00    0.96400   0.92941   -1.000
 4126.00    0.94156   0.93541   -1.000
 4127.00    0.96530   0.93714   -1.000
 4128.00    0.91939   0.93390   -1.000
 4129.00    0.84990   0.92630   -1.000
 4130.00    0.86029   0.91584   -1.000
 4131.00    0.89342   0.90465   -1.000
 4132.00    0.91121   0.89494   -1.000
 4133.00    0.92539   0.88901   -1.000
 4134.00    1.04667   0.88880   -1.000
 4135.00    1.18816   0.89515   -1.000
 4136.00    1.07623   0.90720   -1.000
 4137.00    0.92728   0.92214   -1.000
 4138.00    0.84594   0.93591   -1.000
 4139.00    0.77179   0.94471   -1.000
 4140.00    0.86327   0.94551   -1.000
 4141.00    0.96620   0.93671   -1.000
 4142.00    0.78589   0.91950   -1.000
 4143.00    0.59580   0.89789   -1.000
 4144.00    0.74067   0.87812   -1.000
 4145.00    0.88327   0.86662   -1.000
 4146.00    0.92911   0.86669   -1.000
 4147.00    0.96972   0.87648   -1.000
 4148.00    0.92957   0.89054   -1.000
 4149.00    0.88425   0.90265   -1.000
 4150.00    0.78788   0.90888   -1.000
 4151.00    0.71702   0.90930   -1.000
 4152.00    0.82728   0.90636   -1.000
 4153.00    0.90395   0.90244   -1.000
 4154.00    0.79726   0.89898   -1.000
 4155.00    0.71611   0.89692   -1.000
 4156.00    0.74661   0.89705   -1.000
 4157.00    0.77729   0.90009   -1.000
 4158.00    0.80862   0.90645   -1.000
 4159.00    0.86940   0.91569   -1.000
 4160.00    1.01907   0.92650   -1.000
 4161.00    1.05043   0.93700   -1.000
 4162.00    0.77798   0.94548   -1.000
 4163.00    0.58430   0.95068   -1.000
 4164.00    0.56465   0.95188   -1.000
 4165.00    0.56628   0.94907   -1.000
 4166.00    0.60869   0.94324   -1.000
 4167.00    0.64745   0.93598   -1.000
 4168.00    0.68012   0.92889   -1.000
 4169.00    0.77159   0.92292   -1.000
 4170.00    0.94921   0.91759   -1.000
 4171.00    1.01665   0.91139   -1.000
 4172.00    0.94218   0.90327   -1.000
 4173.00    0.83455   0.89384   -1.000
 4174.00    0.68930   0.88513   -1.000
 4175.00    0.66844   0.87944   -1.000
 4176.00    0.77208   0.87793   -1.000
 4177.00    0.81774   0.88012   -1.000
 4178.00    0.81222   0.88445   -1.000
 4179.00    0.83698   0.88932   -1.000
 4180.00    0.88531   0.89400   -1.000
 4181.00    0.87649   0.89845   -1.000
 4182.00    0.82858   0.90292   -1.000
 4183.00    0.78111   0.90752   -1.000
 4184.00    0.73390   0.91189   -1.000
 4185.00    0.76251   0.91513   -1.000
 4186.00    0.83078   0.91634   -1.000
 4187.00    0.80685   0.91525    0.154
 4188.00    0.74110   0.91273    0.063
 4189.00    0.86120   0.91081    0.054
 4190.00    1.05383   0.91155    0.053
 4191.00    1.00257   0.91553    0.053
 4192.00    0.87031   0.92154    0.052
 4193.00    0.77735   0.92713    0.053
 4194.00    0.69533   0.92930    0.053
 4195.00    0.85043   0.92585    0.053
 4196.00    1.05992   0.91647    0.052
 4197.00    1.17228   0.90294    0.053
 4198.00    1.26680   0.88826    0.053
 4199.00    1.14833   0.87553    0.052
 4200.00    0.99975   0.86722    0.050
 4201.00    0.75752   0.86435    0.050
 4202.00    0.50574   0.86654    0.049
 4203.00    0.60870   0.87308    0.049
 4204.00    0.73478   0.88339    0.049
 4205.00    0.96609   0.89654    0.050
 4206.00    1.19994   0.91092    0.050
 4207.00    0.99449   0.92466    0.049
 4208.00    0.79222   0.93596    0.049
 4209.00    0.68350   0.94346    0.049
 4210.00    0.59138   0.94688    0.050
 4211.00    0.74104   0.94680    0.049
 4212.00    0.89002   0.94379    0.049
 4213.00    1.03258   0.93824    0.050
 4214.00    1.15482   0.93087    0.050
 4215.00    1.13747   0.92348    0.049
 4216.00    1.10295   0.91915    0.049
 4217.00    0.97716   0.92097    0.049
 4218.00    0.89421   0.92999    0.049
 4219.00    0.99420   0.94388    0.048
 4220.00    1.08352   0.95746    0.048
 4221.00    1.13525   0.96494    0.048
 4222.00    1.18434   0.96181    0.048
 4223.00    1.22563   0.94606    0.049
 4224.00    1.19786   0.91909    0.049
 4225.00    0.99583   0.88560    0.049
 4226.00    0.91593   0.85270    0.049
 4227.00    1.10137   0.82856    0.050
 4228.00    1.23187   0.82005    0.050
 4229.00    1.25877   0.82934    0.048
 4230.00    1.23802   0.85232    0.048
 4231.00    1.13885   0.88049    0.048
 4232.00    1.00784   0.90487    0.048
 4233.00    0.83086   0.91956    0.047
 4234.00    0.82987   0.92364    0.047
 4235.00    1.05233   0.92043    0.048
 4236.00    1.08698   0.91474    0.048
 4237.00    0.91150   0.91049    0.047
 4238.00    0.80495   0.90996    0.046
 4239.00    0.76643   0.91382    0.046
 4240.00    0.68043   0.92157    0.046
 4241.00    0.55313   0.93239    0.046
 4242.00    0.70320   0.94536    0.047
 4243.00    1.06592   0.95894    0.048
 4244.00    1.21734   0.97103    0.049
 4245.00    1.22635   0.97923    0.050
 4246.00    1.03596   0.98103    0.050
 4247.00    0.72785   0.97490    0.051
 4248.00    0.63678   0.96158    0.050
 4249.00    0.65748   0.94413    0.050
 4250.00    0.48845   0.92632    0.049
 4251.00    0.23477   0.91150    0.048
 4252.00    0.31441   0.90164    0.049
 4253.00    0.52186   0.89689    0.050
 4254.00    0.74363   0.89629    0.050
 4255.00    0.97007   0.89879    0.049
 4256.00    0.91197   0.90373    0.048
 4257.00    0.77620   0.90971    0.048
 4258.00    0.69960   0.91418    0.048
 4259.00    0.63626   0.91512    0.048
 4260.00    0.70413   0.91300    0.049
 4261.00    0.79546   0.91120    0.049
 4262.00    0.94605   0.91431    0.049
 4263.00    1.10475   0.92488    0.050
 4264.00    0.95408   0.94123    0.049
 4265.00    0.77319   0.95818    0.047
 4266.00    0.68044   0.96963    0.047
 4267.00    0.59309   0.97134    0.046
 4268.00    0.83611   0.96212    0.046
 4269.00    1.08742   0.94355    0.047
 4270.00    1.21606   0.91889    0.047
 4271.00    1.32949   0.89201    0.048
 4272.00    1.04060   0.86728    0.046
 4273.00    0.76610   0.84920    0.044
 4274.00    0.68940   0.84120    0.044
 4275.00    0.61515   0.84464    0.044
 4276.00    0.56305   0.85841    0.045
 4277.00    0.54082   0.87918    0.047
 4278.00    0.71759   0.90199    0.047
 4279.00    0.87179   0.92139    0.047
 4280.00    0.90916   0.93354    0.047
 4281.00    0.91899   0.93775    0.047
 4282.00    0.81384   0.93601   -2.000
 4283.00    0.72672   0.93143   -2.000
 4284.00    0.70185   0.92642   -2.000
 4285.00    0.74170   0.92155   -2.000
 4286.00    0.96963   0.91587   -2.000
 4287.00    1.12868   0.90814   -2.000
 4288.00    1.11689   0.89772   -2.000
 4289.00    1.08776   0.88545   -2.000
 4290.00    1.02152   0.87382   -2.000
 4291.00    1.08906   0.86621   -2.000
 4292.00    1.40496   0.86513   -2.000
 4293.00    1.55023   0.87037   -2.000
 4294.00    1.41874   0.87861   -2.000
 4295.00    1.22621   0.88528   -2.000
 4296.00    0.94686   0.88656   -2.000
 4297.00    0.78383   0.88048   -2.000
 4298.00    0.76639   0.86720    0.045
 4299.00    0.80610   0.84874    0.045
 4300.00    0.90885   0.82871    0.046
 4301.00    1.06324   0.81128    0.046
 4302.00    1.26786   0.79930    0.046
 4303.00    1.24273   0.79331    0.046
 4304.00    1.02048   0.79143    0.046
 4305.00    0.89841   0.79053    0.045
 4306.00    0.85204   0.78793    0.045
 4307.00    0.81313   0.78275    0.045
 4308.00    0.77918   0.77649    0.045
 4309.00    0.70910   0.77263    0.045
 4310.00    0.61802   0.77484    0.045
 4311.00    0.67345   0.78517    0.045
 4312.00    0.80314   0.80355    0.046
 4313.00    0.87461   0.82835    0.045
 4314.00    0.92054   0.85763    0.044
 4315.00    0.94254   0.88986    0.044
 4316.00    0.95553   0.92335    0.044
 4317.00    0.91845   0.95527    0.045
 4318.00    0.86537   0.98160    0.046
 4319.00    0.84683   0.99839    0.045
 4320.00    0.83752   1.00326    0.045
 4321.00    0.79380   0.99596    0.045
 4322.00    0.74255   0.97781    0.046
 4323.00    0.81332   0.95109    0.046
 4324.00    0.90531   0.91952    0.045
 4325.00    0.86499   0.88884    0.046
 4326.00    0.80716   0.86631    0.046
 4327.00    0.77383   0.85817    0.045
 4328.00    0.74279   0.86631    0.044
 4329.00    0.87427   0.88661    0.045
 4330.00    1.01504   0.91108    0.000
 4331.00    1.08582   0.93205    0.000
 4332.00    1.15366   0.94532    0.000
 4333.00    1.07011   0.95021    0.000
 4334.00    0.99201   0.94719    0.000
 4335.00    1.04451   0.93563    0.000
 4336.00    1.08271   0.91350    0.000
 4337.00    0.93474   0.87927    0.000
 4338.00    0.79485   0.83476    0.000
 4339.00    0.72558   0.78625    0.000
 4340.00    0.67660   0.74340    0.000
 4341.00    0.75873   0.71588    0.000
 4342.00    0.79594   0.70954    0.000
 4343.00    0.60658   0.72424    0.000
 4344.00    0.50219   0.75462    0.000
 4345.00    0.74457   0.79287    0.000
 4346.00    0.97720   0.83178    0.000
 4347.00    1.17679   0.86645    0.000
 4348.00    1.29774   0.89407    0.000
 4349.00    1.19425   0.91284    0.000
 4350.00    1.07733   0.92158    0.000
 4351.00    0.92766   0.92076    0.045
 4352.00    0.82734   0.91374    0.045
 4353.00    0.83079   0.90636    0.044
 4354.00    0.90835   0.90450    0.043
 4355.00    1.12139   0.91100    0.045
 4356.00    1.20475   0.92442    0.045
 4357.00    1.08090   0.94043    0.044
 4358.00    1.01007   0.95470    0.044
 4359.00    1.01355   0.96524    0.044
 4360.00    1.01260   0.97292    0.044
 4361.00    1.00619   0.98018    0.044
 4362.00    1.03887   0.98900    0.044
 4363.00    1.11406   0.99952    0.044
 4364.00    1.19443   1.00990    0.044
 4365.00    1.27975   1.01741    0.044
 4366.00    1.28320   1.01970    0.044
 4367.00    1.21739   1.01598    0.044
 4368.00    1.06668   1.00749    0.043
 4369.00    0.85272   0.99697    0.043
 4370.00    0.86271   0.98711    0.043
 4371.00    1.01924   0.97899    0.043
 4372.00    1.03022   0.97173    0.043
 4373.00    0.95782   0.96370    0.043
 4374.00    0.96783   0.95448    0.043
 4375.00    1.01896   0.94592    0.044
 4376.00    0.97938   0.94123    0.043
 4377.00    0.90067   0.94266    0.042
 4378.00    0.84166   0.94920    0.042
 4379.00    0.78993   0.95619    0.042
 4380.00    0.74757   0.95725    0.041
 4381.00    0.70814   0.94742    0.041
 4382.00    0.74603   0.92558    0.041
 4383.00    0.80416   0.89558    0.041
 4384.00    0.91698   0.86513    0.041
 4385.00    1.04147   0.84282    0.041
 4386.00    1.02762   0.83420    0.041
 4387.00    0.99038   0.83938    0.041
 4388.00    0.96600   0.85385    0.041
 4389.00    0.94326   0.87156    0.041
 4390.00    0.89687   0.88829    0.040
 4391.00    0.84837   0.90267    0.040
 4392.00    0.88223   0.91520    0.040
 4393.00    0.92046   0.92662    0.040
 4394.00    1.00751   0.93739    0.041
 4395.00    1.09453   0.94798    0.041
 4396.00    1.10176   0.95881    0.041
 4397.00    1.10498   0.96963    0.041
 4398.00    1.02001   0.97885    0.040
 4399.00    0.93590   0.98397    0.040
 4400.00    0.86251   0.98310    0.040
 4401.00    0.79792   0.97609    0.040
 4402.00    0.80748   0.96413    0.040
 4403.00    0.81262   0.94871    0.040
 4404.00    0.79006   0.93129    0.040
 4405.00    0.79654   0.91420    0.040
 4406.00    0.94584   0.90096    0.040
 4407.00    1.07537   0.89538    0.041
 4408.00    1.12600   0.89975    0.040
 4409.00    1.13696   0.91371    0.040
 4410.00    1.01641   0.93427    0.040
 4411.00    0.94113   0.95666    0.040
 4412.00    0.99268   0.97535    0.040
 4413.00    1.04500   0.98558    0.040
 4414.00    1.09920   0.98530    0.040
 4415.00    1.14019   0.97666    0.040
 4416.00    1.15384   0.96557    0.040
 4417.00    1.12053   0.95889    0.040
 4418.00    1.00266   0.96076    0.040
 4419.00    0.93049   0.97047    0.040
 4420.00    0.93023   0.98323    0.040
 4421.00    1.01079   0.99321    0.040
 4422.00    1.20306   0.99690    0.041
 4423.00    1.26578   0.99456    0.041
 4424.00    1.17094   0.98920    0.041
 4425.00    1.06836   0.98424    0.041
 4426.00    0.95750   0.98163    0.041
 4427.00    0.95741   0.98138    0.041
 4428.00    1.06211   0.98230    0.041
 4429.00    1.13714   0.98301    0.040
 4430.00    1.18742   0.98254    0.040
 4431.00    1.21665   0.98039    0.040
 4432.00    1.23042   0.97631    0.041
 4433.00    1.24810   0.97025    0.042
 4434.00    1.26829   0.96283    0.043
 4435.00    1.17532   0.95599    0.043
 4436.00    1.01851   0.95296    0.042
 4437.00    0.93359   0.95658    0.042
 4438.00    0.88395   0.96711    0.041
 4439.00    1.01237   0.98110    0.042
 4440.00    1.21634   0.99289    0.043
 4441.00    1.25944   0.99791    0.042
 4442.00    1.24407   0.99553    0.041
 4443.00    1.25360   0.98949    0.042
 4444.00    1.27080   0.98545    0.043
 4445.00    1.27810   0.98755    0.042
 4446.00    1.28285   0.99612    0.042
 4447.00    1.30367   1.00812    0.041
 4448.00    1.32783   1.01934    0.040
 4449.00    1.13892   1.02661    0.041
 4450.00    0.91500   1.02866    0.042
 4451.00    0.92347   1.02553    0.041
 4452.00    0.96060   1.01760    0.041
 4453.00    0.94053   1.00524    0.041
 4454.00    0.91559   0.98922    0.040
 4455.00    0.84742   0.97127    0.039
 4456.00    0.77711   0.95406    0.038
 4457.00    0.83021   0.94008    0.039
 4458.00    0.88409   0.93053    0.039
 4459.00    0.86308   0.92501    0.039
 4460.00    0.84751   0.92246    0.039
 4461.00    0.94208   0.92242    0.000
 4462.00    1.02496   0.92542    0.000
 4463.00    0.97036   0.93220    0.000
 4464.00    0.91880   0.94235    0.000
 4465.00    0.89191   0.95379    0.000
 4466.00    0.89206   0.96351    0.000
 4467.00    1.05686   0.96901    0.000
 4468.00    1.17759   0.96953    0.000
 4469.00    1.08697   0.96635    0.000
 4470.00    0.99312   0.96229    0.000
 4471.00    0.88665   0.96083    0.000
 4472.00    0.83742   0.96486    0.000
 4473.00    0.97432   0.97552    0.000
 4474.00    1.11281   0.99170    0.000
 4475.00    1.25565   1.01043    0.000
 4476.00    1.32524   1.02796    0.000
 4477.00    1.22226   1.04084    0.000
 4478.00    1.14797   1.04635    0.000
 4479.00    1.13212   1.04309    0.000
 4480.00    1.11409   1.03189    0.000
 4481.00    1.09220   1.01654    0.000
 4482.00    1.09342   1.00315    0.040
 4483.00    1.13049   0.99753    0.039
 4484.00    1.15401   1.00226    0.039
 4485.00    1.15907   1.01509    0.040
 4486.00    1.12712   1.03014    0.039
 4487.00    1.05079   1.04088    0.039
 4488.00    1.03847   1.04345    0.039
 4489.00    1.09383   1.03806    0.039
 4490.00    1.10744   1.02833    0.039
 4491.00    1.08211   1.01870    0.038
 4492.00    1.03284   1.01182    0.038
 4493.00    0.96388   1.00759    0.038
 4494.00    0.92334   1.00436    0.038
 4495.00    0.90337   1.00121    0.038
 4496.00    0.89648   0.99916    0.038
 4497.00    0.89788   1.00047    0.038
 4498.00    1.00125   1.00657    0.038
 4499.00    1.16126   1.01687    0.039
 4500.00    1.23382   1.02922    0.039
 4501.00    1.26412   1.04163    0.039
 4502.00    1.16106   1.05360    0.039
 4503.00    1.00235   1.06567    0.038
 4504.00    0.98550   1.07799    0.038
 4505.00    1.01927   1.08925    0.038
 4506.00    1.12904   1.09731    0.038
 4507.00    1.26172   1.10074    0.039
 4508.00    1.26825   1.09986    0.038
 4509.00    1.24318   1.09636    0.038
 4510.00    1.19801   1.09180    0.037
 4511.00    1.14876   1.08660    0.036
 4512.00    1.04351   1.08013    0.037
 4513.00    0.92933   1.07189    0.038
 4514.00    0.96104   1.06244    0.038
 4515.00    1.01009   1.05341    0.038
 4516.00    1.00972   1.04663    0.037
 4517.00    1.00536   1.04322    0.037
 4518.00    0.86184   1.04333    0.037
 4519.00    0.71200   1.04629    0.036
 4520.00    0.86747   1.05078    0.036
 4521.00    1.02488   1.05481    0.037
 4522.00    1.08987   1.05604    0.036
 4523.00    1.14632   1.05239    0.036
 4524.00    1.04228   1.04284    0.036
 4525.00    0.95521   1.02776    0.036
 4526.00    1.05815   1.00870    0.037
 4527.00    1.15135   0.98802    0.037
 4528.00    1.16838   0.96857    0.037
 4529.00    1.16571   0.95322    0.037
 4530.00    1.04656   0.94408    0.037
 4531.00    0.95945   0.94155    0.036
 4532.00    1.02230   0.94417    0.036
 4533.00    1.07119   0.94944    0.036
 4534.00    1.06677   0.95551    0.036
 4535.00    1.07085   0.96235    0.036
 4536.00    1.10206   0.97138    0.036
 4537.00    1.15235   0.98369    0.036
 4538.00    1.25419   0.99824    0.036
 4539.00    1.32800   1.01186    0.036
 4540.00    1.33686   1.02129    0.036
 4541.00    1.28611   1.02527    0.036
 4542.00    1.11589   1.02509    0.036
 4543.00    0.99439   1.02320    0.035
 4544.00    0.95795   1.02132    0.036
 4545.00    0.96750   1.01977    0.036
 4546.00    1.04733   1.01798    0.035
 4547.00    1.06943   1.01545    0.035
 4548.00    1.01401   1.01213    0.035
 4549.00    0.99324   1.00840    0.035
 4550.00    1.01341   1.00482    0.000
 4551.00    1.05756   1.00179    0.000
 4552.00    1.12669   0.99946    0.000
 4553.00    1.13972   0.99784    0.000
 4554.00    1.10115   0.99735    0.000
 4555.00    1.05022   0.99920    0.000
 4556.00    0.98925   1.00492    0.000
 4557.00    0.95977   1.01533    0.000
 4558.00    0.95276   1.02946    0.000
 4559.00    0.99059   1.04463    0.000
 4560.00    1.05649   1.05749    0.000
 4561.00    1.11565   1.06531    0.000
 4562.00    1.17114   1.06683    0.000
 4563.00    1.13070   1.06256    0.000
 4564.00    1.04467   1.05466    0.000
 4565.00    1.08061   1.04646    0.000
 4566.00    1.16658   1.04139    0.000
 4567.00    1.25276   1.04143    0.000
 4568.00    1.33902   1.04598    0.000
 4569.00    1.29734   1.05220    0.000
 4570.00    1.21786   1.05679    0.000
 4571.00    1.13936   1.05811    0.000
 4572.00    1.06112   1.05701    0.000
 4573.00    1.03144   1.05576    0.000
 4574.00    1.01139   1.05616    0.000
 4575.00    1.02465   1.05810    0.000
 4576.00    1.04306   1.05975    0.000
 4577.00    1.05915   1.05879    0.000
 4578.00    1.07498   1.05372    0.000
 4579.00    1.10404   1.04467    0.000
 4580.00    1.13412   1.03334    0.000
 4581.00    1.15066   1.02230    0.000
 4582.00    1.16665   1.01394    0.000
 4583.00    1.09682   1.00946    0.000
 4584.00    1.02715   1.00862    0.000
 4585.00    0.99600   1.01051    0.000
 4586.00    0.96719   1.01449    0.000
 4587.00    0.97948   1.02040    0.000
 4588.00    0.99527   1.02793    0.000
 4589.00    1.04861   1.03579    0.000
 4590.00    1.09286   1.04173    0.000
 4591.00    1.06840   1.04359    0.000
 4592.00    1.04753   1.04058    0.000
 4593.00    1.04730   1.03375    0.000
 4594.00    1.04446   1.02533    0.000
 4595.00    1.02975   1.01764    0.000
 4596.00    1.01711   1.01224    0.000
 4597.00    1.01221   1.00965    0.000
 4598.00    1.00710   1.00950    0.000
 4599.00    1.00134   1.01089    0.000
 4600.00    1.03198   1.01275    0.000
 4601.00    1.15925   1.01433    0.000
 4602.00    1.24024   1.01545    0.000
 4603.00    1.21581   1.01649    0.000
 4604.00    1.15447   1.01818    0.000
 4605.00    1.02032   1.02146    0.000
 4606.00    0.97520   1.02739    0.000
 4607.00    1.08318   1.03666    0.000
 4608.00    1.18529   1.04895    0.000
 4609.00    1.27858   1.06243    0.000
 4610.00    1.31596   1.07421    0.000
 4611.00    1.27937   1.08168    0.000
 4612.00    1.23412   1.08401    0.000
 4613.00    1.17879   1.08249    0.000
 4614.00    1.16084   1.07968    0.000
 4615.00    1.18132   1.07787    0.000
 4616.00    1.13775   1.07795    0.000
 4617.00    1.03614   1.07933    0.000
 4618.00    1.03289   1.08082    0.000
 4619.00    1.10823   1.08161    0.000
 4620.00    1.16678   1.08174    0.000
 4621.00    1.21353   1.08181    0.000
 4622.00    1.24276   1.08225    0.000
 4623.00    1.26121   1.08288    0.000
 4624.00    1.25836   1.08308    0.000
 4625.00    1.24405   1.08226    0.000
 4626.00    1.22447   1.08034    0.000
 4627.00    1.20243   1.07770    0.000
 4628.00    1.19113   1.07496    0.000
 4629.00    1.18416   1.07266    0.000
 4630.00    1.16765   1.07097    0.000
 4631.00    1.14787   1.06964    0.000
 4632.00    1.16305   1.06796    0.000
 4633.00    1.18835   1.06507    0.000
 4634.00    1.19000   1.06036    0.000
 4635.00    1.18598   1.05377    0.000
 4636.00    1.15531   1.04575    0.000
 4637.00    1.11948   1.03698    0.000
 4638.00    1.09215   1.02825    0.000
 4639.00    1.06610   1.02050    0.000
 4640.00    1.02176   1.01481    0.000
 4641.00    0.97541   1.01182    0.000
 4642.00    0.99916   1.01105    0.000
 4643.00    1.02800   1.01073    0.000
 4644.00    1.00599   1.00840    0.000
 4645.00    0.98207   1.00232    0.000
 4646.00    0.94183   0.99263    0.000
 4647.00    0.90564   0.98168    0.000
 4648.00    1.02273   0.97306    0.000
 4649.00    1.13942   0.97002    0.000
 4650.00    1.24958   0.97391    0.000
 4651.00    1.34416   0.98352    0.000
 4652.00    1.27934   0.99574    0.000
 4653.00    1.20417   1.00697    0.000
 4654.00    1.05341   1.01480    0.000
 4655.00    0.92236   1.01908    0.000
 4656.00    0.90150   1.02185    0.000
 4657.00    0.90041   1.02614    0.000
 4658.00    0.98750   1.03403    0.000
 4659.00    1.04794   1.04517    0.000
 4660.00    1.01074   1.05662    0.000
 4661.00    1.00744   1.06425    0.000
 4662.00    1.10812   1.06481    0.000
 4663.00    1.16566   1.05724    0.000
 4664.00    1.11067   1.04269    0.000
 4665.00    1.05948   1.02357    0.000
 4666.00    1.01676   1.00267    0.000
 4667.00    0.96633   0.98304    0.000
 4668.00    0.90088   0.96802    0.000
 4669.00    0.87133   0.96065    0.000
 4670.00    0.90256   0.96237    0.000
 4671.00    1.00995   0.97197    0.000
 4672.00    1.23034   0.98592    0.000
 4673.00    1.35839   1.00011    0.000
 4674.00    1.36599   1.01166    0.000
 4675.00    1.35121   1.01967    0.000
 4676.00    1.31072   1.02449    0.000
 4677.00    1.28197   1.02655    0.000
 4678.00    1.26513   1.02577    0.000
 4679.00    1.23500   1.02208    0.000
 4680.00    1.19302   1.01614    0.000
 4681.00    1.12941   1.00965    0.000
 4682.00    1.04879   1.00465    0.000
 4683.00    0.98301   1.00256    0.000
 4684.00    0.92752   1.00346    0.000
 4685.00    0.92821   1.00619    0.000
 4686.00    0.96303   1.00917    0.000
 4687.00    1.01986   1.01125    0.000
 4688.00    1.08835   1.01211    0.000
 4689.00    1.10253   1.01212    0.000
 4690.00    1.09172   1.01193    0.000
 4691.00    1.09248   1.01216    0.000
 4692.00    1.09783   1.01335    0.000
 4693.00    1.07548   1.01589    0.000
 4694.00    1.04379   1.01972    0.000
 4695.00    1.00453   1.02404    0.000
 4696.00    0.96313   1.02723    0.000
 4697.00    1.00415   1.02743    0.000
 4698.00    1.06447   1.02345    0.000
 4699.00    1.02348   1.01558    0.000
 4700.00    0.96342   1.00554    0.000
 4701.00    0.92409   0.99566    0.000
 4702.00    0.88778   0.98790    0.000
 4703.00    0.87501   0.98323    0.000
 4704.00    0.86472   0.98165    0.000
 4705.00    0.97970   0.98238    0.000
 4706.00    1.10328   0.98423    0.000
 4707.00    1.14821   0.98609    0.000
 4708.00    1.19046   0.98746    0.000
 4709.00    1.08846   0.98871    0.000
 4710.00    0.99094   0.99058    0.000
 4711.00    1.04626   0.99345    0.000
 4712.00    1.09310   0.99684    0.000
 4713.00    1.00999   0.99991    0.000
 4714.00    0.93439   1.00250    0.000
 4715.00    0.93243   1.00569    0.000
 4716.00    0.94055   1.01131    0.000
 4717.00    1.02006   1.02064    0.000
 4718.00    1.08244   1.03340    0.000
 4719.00    1.05164   1.04767    0.000
 4720.00    1.02245   1.06090    0.000
 4721.00    1.00036   1.07099    0.000
 4722.00    0.98943   1.07705    0.000
 4723.00    1.01855   1.07924    0.000
 4724.00    1.06228   1.07811    0.000
 4725.00    1.15001   1.07372    0.000
 4726.00    1.20856   1.06553    0.000
 4727.00    1.19235   1.05307    0.000
 4728.00    1.15563   1.03713    0.000
 4729.00    1.07369   1.02023    0.000
 4730.00    1.00015   1.00598    0.000
 4731.00    0.94264   0.99742    0.000
 4732.00    0.93749   0.99569    0.000
 4733.00    1.01969   0.99973    0.000
 4734.00    1.02805   1.00704    0.000
 4735.00    0.92843   1.01500    0.000
 4736.00    0.88530   1.02196    0.000
 4737.00    0.91480   1.02751    0.000
 4738.00    0.95804   1.03217    0.000
 4739.00    1.01684   1.03653    0.000
 4740.00    1.02210   1.04074    0.000
 4741.00    0.97385   1.04455    0.000
 4742.00    0.96884   1.04774    0.000
 4743.00    1.00193   1.05046    0.000
 4744.00    1.02535   1.05318    0.000
 4745.00    1.04128   1.05631    0.000
 4746.00    1.04041   1.05997    0.000
 4747.00    1.02809   1.06391    0.000
 4748.00    1.08723   1.06752    0.000
 4749.00    1.18911   1.07005    0.000
 4750.00    1.16972   1.07071    0.000
 4751.00    1.08702   1.06895    0.000
 4752.00    1.03723   1.06466    0.000
 4753.00    1.00235   1.05836    0.000
 4754.00    1.03911   1.05111    0.000
 4755.00    1.10376   1.04424    0.000
 4756.00    1.11519   1.03899    0.000
 4757.00    1.10897   1.03599    0.000
 4758.00    1.07840   1.03505    0.000
 4759.00    1.04107   1.03511    0.000
 4760.00    1.01356   1.03459    0.000
 4761.00    0.98829   1.03188    0.030
 4762.00    0.99881   1.02600    0.030
 4763.00    1.01590   1.01707    0.030
 4764.00    0.93536   1.00639    0.030
 4765.00    0.84108   0.99613    0.030
 4766.00    0.92126   0.98864    0.030
 4767.00    1.01913   0.98580    0.030
 4768.00    1.01553   0.98832    0.030
 4769.00    1.00536   0.99543    0.030
 4770.00    1.00767   1.00517    0.030
 4771.00    1.01040   1.01526    0.030
 4772.00    1.03631   1.02418    0.030
 4773.00    1.06169   1.03173    0.029
 4774.00    1.07209   1.03860    0.030
 4775.00    1.08102   1.04548    0.031
 4776.00    1.06864   1.05227    0.030
 4777.00    1.05305   1.05812    0.030
 4778.00    1.00719   1.06189    0.029
 4779.00    0.97561   1.06276    0.029
 4780.00    1.04178   1.06043    0.029
 4781.00    1.10545   1.05515    0.029
 4782.00    1.15584   1.04765    0.029
 4783.00    1.18470   1.03899    0.028
 4784.00    1.12189   1.03042    0.029
 4785.00    1.05642   1.02301    0.029
 4786.00    0.98162   1.01745    0.029
 4787.00    0.93941   1.01394    0.029
 4788.00    0.99344   1.01245    0.029
 4789.00    1.02992   1.01298    0.029
 4790.00    1.02217   1.01576    0.029
 4791.00    1.02524   1.02122    0.030
 4792.00    1.05179   1.02963    0.030
 4793.00    1.08384   1.04062    0.030
 4794.00    1.12627   1.05288    0.029
 4795.00    1.15574   1.06415    0.029
 4796.00    1.16391   1.07187    0.030
 4797.00    1.12977   1.07429    0.030
 4798.00    1.03465   1.07137    0.030
 4799.00    1.03076   1.06500    0.030
 4800.00    1.14248   1.05820    0.030
 4801.00    1.18589   1.05368    0.030
 4802.00    1.15302   1.05257    0.030
 4803.00    1.13659   1.05391    0.030
 4804.00    1.13638   1.05540    0.030
 4805.00    1.13837   1.05477    0.030
 4806.00    1.14229   1.05115    0.030
 4807.00    1.15047   1.04533    0.030
 4808.00    1.16190   1.03928    0.030
 4809.00    1.09751   1.03493    0.030
 4810.00    0.98211   1.03339    0.030
 4811.00    0.99158   1.03460    0.030
 4812.00    1.07464   1.03768    0.029
 4813.00    1.15712   1.04164    0.029
 4814.00    1.23931   1.04590    0.029
 4815.00    1.21835   1.05049    0.030
 4816.00    1.15147   1.05569    0.030
 4817.00    1.07752   1.06157    0.030
 4818.00    1.00085   1.06756    0.030
 4819.00    0.97711   1.07248    0.030
 4820.00    0.97058   1.07484    0.030
 4821.00    1.00655   1.07340    0.030
 4822.00    1.05409   1.06784    0.031
 4823.00    1.06565   1.05914    0.030
 4824.00    1.06917   1.04944    0.030
 4825.00    1.06552   1.04118    0.030
 4826.00    1.06060   1.03596    0.030
 4827.00    1.07209   1.03387    0.030
 4828.00    1.08581   1.03358    0.030
 4829.00    1.05934   1.03338    0.030
 4830.00    1.02896   1.03214    0.030
 4831.00    1.04505   1.02985    0.030
 4832.00    1.06395   1.02739    0.029
 4833.00    1.06790   1.02595    0.030
 4834.00    1.07160   1.02630    0.030
 4835.00    1.09990   1.02834    0.030
 4836.00    1.12528   1.03100    0.030
 4837.00    1.07445   1.03272    0.030
 4838.00    1.03092   1.03218    0.030
 4839.00    1.08709   1.02894    0.030
 4840.00    1.14088   1.02370    0.029
 4841.00    1.17331   1.01790    0.029
 4842.00    1.20149   1.01314    0.029
 4843.00    1.20157   1.01055    0.029
 4844.00    1.19177   1.01042    0.029
 4845.00    1.13094   1.01219    0.029
 4846.00    1.07016   1.01452    0.029
 4847.00    1.00957   1.01590    0.029
 4848.00    0.96421   1.01519    0.000
 4849.00    0.97126   1.01216    0.000
 4850.00    0.95828   1.00738    0.000
 4851.00    0.88722   1.00148    0.000
 4852.00    0.83967   0.99442    0.000
 4853.00    0.85031   0.98535    0.000
 4854.00    0.86480   0.97319    0.000
 4855.00    0.88748   0.95739    0.000
 4856.00    0.92390   0.93823    0.000
 4857.00    0.98575   0.91632    0.000
 4858.00    0.98353   0.89200    0.000
 4859.00    0.87760   0.86546    0.000
 4860.00    0.82779   0.83778    0.000
 4861.00    0.85769   0.81195    0.000
 4862.00    0.85891   0.79276    0.000
 4863.00    0.82428   0.78497    0.000
 4864.00    0.80589   0.79093    0.000
 4865.00    0.80536   0.80916    0.000
 4866.00    0.86479   0.83493    0.000
 4867.00    0.98247   0.86220    0.000
 4868.00    1.04906   0.88569    0.000
 4869.00    1.07191   0.90223    0.000
 4870.00    1.01098   0.91115    0.000
 4871.00    0.88685   0.91406    0.000
 4872.00    0.82414   0.91422    0.000
 4873.00    0.80214   0.91535    0.000
 4874.00    0.86259   0.92028    0.000
 4875.00    0.97090   0.93003    0.028
 4876.00    0.99850   0.94373    0.028
 4877.00    0.98527   0.95941    0.028
 4878.00    0.96828   0.97492    0.028
 4879.00    0.94963   0.98846    0.028
 4880.00    0.97051   0.99864    0.027
 4881.00    1.00624   1.00457    0.027
 4882.00    1.04016   1.00596    0.027
 4883.00    1.07349   1.00325    0.028
 4884.00    1.04802   0.99736    0.028
 4885.00    1.00688   0.98948    0.028
 4886.00    0.93041   0.98076    0.028
 4887.00    0.84624   0.97217    0.027
 4888.00    0.88259   0.96447    0.028
 4889.00    0.93983   0.95832    0.028
 4890.00    0.98006   0.95450    0.028
 4891.00    1.01805   0.95437    0.027
 4892.00    1.00348   0.95978    0.027
 4893.00    0.98403   0.97222    0.027
 4894.00    0.96357   0.99153    0.027
 4895.00    0.94306   1.01523    0.027
 4896.00    0.86998   1.03898    0.027
 4897.00    0.79723   1.05826    0.027
 4898.00    0.89196   1.07008    0.027
 4899.00    0.98480   1.07378    0.027
 4900.00    1.03251   1.07086    0.027
 4901.00    1.07688   1.06406    0.027
 4902.00    1.07799   1.05635    0.027
 4903.00    1.07115   1.05010    0.027
 4904.00    0.99516   1.04666    0.027
 4905.00    0.93373   1.04613    0.027
 4906.00    0.96600   1.04735    0.027
 4907.00    1.00588   1.04828    0.027
 4908.00    1.08398   1.04684    0.027
 4909.00    1.13841   1.04204    0.027
 4910.00    1.09644   1.03468    0.027
 4911.00    1.07063   1.02718    0.027
 4912.00    1.09933   1.02232    0.027
 4913.00    1.10977   1.02174    0.027
 4914.00    1.06823   1.02484    0.027
 4915.00    1.03849   1.02885    0.027
 4916.00    1.03750   1.02974    0.027
 4917.00    1.03173   1.02382    0.027
 4918.00    1.01591   1.00944    0.027
 4919.00    0.99647   0.98796    0.027
 4920.00    0.97039   0.96381    0.027
 4921.00    0.93694   0.94286    0.027
 4922.00    0.89172   0.93032    0.027
 4923.00    0.88935   0.92884    0.026
 4924.00    0.94696   0.93786    0.026
 4925.00    1.00358   0.95471    0.027
 4926.00    1.05900   0.97601    0.027
 4927.00    1.08871   0.99890    0.027
 4928.00    1.09052   1.02109    0.027
 4929.00    1.09103   1.04063    0.027
 4930.00    1.09030   1.05560    0.027
 4931.00    1.08814   1.06437    0.027
 4932.00    1.08478   1.06614    0.027
 4933.00    1.02417   1.06138    0.027
 4934.00    0.92098   1.05175    0.027
 4935.00    0.92062   1.03943    0.027
 4936.00    0.98743   1.02643    0.027
 4937.00    0.94841   1.01419    0.027
 4938.00    0.84889   1.00390    0.027
 4939.00    0.88497   0.99703    0.027
 4940.00    0.98855   0.99533    0.000
 4941.00    1.06698   1.00007    0.000
 4942.00    1.13458   1.01097    0.000
 4943.00    1.13287   1.02588    0.000
 4944.00    1.10558   1.04155    0.000
 4945.00    1.10400   1.05511    0.000
 4946.00    1.11046   1.06518    0.000
 4947.00    1.14274   1.07205    0.000
 4948.00    1.18175   1.07693    0.000
 4949.00    1.12937   1.08089    0.000
 4950.00    1.05752   1.08419    0.000
 4951.00    1.09311   1.08610    0.000
 4952.00    1.14680   1.08521    0.000
 4953.00    1.05356   1.08005    0.000
 4954.00    0.94164   1.06961    0.000
 4955.00    0.92671   1.05387    0.000
 4956.00    0.92039   1.03423    0.000
 4957.00    0.95369   1.01371    0.000
 4958.00    0.98907   0.99646    0.000
 4959.00    1.06307   0.98652    0.000
 4960.00    1.13664   0.98592    0.000
 4961.00    1.11946   0.99364    0.000
 4962.00    1.10147   1.00575    0.000
 4963.00    1.06574   1.01722    0.000
 4964.00    1.03441   1.02402    0.000
 4965.00    1.05697   1.02464    0.000
 4966.00    1.07406   1.02018    0.000
 4967.00    1.04537   1.01339    0.000
 4968.00    1.01769   1.00735    0.000
 4969.00    0.99627   1.00446    0.000
 4970.00    0.98269   1.00582    0.000
 4971.00    1.00754   1.01120    0.000
 4972.00    1.02199   1.01931    0.000
 4973.00    0.99505   1.02838    0.000
 4974.00    0.97050   1.03646    0.000
 4975.00    0.95385   1.04177    0.000
 4976.00    0.94649   1.04291    0.000
 4977.00    0.96508   1.03919    0.000
 4978.00    0.97661   1.03058    0.000
 4979.00    0.97127   1.01772    0.000
 4980.00    0.95633   1.00173    0.000
 4981.00    0.92153   0.98402    0.000
 4982.00    0.90580   0.96641    0.000
 4983.00    0.92433   0.95116    0.000
 4984.00    0.95082   0.94072    0.000
 4985.00    0.98984   0.93711    0.000
 4986.00    0.99478   0.94100    0.000
 4987.00    0.95272   0.95121    0.000
 4988.00    0.94783   0.96490    0.000
 4989.00    0.98806   0.97867    0.000
 4990.00    1.01787   0.98984    0.000
 4991.00    1.03650   0.99727    0.000
 4992.00    1.04432   1.00134    0.000
 4993.00    1.04191   1.00332    0.000
 4994.00    1.02679   1.00448    0.000
 4995.00    1.00109   1.00538    0.000
 4996.00    1.00469   1.00572    0.000
 4997.00    1.02978   1.00459    0.000
 4998.00    1.00961   1.00094    0.000
 4999.00    0.96032   0.99417    0.000
 5000.00    0.92687   0.98449    0.000
 5001.00    0.90232   0.97297    0.000
 5002.00    0.85947   0.96113    0.000
 5003.00    0.80764   0.95024    0.000
 5004.00    0.84248   0.94109    0.000
 5005.00    0.91403   0.93408    0.000
 5006.00    0.93319   0.92958    0.000
 5007.00    0.93337   0.92815    0.000
 5008.00    0.86793   0.93002    0.000
 5009.00    0.78236   0.93437    0.000
 5010.00    0.83107   0.93912    0.000
 5011.00    0.91406   0.94146    0.000
 5012.00    0.93172   0.93931    0.000
 5013.00    0.93580   0.93244    0.000
 5014.00    0.90739   0.92270    0.000
 5015.00    0.87366   0.91313    0.000
 5016.00    0.85695   0.90658    0.000
 5017.00    0.84233   0.90459    0.000
 5018.00    0.87468   0.90699    0.000
 5019.00    0.91100   0.91239    0.000
 5020.00    0.89526   0.91909    0.000
 5021.00    0.87698   0.92583    0.000
 5022.00    0.90507   0.93208    0.000
 5023.00    0.93308   0.93785    0.000
 5024.00    0.91289   0.94341    0.000
 5025.00    0.89361   0.94890    0.000
 5026.00    0.89241   0.95420    0.000
 5027.00    0.89461   0.95919    0.000
 5028.00    0.93640   0.96416    0.000
 5029.00    0.97425   0.96986    0.025
 5030.00    0.98022   0.97700    0.026
 5031.00    0.97902   0.98566    0.026
 5032.00    0.93430   0.99483    0.025
 5033.00    0.90433   1.00252    0.025
 5034.00    0.94492   1.00641    0.025
 5035.00    0.97158   1.00472    0.025
 5036.00    0.94394   0.99683    0.026
 5037.00    0.92828   0.98357    0.026
 5038.00    0.95146   0.96679    0.026
 5039.00    0.95026   0.94879    0.026
 5040.00    0.88212   0.93217    0.025
 5041.00    0.82557   0.91980    0.025
 5042.00    0.79625   0.91460    0.025
 5043.00    0.80310   0.91848    0.025
 5044.00    0.88347   0.93113    0.025
 5045.00    0.95064   0.94958    0.025
 5046.00    0.99446   0.96891    0.026
 5047.00    1.02151   0.98389    0.026
 5048.00    1.02259   0.99110    0.026
 5049.00    0.99950   0.99002    0.026
 5050.00    0.94356   0.98319    0.026
 5051.00    0.93587   0.97497    0.026
 5052.00    0.98592   0.96937    0.026
 5053.00    1.01475   0.96877    0.026
 5054.00    1.02119   0.97360    0.026
 5055.00    0.98604   0.98269    0.026
 5056.00    0.91218   0.99395    0.026
 5057.00    0.92240   1.00537    0.026
 5058.00    1.00161   1.01566    0.026
 5059.00    1.02924   1.02419    0.026
 5060.00    1.01960   1.03046    0.026
 5061.00    0.97592   1.03388    0.026
 5062.00    0.91066   1.03370    0.026
 5063.00    0.90236   1.02922    0.026
 5064.00    0.92565   1.02036    0.026
 5065.00    0.95638   1.00816    0.026
 5066.00    0.99070   0.99488    0.026
 5067.00    0.97744   0.98306    0.026
 5068.00    0.94437   0.97465    0.026
 5069.00    0.92718   0.97034    0.026
 5070.00    0.91564   0.96959    0.026
 5071.00    0.93346   0.97105    0.026
 5072.00    0.96010   0.97311    0.026
 5073.00    0.91625   0.97467    0.026
 5074.00    0.85479   0.97542    0.026
 5075.00    0.89088   0.97514    0.026
 5076.00    0.94675   0.97325    0.026
 5077.00    0.93973   0.96907    0.026
 5078.00    0.92271   0.96223    0.026
 5079.00    0.92714   0.95278    0.026
 5080.00    0.93411   0.94177    0.026
 5081.00    0.92183   0.93147    0.026
 5082.00    0.90800   0.92456    0.026
 5083.00    0.92740   0.92275    0.025
 5084.00    0.94829   0.92643    0.025
 5085.00    0.93525   0.93485    0.025
 5086.00    0.92336   0.94617    0.025
 5087.00    0.98867   0.95814    0.025
 5088.00    1.04816   0.96923    0.025
 5089.00    0.99926   0.97897    0.024
 5090.00    0.95102   0.98737    0.024
 5091.00    0.91013   0.99445    0.024
 5092.00    0.87203   1.00023    0.024
 5093.00    0.85564   1.00436    0.025
 5094.00    0.84385   1.00597    0.025
 5095.00    0.85908   1.00394    0.025
 5096.00    0.87996   0.99769    0.024
 5097.00    0.92715   0.98771    0.025
 5098.00    0.96013   0.97557    0.025
 5099.00    0.93894   0.96373    0.025
 5100.00    0.92331   0.95489    0.024
 5101.00    0.92538   0.95078    0.024
 5102.00    0.92168   0.95139    0.024
 5103.00    0.90240   0.95498    0.024
 5104.00    0.88511   0.95907    0.024
 5105.00    0.87245   0.96145    0.024
 5106.00    0.86142   0.96071    0.024
 5107.00    0.85364   0.95693    0.024
 5108.00    0.84523   0.95163    0.024
 5109.00    0.83569   0.94679    0.024
 5110.00    0.83570   0.94410    0.024
 5111.00    0.85026   0.94455    0.024
 5112.00    0.85623   0.94855    0.024
 5113.00    0.85070   0.95594    0.025
 5114.00    0.84568   0.96578    0.025
 5115.00    0.84125   0.97666    0.025
 5116.00    0.87700   0.98738    0.025
 5117.00    0.95456   0.99648    0.025
 5118.00    0.98941   1.00262    0.025
 5119.00    0.98506   1.00483    0.025
 5120.00    0.99932   1.00224    0.025
 5121.00    1.02863   0.99452    0.025
 5122.00    1.00445   0.98229    0.025
 5123.00    0.94219   0.96701    0.025
 5124.00    0.86800   0.95089    0.025
 5125.00    0.78635   0.93634    0.024
 5126.00    0.81850   0.92518    0.025
 5127.00    0.91277   0.91829    0.025
 5128.00    0.92549   0.91569    0.025
 5129.00    0.89954   0.91697    0.025
 5130.00    0.89190   0.92136    0.025
 5131.00    0.89175   0.92794    0.025
 5132.00    0.92245   0.93606    0.025
 5133.00    0.96395   0.94496    0.025
 5134.00    0.96830   0.95342    0.025
 5135.00    0.96170   0.95999    0.025
 5136.00    0.91856   0.96341    0.025
 5137.00    0.86649   0.96302    0.025
 5138.00    0.90708   0.95917    0.025
 5139.00    0.96597   0.95304    0.026
 5140.00    0.96286   0.94595    0.026
 5141.00    0.95020   0.93927    0.025
 5142.00    1.03444   0.93414    0.025
 5143.00    1.12972   0.93078    0.025
 5144.00    1.02931   0.92871    0.025
 5145.00    0.91398   0.92719    0.025
 5146.00    0.84946   0.92552    0.025
 5147.00    0.78703   0.92392    0.025
 5148.00    0.84749   0.92282    0.025
 5149.00    0.90580   0.92190    0.025
 5150.00    0.83116   0.92092    0.025
 5151.00    0.76599   0.92025    0.025
 5152.00    0.86469   0.92022    0.025
 5153.00    0.94959   0.92121    0.026
 5154.00    0.88755   0.92383    0.025
 5155.00    0.83891   0.92898    0.025
 5156.00    0.89120   0.93728    0.025
 5157.00    0.93285   0.94821    0.026
 5158.00    0.91359   0.96012    0.025
 5159.00    0.88868   0.97078    0.025
 5160.00    0.83806   0.97788    0.025
 5161.00    0.81207   0.97944    0.025
 5162.00    0.87799   0.97415    0.025
 5163.00    0.92379   0.96136    0.025
 5164.00    0.90679   0.94124    0.025
 5165.00    0.87372   0.91450    0.025
 5166.00    0.79806   0.88287    0.025
 5167.00    0.75045   0.84958    0.024
 5168.00    0.76665   0.81838    0.025
 5169.00    0.76795   0.79240    0.025
 5170.00    0.73988   0.77394    0.024
 5171.00    0.70565   0.76389    0.024
 5172.00    0.66082   0.76174    0.024
 5173.00    0.64206   0.76633    0.024
 5174.00    0.66247   0.77670    0.024
 5175.00    0.69729   0.79251    0.024
 5176.00    0.75113   0.81364    0.024
 5177.00    0.77965   0.83837    0.024
 5178.00    0.77870   0.86190    0.024
 5179.00    0.77062   0.87793    0.024
 5180.00    0.75523   0.88254    0.024
 5181.00    0.75909   0.87586    0.024
 5182.00    0.78036   0.86077    0.023
 5183.00    0.80310   0.84184    0.023
 5184.00    0.82702   0.82516    0.023
 5185.00    0.81459   0.81660    0.023
 5186.00    0.77667   0.81962    0.023
 5187.00    0.76187   0.83436    0.023
 5188.00    0.76132   0.85753    0.023
 5189.00    0.80549   0.88270    0.024
 5190.00    0.87370   0.90265    0.000
 5191.00    0.86916   0.91361    0.000
 5192.00    0.83068   0.91621    0.000
 5193.00    0.85469   0.91381    0.000
 5194.00    0.90384   0.91007    0.000
 5195.00    0.90896   0.90786    0.000
 5196.00    0.89897   0.90994    0.000
 5197.00    0.89759   0.91746    0.000
 5198.00    0.89869   0.92826    0.000
 5199.00    0.93990   0.93922    0.000
 5200.00    0.99069   0.94835    0.000
 5201.00    0.94612   0.95364    0.000
 5202.00    0.88319   0.95311    0.000
 5203.00    0.88859   0.94600    0.000
 5204.00    0.90421   0.93270    0.000
 5205.00    0.92325   0.91482    0.000
 5206.00    0.94266   0.89519    0.000
 5207.00    0.90104   0.87716    0.000
 5208.00    0.85502   0.86382    0.000
 5209.00    0.85903   0.85803    0.000
 5210.00    0.86491   0.86153    0.000
 5211.00    0.87010   0.87327    0.025
 5212.00    0.87467   0.89039    0.025
 5213.00    0.85684   0.91018    0.025
 5214.00    0.84006   0.92933    0.025
 5215.00    0.84045   0.94472    0.025
 5216.00    0.84121   0.95531    0.025
 5217.00    0.84583   0.96197    0.025
 5218.00    0.85897   0.96672    0.025
 5219.00    0.93404   0.97147    0.025
 5220.00    1.00014   0.97697    0.025
 5221.00    1.01629   0.98179    0.025
 5222.00    1.01818   0.98301    0.025
 5223.00    0.95671   0.97814    0.025
 5224.00    0.89686   0.96664    0.025
 5225.00    0.84298   0.95025    0.025
 5226.00    0.81274   0.93224    0.025
 5227.00    0.85486   0.91683    0.025
 5228.00    0.88028   0.90802    0.025
 5229.00    0.86227   0.90796    0.025
 5230.00    0.85522   0.91600    0.025
 5231.00    0.87268   0.92936    0.024
 5232.00    0.89105   0.94384    0.024
 5233.00    0.91121   0.95535    0.025
 5234.00    0.92784   0.96286    0.025
 5235.00    0.93853   0.96833    0.025
 5236.00    0.96526   0.97405    0.025
 5237.00    1.01576   0.98186    0.024
 5238.00    1.03583   0.99203    0.024
 5239.00    1.01626   1.00277    0.024
 5240.00    0.99872   1.01198    0.024
 5241.00    0.98352   1.01833    0.024
 5242.00    0.95836   1.02152    0.024
 5243.00    0.92311   1.02210    0.024
 5244.00    0.92661   1.02044    0.024
 5245.00    0.96469   1.01634    0.024
 5246.00    0.95293   1.00938    0.024
 5247.00    0.90199   0.99980    0.024
 5248.00    0.87535   0.98835    0.024
 5249.00    0.86552   0.97604    0.024
 5250.00    0.88440   0.96488    0.024
 5251.00    0.92069   0.95747    0.024
 5252.00    0.95417   0.95476    0.024
 5253.00    0.98615   0.95567    0.024
 5254.00    0.96449   0.95963    0.024
 5255.00    0.91819   0.96678    0.024
 5256.00    0.92936   0.97612    0.024
 5257.00    0.96324   0.98592    0.024
 5258.00    0.95692   0.99478    0.024
 5259.00    0.93705   1.00117    0.024
 5260.00    0.96162   1.00260    0.024
 5261.00    0.99877   0.99596    0.024
 5262.00    0.93167   0.98014    0.025
 5263.00    0.84024   0.95678    0.026
 5264.00    0.80882   0.92931    0.025
 5265.00    0.78866   0.90167    0.025
 5266.00    0.76318   0.87725    0.025
 5267.00    0.73692   0.85840    0.025
 5268.00    0.68571   0.84592    0.025
 5269.00    0.63186   0.83971    0.026
 5270.00    0.70633   0.83954    0.026
 5271.00    0.78955   0.84460    0.026
 5272.00    0.83163   0.85404    0.026
 5273.00    0.87233   0.86876    0.026
 5274.00    0.87934   0.88929    0.025
 5275.00    0.88877   0.91252    0.025
 5276.00    0.97692   0.93429    0.025
 5277.00    1.05806   0.95315    0.025
 5278.00    1.03241   0.96911    0.025
 5279.00    1.00507   0.98197    0.025
 5280.00    0.96127   0.99106    0.025
 5281.00    0.92957   0.99514    0.025
 5282.00    0.98310   0.99417    0.025
 5283.00    1.01980   0.99071    0.025
 5284.00    0.96520   0.98859    0.025
 5285.00    0.92501   0.99087    0.025
 5286.00    0.94742   0.99862    0.025
 5287.00    0.95927   1.01115    0.025
 5288.00    0.93337   1.02642    0.025
 5289.00    0.92853   1.04111    0.025
 5290.00    0.98692   1.05198    0.025
 5291.00    1.02941   1.05786    0.025
 5292.00    1.03126   1.05927    0.025
 5293.00    1.02616   1.05655    0.025
 5294.00    1.00578   1.04931    0.025
 5295.00    0.98649   1.03740    0.025
 5296.00    0.96927   1.02194    0.025
 5297.00    0.95934   1.00500    0.025
 5298.00    0.96156   0.98884    0.025
 5299.00    0.96795   0.97563    0.025
 5300.00    0.98044   0.96796    0.025
 5301.00    0.95852   0.96811    0.024
 5302.00    0.89246   0.97624    0.024
 5303.00    0.87984   0.98953    0.024
 5304.00    0.92765   1.00465    0.024
 5305.00    0.95953   1.02016    0.024
 5306.00    0.97551   1.03517    0.024
 5307.00    0.97993   1.04804    0.024
 5308.00    0.97419   1.05737    0.024
 5309.00    0.99591   1.06299    0.024
 5310.00    1.03893   1.06588    0.024
 5311.00    1.04320   1.06730    0.024
 5312.00    1.02105   1.06751    0.024
 5313.00    0.99240   1.06583    0.024
 5314.00    0.95987   1.06199    0.024
 5315.00    0.97965   1.05662    0.024
 5316.00    1.02668   1.05062    0.024
 5317.00    1.03773   1.04480    0.024
 5318.00    1.03253   1.03949    0.024
 5319.00    1.01600   1.03461    0.024
 5320.00    0.99508   1.03009    0.024
 5321.00    0.96546   1.02538    0.024
 5322.00    0.93297   1.01909    0.024
 5323.00    0.94962   1.01022    0.024
 5324.00    0.97990   0.99840    0.024
 5325.00    0.94119   0.98358    0.024
 5326.00    0.88674   0.96634    0.024
 5327.00    0.87448   0.94860    0.024
 5328.00    0.86991   0.93337    0.024
 5329.00    0.83472   0.92265    0.024
 5330.00    0.79523   0.91766    0.024
 5331.00    0.80147   0.92092    0.024
 5332.00    0.81233   0.93456    0.024
 5333.00    0.90338   0.95552    0.024
 5334.00    0.99958   0.97730    0.024
 5335.00    0.95758   0.99541    0.024
 5336.00    0.91180   1.00861    0.024
 5337.00    1.00343   1.01677    0.024
 5338.00    1.09133   1.01918    0.024
 5339.00    1.07273   1.01595    0.024
 5340.00    1.05393   1.00913    0.024
 5341.00    1.03248   1.00148    0.024
 5342.00    1.01276   0.99487    0.024
 5343.00    1.00925   0.99094    0.024
 5344.00    1.00926   0.99128    0.024
 5345.00    1.03334   0.99500    0.024
 5346.00    1.04637   0.99883    0.024
 5347.00    1.00109   1.00088    0.024
 5348.00    0.96549   1.00151    0.024
 5349.00    0.97099   1.00247    0.024
 5350.00    0.96512   1.00550    0.024
 5351.00    0.91937   1.01096    0.024
 5352.00    0.89583   1.01946    0.024
 5353.00    0.93776   1.03164    0.024
 5354.00    0.97923   1.04601    0.024
 5355.00    1.01957   1.05996    0.024
 5356.00    1.04196   1.07191    0.024
 5357.00    1.02553   1.08151    0.024
 5358.00    1.02296   1.08798    0.024
 5359.00    1.04645   1.09021    0.024
 5360.00    1.07869   1.08832    0.024
 5361.00    1.12532   1.08289    0.023
 5362.00    1.11840   1.07453    0.024
 5363.00    1.03449   1.06402    0.024
 5364.00    0.99255   1.05219    0.024
 5365.00    1.00371   1.04010    0.024
 5366.00    0.99879   1.02852    0.023
 5367.00    0.97593   1.01696    0.024
 5368.00    0.92322   1.00513   -2.000
 5369.00    0.84117   0.99372   -2.000
 5370.00    0.80374   0.98328   -2.000
 5371.00    0.80501   0.97498   -2.000
 5372.00    0.79511   0.97045   -2.000
 5373.00    0.77669   0.97146   -2.000
 5374.00    0.79239   0.97974   -2.000
 5375.00    0.83098   0.99491   -2.000
 5376.00    0.95983   1.01306   -2.000
 5377.00    1.14176   1.02899   -2.000
 5378.00    1.19079   1.04029   -2.000
 5379.00    1.17165   1.04666   -2.000
 5380.00    1.09830   1.04908   -2.000
 5381.00    1.00086   1.04916   -2.000
 5382.00    1.01253   1.04740   -2.000
 5383.00    1.06584   1.04421    0.024
 5384.00    1.05556   1.04085    0.024
 5385.00    1.02466   1.03813    0.024
 5386.00    0.97360   1.03594    0.024
 5387.00    0.91707   1.03411    0.024
 5388.00    0.95721   1.03146    0.024
 5389.00    1.01889   1.02656    0.024
 5390.00    0.99178   1.01945    0.024
 5391.00    0.94891   1.01084    0.024
 5392.00    0.92055   1.00136    0.024
 5393.00    0.89415   0.99207    0.024
 5394.00    0.91164   0.98378    0.024
 5395.00    0.93335   0.97652    0.024
 5396.00    0.93712   0.97026    0.024
 5397.00    0.93980   0.96539    0.024
 5398.00    0.90413   0.96237    0.024
 5399.00    0.86800   0.96125    0.024
 5400.00    0.92206   0.96266    0.024
 5401.00    0.97336   0.96680    0.024
 5402.00    0.95353   0.97031    0.024
 5403.00    0.93301   0.96958    0.024
 5404.00    0.90324   0.96454    0.024
 5405.00    0.88019   0.95628    0.024
 5406.00    0.91770   0.94573    0.024
 5407.00    0.94872   0.93550    0.024
 5408.00    0.93676   0.92940    0.023
 5409.00    0.92533   0.92974    0.023
 5410.00    0.91657   0.93587    0.023
 5411.00    0.90028   0.94513    0.023
 5412.00    0.85274   0.95598    0.023
 5413.00    0.82514   0.96907    0.023
 5414.00    0.86599   0.98458    0.023
 5415.00    0.91355   1.00007    0.023
 5416.00    0.98048   1.01307    0.024
 5417.00    1.02985   1.02306    0.024
 5418.00    1.03584   1.03054    0.024
 5419.00    1.03878   1.03555    0.024
 5420.00    1.03523   1.03732    0.024
 5421.00    1.02301   1.03572    0.024
 5422.00    0.99475   1.03210    0.023
 5423.00    0.98490   1.02812    0.023
 5424.00    1.00477   1.02500    0.023
 5425.00    1.02732   1.02259    0.023
 5426.00    1.05368   1.01980    0.023
 5427.00    1.04726   1.01672    0.023
 5428.00    0.99995   1.01383    0.023
 5429.00    0.99041   1.00958    0.023
 5430.00    1.02237   1.00211    0.023
 5431.00    1.03009   0.99152    0.024
 5432.00    1.01432   0.98061    0.024
 5433.00    0.99846   0.97330    0.024
 5434.00    0.98254   0.96999    0.024
 5435.00    0.96166   0.96876    0.023
 5436.00    0.93706   0.97048    0.023
 5437.00    0.94481   0.97719    0.023
 5438.00    0.97396   0.98921    0.023
 5439.00    1.00710   1.00518    0.024
 5440.00    1.04256   1.02248    0.024
 5441.00    0.99165   1.03801    0.023
 5442.00    0.89713   1.04867    0.023
 5443.00    0.87856   1.05265    0.023
 5444.00    0.89317   1.04968    0.023
 5445.00    0.96704   1.04081    0.023
 5446.00    1.06312   1.02790    0.024
 5447.00    1.03462   1.01335    0.024
 5448.00    0.96648   1.00019    0.023
 5449.00    0.97080   0.99155    0.023
 5450.00    0.99440   0.98930    0.023
 5451.00    0.94691   0.99189    0.023
 5452.00    0.88395   0.99488    0.023
 5453.00    0.89244   0.99509    0.023
 5454.00    0.91328   0.99216    0.023
 5455.00    0.91708   0.98722    0.023
 5456.00    0.91865   0.98195    0.023
 5457.00    0.92636   0.97821    0.023
 5458.00    0.93464   0.97801    0.023
 5459.00    0.97940   0.98239    0.023
 5460.00    1.02622   0.98920    0.024
 5461.00    0.98173   0.99456    0.023
 5462.00    0.93518   0.99658    0.023
 5463.00    0.88703   0.99592    0.023
 5464.00    0.84312   0.99422    0.023
 5465.00    0.89901   0.99294    0.023
 5466.00    0.95077   0.99340    0.023
 5467.00    0.94963   0.99598    0.023
 5468.00    0.94801   0.99891    0.023
 5469.00    0.94220   1.00057    0.023
 5470.00    0.94070   1.00076    0.023
 5471.00    0.96677   0.99892    0.023
 5472.00    0.98823   0.99436    0.023
 5473.00    0.98665   0.98779    0.023
 5474.00    0.96784   0.98036    0.023
 5475.00    0.87912   0.97226    0.023
 5476.00    0.81174   0.96414    0.023
 5477.00    0.81618   0.95753    0.023
 5478.00    0.82417   0.95286   -2.000
 5479.00    0.84226   0.95062   -2.000
 5480.00    0.86109   0.95259   -2.000
 5481.00    0.88173   0.95825   -2.000
 5482.00    0.87397   0.96432   -2.000
 5483.00    0.80668   0.96928   -2.000
 5484.00    0.72644   0.97460   -2.000
 5485.00    0.62260   0.98137   -2.000
 5486.00    0.35492   0.98850   -2.000
 5487.00   -0.17356   0.99425   -2.000
 5488.00   -0.59205   0.99743   -2.000
 5489.00   -0.85687   0.99790   -2.000
 5490.00   -0.45856   0.99743   -2.000
 5491.00    0.75500   0.99792   -2.000
 5492.00    1.58497   0.99917   -2.000
 5493.00    1.99925   1.00032   -2.000
 5494.00    1.89477   1.00124   -2.000
 5495.00    1.29442   1.00152   -2.000
 5496.00    0.98943   1.00114   -2.000
 5497.00    0.93337   1.00091   -2.000
 5498.00    0.95052   1.00066   -2.000
 5499.00    1.02202   0.99960   -2.000
 5500.00    1.00145   0.99835   -2.000
 5501.00    0.92087   0.99760   -2.000
 5502.00    0.90601   0.99588   -1.000
 5503.00    0.92865   0.99194   -1.000
 5504.00    0.91290   0.98707   -1.000
 5505.00    0.87807   0.98314   -1.000
 5506.00    0.89352   0.98043   -1.000
 5507.00    0.93056   0.97829   -1.000
 5508.00    0.93950   0.97631    0.062
 5509.00    0.93808   0.97509    0.026
 5510.00    0.92626   0.97502    0.023
 5511.00    0.91119   0.97453    0.023
 5512.00    0.92126   0.97226    0.023
 5513.00    0.93787   0.96883    0.023
 5514.00    0.93241   0.96577    0.023
 5515.00    0.92226   0.96501    0.023
 5516.00    0.86345   0.96802    0.023
 5517.00    0.79646   0.97470    0.023
 5518.00    0.84771   0.98393    0.023
 5519.00    0.91393   0.99446    0.023
 5520.00    0.93717   1.00499    0.023
 5521.00    0.95661   1.01379    0.023
 5522.00    0.96587   1.01918    0.022
 5523.00    0.97460   1.02080    0.022
 5524.00    0.96337   1.01925    0.022
 5525.00    0.95156   1.01511    0.022
 5526.00    0.92375   1.00892    0.022
 5527.00    0.89709   1.00145    0.022
 5528.00    0.89498   0.99386    0.022
 5529.00    0.89102   0.98741    0.023
 5530.00    0.86448   0.98341    0.023
 5531.00    0.84865   0.98323    0.022
 5532.00    0.92211   0.98664    0.023
 5533.00    0.98492   0.99108    0.023
 5534.00    0.98154   0.99444    0.023
 5535.00    0.98029   0.99664    0.023
 5536.00    0.98943   0.99828    0.023
 5537.00    0.99562   0.99986    0.023
 5538.00    0.99011   1.00217    0.023
 5539.00    0.99376   1.00546    0.023
 5540.00    1.02761   1.00914    0.023
 5541.00    1.03945   1.01294    0.023
 5542.00    0.98990   1.01660    0.023
 5543.00    0.96526   1.01920    0.023
 5544.00    1.00010   1.02015    0.023
 5545.00    1.01933   1.01995    0.023
 5546.00    1.00642   1.02015    0.023
 5547.00    0.98719   1.02168    0.023
 5548.00    0.95665   1.02424    0.023
 5549.00    0.96773   1.02771    0.023
 5550.00    1.04407   1.03187    0.023
 5551.00    1.05649   1.03532    0.023
 5552.00    0.98088   1.03675    0.023
 5553.00    0.94917   1.03600    0.023
 5554.00    0.97064   1.03334    0.023
 5555.00    0.97724   1.02933    0.023
 5556.00    0.96795   1.02498    0.023
 5557.00    0.95223   1.02138    0.023
 5558.00    0.93046   1.01876    0.022
 5559.00    0.96404   1.01644    0.022
 5560.00    1.04362   1.01406    0.022
 5561.00    1.03948   1.01165    0.022
 5562.00    0.97409   1.00881    0.022
 5563.00    0.94263   1.00516    0.022
 5564.00    0.93297   1.00080    0.022
 5565.00    0.94317   0.99634    0.022
 5566.00    0.96452   0.99257    0.022
 5567.00    0.95879   0.98939    0.022
 5568.00    0.93982   0.98651    0.022
 5569.00    0.95619   0.98459    0.022
 5570.00    0.98748   0.98398    0.022
 5571.00    0.97547   0.98408    0.022
 5572.00    0.94779   0.98505    0.022
 5573.00    0.90508   0.98718    0.022
 5574.00    0.85778   0.98932    0.022
 5575.00    0.86639   0.99147    0.022
 5576.00    0.88923   0.99517    0.023
 5577.00    0.86953   0.99968    0.022
 5578.00    0.84102   1.00327    0.022
 5579.00    0.91612   1.00608    0.022
 5580.00    1.00811   1.00800    0.023
 5581.00    1.00861   1.00823    0.023
 5582.00    0.99792   1.00661    0.023
 5583.00    0.96120   1.00251    0.023
 5584.00    0.92230   0.99539    0.023
 5585.00    0.91353   0.98596    0.023
 5586.00    0.90621   0.97480    0.023
 5587.00    0.84401   0.96234    0.023
 5588.00    0.78241   0.94984    0.023
 5589.00    0.80528   0.93935    0.023
 5590.00    0.82846   0.93295    0.023
 5591.00    0.85754   0.93167    0.023
 5592.00    0.88294   0.93517    0.023
 5593.00    0.86547   0.94183    0.023
 5594.00    0.85311   0.94952    0.023
 5595.00    0.88179   0.95690    0.023
 5596.00    0.90593   0.96333    0.023
 5597.00    0.90259   0.96869    0.024
 5598.00    0.90202   0.97234    0.024
 5599.00    0.91472   0.97235    0.024
 5600.00    0.92519   0.96871    0.023
 5601.00    0.92697   0.96444    0.023
 5602.00    0.92546   0.96195    0.023
 5603.00    0.91336   0.96184    0.023
 5604.00    0.90527   0.96500    0.023
 5605.00    0.90816   0.97234    0.023
 5606.00    0.92290   0.98365    0.022
 5607.00    0.96544   0.99685    0.022
 5608.00    0.98705   1.00926    0.022
 5609.00    0.96621   1.01904    0.022
 5610.00    0.95654   1.02513    0.022
 5611.00    0.96658   1.02716    0.022
 5612.00    0.98323   1.02540    0.022
 5613.00    1.01007   1.02038    0.022
 5614.00    0.99902   1.01248    0.022
 5615.00    0.93655   1.00198    0.022
 5616.00    0.90612   0.98938    0.022
 5617.00    0.91398   0.97702    0.022
 5618.00    0.90433   0.96920    0.022
 5619.00    0.87624   0.96743    0.022
 5620.00    0.86733   0.96856    0.022
 5621.00    0.87627   0.96992    0.022
 5622.00    0.87705   0.97129    0.022
 5623.00    0.87113   0.97269    0.022
 5624.00    0.86821   0.97326    0.022
 5625.00    0.86743   0.97210    0.022
 5626.00    0.86803   0.96993    0.022
 5627.00    0.86950   0.96966    0.022
 5628.00    0.89792   0.97346    0.022
 5629.00    0.94125   0.98014    0.022
 5630.00    0.94832   0.98766    0.022
 5631.00    0.93794   0.99514    0.022
 5632.00    0.94865   1.00136    0.022
 5633.00    0.96812   1.00492    0.022
 5634.00    0.98414   1.00534    0.022
 5635.00    0.99894   1.00293    0.022
 5636.00    0.98513   0.99836    0.022
 5637.00    0.96273   0.99262    0.022
 5638.00    0.92920   0.98667    0.022
 5639.00    0.89290   0.98138    0.022
 5640.00    0.93712   0.97768    0.022
 5641.00    0.99761   0.97577    0.022
 5642.00    0.97301   0.97481    0.022
 5643.00    0.93493   0.97437    0.022
 5644.00    0.92176   0.97528    0.022
 5645.00    0.91152   0.97768    0.022
 5646.00    0.91109   0.98071    0.021
 5647.00    0.91145   0.98406    0.021
 5648.00    0.94092   0.98755    0.021
 5649.00    0.97168   0.99095    0.022
 5650.00    0.93685   0.99375    0.021
 5651.00    0.90263   0.99561    0.021
 5652.00    0.93384   0.99692    0.021
 5653.00    0.96265   0.99779    0.021
 5654.00    0.94715   0.99711    0.021
 5655.00    0.93013   0.99383    0.021
 5656.00    0.89625   0.98789    0.021
 5657.00    0.86234   0.98064    0.021
 5658.00    0.82810   0.97360    0.021
 5659.00    0.80476   0.96619    0.021
 5660.00    0.84546   0.95853    0.021
 5661.00    0.88075   0.95427    0.021
 5662.00    0.89085   0.95513    0.021
 5663.00    0.89997   0.95816    0.021
 5664.00    0.90540   0.96150    0.022
 5665.00    0.91958   0.96615    0.022
 5666.00    0.96153   0.97226    0.022
 5667.00    0.97483   0.97812    0.022
 5668.00    0.91103   0.98229    0.022
 5669.00    0.87849   0.98489    0.022
 5670.00    0.91805   0.98747    0.022
 5671.00    0.94761   0.99113    0.022
 5672.00    0.95723   0.99579    0.022
 5673.00    0.95903   1.00121    0.022
 5674.00    0.94724   1.00743    0.022
 5675.00    0.95094   1.01364    0.022
 5676.00    0.97822   1.01822    0.022
 5677.00    1.01283   1.02054    0.022
 5678.00    1.05724   1.02129    0.022
 5679.00    1.06060   1.02047    0.022
 5680.00    1.01560   1.01744    0.022
 5681.00    0.99795   1.01270    0.022
 5682.00    1.00872   1.00744    0.022
 5683.00    1.00956   1.00180    0.021
 5684.00    1.00130   0.99570    0.021
 5685.00    0.96443   0.99059    0.021
 5686.00    0.90445   0.98771    0.021
 5687.00    0.89606   0.98631    0.021
 5688.00    0.92433   0.98541    0.021
 5689.00    0.91650   0.98551    0.021
 5690.00    0.88616   0.98787    0.021
 5691.00    0.90267   0.99277    0.021
 5692.00    0.94470   0.99919    0.020
 5693.00    0.97791   1.00547    0.021
 5694.00    1.00694   1.01062    0.021
 5695.00    0.98853   1.01372    0.021
 5696.00    0.95075   1.01406    0.021
 5697.00    0.94848   1.01185    0.021
 5698.00    0.95860   1.00774    0.021
 5699.00    0.99440   1.00185    0.021
 5700.00    1.03775   0.99451    0.021
 5701.00    1.02369   0.98736    0.021
 5702.00    0.99565   0.98101    0.022
 5703.00    0.99385   0.97500    0.021
 5704.00    0.99721   0.96994    0.021
 5705.00    0.94878   0.96620    0.021
 5706.00    0.89239   0.96285    0.021
 5707.00    0.87911   0.95833    0.021
 5708.00    0.87071   0.95229    0.021
 5709.00    0.88799   0.94636    0.021
 5710.00    0.90722   0.94198    0.021
 5711.00    0.90064   0.94010    0.021
 5712.00    0.89302   0.94207    0.021
 5713.00    0.88738   0.94728    0.021
 5714.00    0.88243   0.95520    0.021
 5715.00    0.90529   0.96640    0.021
 5716.00    0.92827   0.97878    0.021
 5717.00    0.95350   0.99021    0.021
 5718.00    0.97878   1.00054    0.021
 5719.00    1.00464   1.00932    0.021
 5720.00    1.02568   1.01658    0.021
 5721.00    1.01061   1.02303    0.021
 5722.00    0.99566   1.02820    0.021
 5723.00    0.98134   1.03181    0.021
 5724.00    0.96783   1.03413    0.021
 5725.00    0.95797   1.03484    0.020
 5726.00    0.95154   1.03369    0.020
 5727.00    0.95784   1.03097    0.020
 5728.00    0.97282   1.02677    0.021
 5729.00    1.01477   1.02220    0.020
 5730.00    1.03692   1.01946    0.021
 5731.00    1.00675   1.01874    0.021
 5732.00    0.96893   1.01812    0.021
 5733.00    0.91377   1.01721    0.021
 5734.00    0.87848   1.01777    0.021
 5735.00    0.88224   1.02035    0.021
 5736.00    0.89129   1.02312    0.021
 5737.00    0.90941   1.02475    0.021
 5738.00    0.92941   1.02509    0.020
 5739.00    0.95222   1.02464    0.020
 5740.00    0.95999   1.02412    0.000
 5741.00    0.94792   1.02372    0.000
 5742.00    0.95644   1.02343    0.000
 5743.00    0.98887   1.02328    0.000
 5744.00    1.00665   1.02301    0.000
 5745.00    1.00942   1.02281    0.000
 5746.00    1.01060   1.02339    0.000
 5747.00    1.01034   1.02427    0.000
 5748.00    1.02260   1.02390    0.000
 5749.00    1.04485   1.02124    0.000
 5750.00    1.05659   1.01731    0.000
 5751.00    1.06097   1.01444    0.000
 5752.00    1.03055   1.01268    0.000
 5753.00    0.97876   1.01023    0.000
 5754.00    0.97263   1.00675    0.000
 5755.00    0.99099   1.00376    0.000
 5756.00    0.98640   1.00316    0.000
 5757.00    0.97113   1.00559    0.000
 5758.00    0.96648   1.00905    0.000
 5759.00    0.96610   1.01101    0.000
 5760.00    0.96073   1.01096    0.000
 5761.00    0.95366   1.00916    0.000
 5762.00    0.95435   1.00630    0.000
 5763.00    0.95728   1.00361    0.000
 5764.00    0.98498   1.00248    0.000
 5765.00    1.01857   1.00447    0.000
 5766.00    1.01285   1.01010    0.000
 5767.00    0.99959   1.01700    0.000
 5768.00    0.99796   1.02299    0.000
 5769.00    0.99806   1.02767    0.000
 5770.00    0.98954   1.03071    0.000
 5771.00    0.98008   1.03160    0.000
 5772.00    0.96906   1.03068    0.000
 5773.00    0.95793   1.02847    0.000
 5774.00    0.98236   1.02564    0.000
 5775.00    1.00809   1.02306    0.000
 5776.00    1.03457   1.02033    0.000
 5777.00    1.05961   1.01697    0.000
 5778.00    1.03307   1.01292    0.000
 5779.00    1.00900   1.00736    0.000
 5780.00    1.02446   0.99969    0.000
 5781.00    1.03692   0.98969    0.000
 5782.00    1.01899   0.97767    0.000
 5783.00    1.00008   0.96593    0.000
 5784.00    0.97406   0.95769    0.000
 5785.00    0.95412   0.95361    0.000
 5786.00    0.96795   0.95229    0.000
 5787.00    0.97926   0.95350    0.000
 5788.00    0.97932   0.95886    0.000
 5789.00    0.98046   0.96771    0.000
 5790.00    0.98549   0.97714    0.000
 5791.00    0.98390   0.98569   -2.000
 5792.00    0.96207   0.99274   -2.000
 5793.00    0.93730   0.99878   -2.000
 5794.00    0.90487   1.00498   -2.000
 5795.00    0.87356   1.01067   -2.000
 5796.00    0.84473   1.01537   -2.000
 5797.00    0.85672   1.01932   -2.000
 5798.00    0.94766   1.02209   -2.000
 5799.00    1.01218   1.02383   -2.000
 5800.00    1.03214   1.02614   -2.000
 5801.00    1.02697   1.03005   -2.000
 5802.00    0.98464   1.03400   -2.000
 5803.00    0.97725   1.03625   -2.000
 5804.00    1.01524   1.03670   -2.000
 5805.00    1.03525   1.03532   -2.000
 5806.00    1.03467   1.03246   -2.000
 5807.00    1.01228   1.02973   -2.000
 5808.00    0.96787   1.02795   -2.000
 5809.00    0.96071   1.02709   -2.000
 5810.00    0.98673   1.02691   -2.000
 5811.00    0.99157   1.02715    0.000
 5812.00    0.97980   1.02760    0.000
 5813.00    0.97359   1.02761    0.000
 5814.00    0.97123   1.02676    0.000
 5815.00    0.98276   1.02541    0.000
 5816.00    1.00270   1.02378    0.000
 5817.00    0.99701   1.02224    0.000
 5818.00    0.97778   1.02196    0.000
 5819.00    0.96255   1.02412    0.000
 5820.00    0.94915   1.02831    0.000
 5821.00    0.96487   1.03274    0.000
 5822.00    0.99208   1.03650    0.000
 5823.00    1.01919   1.03944    0.000
 5824.00    1.04627   1.04145    0.000
 5825.00    1.06118   1.04267    0.000
 5826.00    1.07265   1.04350    0.000
 5827.00    1.06974   1.04419    0.000
 5828.00    1.06347   1.04457    0.000
 5829.00    1.00970   1.04475    0.000
 5830.00    0.94707   1.04493    0.000
 5831.00    0.94296   1.04497    0.000
 5832.00    0.94730   1.04441    0.000
 5833.00    0.93838   1.04304    0.000
 5834.00    0.92806   1.04129    0.000
 5835.00    0.92398   1.03918    0.000
 5836.00    0.92033   1.03676    0.000
 5837.00    0.97639   1.03510    0.000
 5838.00    1.03444   1.03499    0.000
 5839.00    1.06503   1.03552    0.000
 5840.00    1.09344   1.03615    0.000
 5841.00    1.05384   1.03778    0.000
 5842.00    1.01636   1.04040    0.000
 5843.00    1.01100   1.04258    0.000
 5844.00    1.00634   1.04316    0.000
 5845.00    1.00854   1.04202    0.000
 5846.00    1.00807   1.03933    0.000
 5847.00    0.98879   1.03527    0.000
 5848.00    0.97103   1.02998    0.000
 5849.00    0.96143   1.02392    0.000
 5850.00    0.95828   1.01796    0.000
 5851.00    0.98308   1.01254    0.000
 5852.00    1.00531   1.00724    0.000
 5853.00    1.01834   1.00129    0.000
 5854.00    1.02124   0.99432    0.000
 5855.00    0.99375   0.98737    0.000
 5856.00    0.96674   0.98208    0.000
 5857.00    0.94092   0.97810    0.000
 5858.00    0.93466   0.97405    0.000
 5859.00    0.97134   0.97025    0.000
 5860.00    0.98784   0.96918    0.000
 5861.00    0.96589   0.97175    0.000
 5862.00    0.94952   0.97596    0.000
 5863.00    0.94242   0.97985    0.000
 5864.00    0.94658   0.98289    0.000
 5865.00    0.96711   0.98626    0.000
 5866.00    0.97297   0.99033    0.000
 5867.00    0.96003   0.99368    0.000
 5868.00    0.95202   0.99567    0.000
 5869.00    0.94958   0.99766    0.000
 5870.00    0.94934   1.00079    0.000
 5871.00    0.95130   1.00405    0.000
 5872.00    0.94979   1.00598    0.000
 5873.00    0.94525   1.00609    0.000
 5874.00    0.95846   1.00482    0.000
 5875.00    0.98541   1.00272    0.000
 5876.00    0.99677   0.99981    0.000
 5877.00    0.99752   0.99598    0.000
 5878.00    0.99485   0.99159    0.000
 5879.00    0.99015   0.98746    0.000
 5880.00    0.97381   0.98364    0.000
 5881.00    0.95144   0.97936    0.000
 5882.00    0.93529   0.97495    0.000
 5883.00    0.92196   0.97099    0.000
 5884.00    0.89699   0.96629    0.000
 5885.00    0.86751   0.95792    0.000
 5886.00    0.84405   0.94427    0.000
 5887.00    0.82258   0.92622    0.000
 5888.00    0.81701   0.90472    0.000
 5889.00    0.81585   0.87954    0.000
 5890.00    0.80849   0.85067    0.000
 5891.00    0.79972   0.82138    0.000
 5892.00    0.78681   0.79860    0.000
 5893.00    0.77315   0.78724    0.000
 5894.00    0.76729   0.78476    0.000
 5895.00    0.76252   0.78639    0.000
 5896.00    0.74201   0.79023    0.000
 5897.00    0.71993   0.79658    0.000
 5898.00    0.76253   0.80914    0.000
 5899.00    0.80926   0.82972    0.000
 5900.00    0.84833   0.85352    0.000
 5901.00    0.88711   0.87625    0.019
 5902.00    0.90141   0.89800    0.019
 5903.00    0.91531   0.91898    0.019
 5904.00    0.91821   0.93761    0.019
 5905.00    0.92271   0.95194    0.019
 5906.00    0.95001   0.96167    0.019
 5907.00    0.97251   0.96807    0.019
 5908.00    0.95033   0.97276    0.019
 5909.00    0.93203   0.97658    0.019
 5910.00    0.94013   0.97923    0.019
 5911.00    0.94963   0.98027    0.019
 5912.00    0.96652   0.98011    0.018
 5913.00    0.98066   0.97928    0.018
 5914.00    0.98318   0.97743    0.019
 5915.00    0.98594   0.97414    0.019
 5916.00    0.98954   0.97064    0.019
 5917.00    0.98961   0.96875    0.019
 5918.00    0.97933   0.96875    0.019
 5919.00    0.97372   0.97020    0.019
 5920.00    0.97982   0.97254    0.019
 5921.00    0.98576   0.97550    0.019
 5922.00    0.99134   0.97883    0.019
 5923.00    0.99617   0.98162    0.019
 5924.00    0.99960   0.98358    0.019
 5925.00    0.99639   0.98516    0.019
 5926.00    0.98231   0.98622    0.019
 5927.00    0.96907   0.98651    0.019
 5928.00    0.95704   0.98627    0.019
 5929.00    0.94757   0.98543    0.019
 5930.00    0.94134   0.98393    0.019
 5931.00    0.95180   0.98196    0.019
 5932.00    0.98083   0.98053    0.019
 5933.00    0.98393   0.98078    0.019
 5934.00    0.96155   0.98168    0.019
 5935.00    0.96980   0.98185    0.019
 5936.00    1.00455   0.98172    0.019
 5937.00    1.03110   0.98263    0.019
 5938.00    1.05140   0.98460    0.018
 5939.00    1.05250   0.98615    0.018
 5940.00    1.04074   0.98694    0.019
 5941.00    1.02881   0.98745    0.018
 5942.00    1.01677   0.98740    0.018
 5943.00    0.99712   0.98702    0.018
 5944.00    0.97357   0.98726    0.018
 5945.00    0.95723   0.98811    0.018
 5946.00    0.94409   0.98896    0.018
 5947.00    0.94259   0.98961    0.018
 5948.00    0.94553   0.98977    0.018
 5949.00    0.94735   0.98856    0.018
 5950.00    0.94881   0.98585    0.018
 5951.00    0.94902   0.98324    0.019
 5952.00    0.94889   0.98177    0.019
 5953.00    0.96435   0.98008    0.019
 5954.00    0.98326   0.97724    0.019
 5955.00    0.98650   0.97509    0.019
 5956.00    0.98696   0.97526    0.019
 5957.00    1.00697   0.97631    0.019
 5958.00    1.02962   0.97680    0.019
 5959.00    1.02359   0.97793    0.019
 5960.00    1.01480   0.98107    0.019
 5961.00    0.99323   0.98568    0.019
 5962.00    0.97091   0.99024    0.019
 5963.00    0.97834   0.99412    0.019
 5964.00    0.98643   0.99747    0.019
 5965.00    0.97727   1.00021    0.018
 5966.00    0.96901   1.00208    0.018
 5967.00    0.98338   1.00308    0.018
 5968.00    0.99867   1.00411    0.018
 5969.00    1.02639   1.00594    0.018
 5970.00    1.04959   1.00793    0.018
 5971.00    1.03248   1.00951    0.018
 5972.00    1.01403   1.01045    0.018
 5973.00    0.98689   1.01035    0.018
 5974.00    0.96530   1.00876    0.018
 5975.00    0.97216   1.00566    0.018
 5976.00    0.97679   1.00130    0.018
 5977.00    0.97220   0.99614    0.018
 5978.00    0.96980   0.99104    0.018
 5979.00    0.97494   0.98699    0.018
 5980.00    0.97563   0.98411    0.018
 5981.00    0.96353   0.98212    0.018
 5982.00    0.95124   0.98084    0.018
 5983.00    0.93849   0.97969    0.018
 5984.00    0.93409   0.97787    0.018
 5985.00    0.94741   0.97548    0.018
 5986.00    0.96058   0.97392    0.018
 5987.00    0.97347   0.97461    0.018
 5988.00    0.98539   0.97676    0.018
 5989.00    0.99575   0.97919    0.018
 5990.00    0.99551   0.98250    0.019
 5991.00    0.98029   0.98696    0.019
 5992.00    0.95391   0.99115    0.019
 5993.00    0.91366   0.99383    0.019
 5994.00    0.90011   0.99568    0.018
 5995.00    0.91588   0.99737    0.018
 5996.00    0.94297   0.99798    0.018
 5997.00    0.98103   0.99680    0.018
 5998.00    0.99714   0.99434    0.018
 5999.00    0.99452   0.99142    0.018
 6000.00    0.98460   0.98874    0.018
 6001.00    0.96921   0.98683    0.018
 6002.00    0.96646   0.98533    0.018
 6003.00    0.97206   0.98346    0.018
 6004.00    0.97709   0.98090    0.018
 6005.00    0.98179   0.97847    0.018
 6006.00    0.97506   0.97699    0.018
 6007.00    0.96258   0.97546    0.018
 6008.00    0.96003   0.97305    0.018
 6009.00    0.96182   0.97040    0.018
 6010.00    0.96159   0.96906    0.018
 6011.00    0.96061   0.97016    0.018
 6012.00    0.94928   0.97223    0.018
 6013.00    0.93465   0.97287    0.018
 6014.00    0.93130   0.97202    0.018
 6015.00    0.93094   0.97151    0.018
 6016.00    0.94858   0.97180    0.019
 6017.00    0.97011   0.97119    0.019
 6018.00    0.97469   0.96914    0.019
 6019.00    0.97634   0.96746    0.019
 6020.00    0.94026   0.96709    0.019
 6021.00    0.89925   0.96689    0.018
 6022.00    0.89622   0.96681    0.018
 6023.00    0.89668   0.96811    0.018
 6024.00    0.91404   0.97088    0.019
 6025.00    0.93234   0.97443    0.019
 6026.00    0.95650   0.97872    0.019
 6027.00    0.98069   0.98397    0.018
 6028.00    0.99404   0.98926    0.018
 6029.00    1.00671   0.99419    0.018
 6030.00    1.00363   0.99932    0.018
 6031.00    1.00116   1.00415    0.018
 6032.00    1.00636   1.00782    0.018
 6033.00    1.01036   1.01068    0.018
 6034.00    1.00401   1.01355    0.018
 6035.00    0.99602   1.01601    0.018
 6036.00    0.97753   1.01733    0.018
 6037.00    0.96433   1.01780    0.018
 6038.00    0.97757   1.01802    0.018
 6039.00    0.98936   1.01792    0.018
 6040.00    0.99528   1.01741    0.018
 6041.00    0.99964   1.01675    0.018
 6042.00    0.99881   1.01646    0.018
 6043.00    0.99947   1.01696    0.018
 6044.00    1.00433   1.01828    0.018
 6045.00    1.01594   1.02033    0.018
 6046.00    1.04386   1.02261    0.018
 6047.00    1.06597   1.02482    0.018
 6048.00    1.07593   1.02681    0.019
 6049.00    1.07042   1.02811    0.019
 6050.00    1.03680   1.02821    0.018
 6051.00    1.00478   1.02737    0.018
 6052.00    0.97528   1.02606    0.018
 6053.00    0.96068   1.02368    0.018
 6054.00    0.96686   1.02004    0.018
 6055.00    0.97970   1.01608    0.019
 6056.00    1.00072   1.01274    0.019
 6057.00    1.01253   1.00982    0.018
 6058.00    1.01439   1.00720    0.018
 6059.00    1.01324   1.00552    0.018
 6060.00    1.00922   1.00497    0.018
 6061.00    0.99671   1.00468    0.018
 6062.00    0.97705   1.00358    0.018
 6063.00    0.95975   1.00185    0.018
 6064.00    0.94419   1.00021    0.018
 6065.00    0.93727   0.99878    0.018
 6066.00    0.93596   0.99761    0.017
 6067.00    0.93528   0.99786    0.017
 6068.00    0.93495   1.00137    0.017
 6069.00    0.95653   1.00756    0.017
 6070.00    0.98897   1.01409    0.017
 6071.00    1.01266   1.02003    0.018
 6072.00    1.03259   1.02579    0.018
 6073.00    1.02647   1.03073    0.018
 6074.00    1.01078   1.03340    0.018
 6075.00    1.01256   1.03330    0.018
 6076.00    1.01979   1.03113    0.018
 6077.00    1.02766   1.02756    0.018
 6078.00    1.03570   1.02251    0.018
 6079.00    1.04591   1.01598    0.018
 6080.00    1.05659   1.00908    0.018
 6081.00    1.03986   1.00333    0.018
 6082.00    1.01854   0.99856    0.018
 6083.00    0.99162   0.99397    0.018
 6084.00    0.96399   0.99057    0.018
 6085.00    0.95915   0.98962    0.018
 6086.00    0.95632   0.98976    0.018
 6087.00    0.95654   0.98916    0.018
 6088.00    0.95692   0.98875    0.018
 6089.00    0.95601   0.98940    0.018
 6090.00    0.95545   0.98966    0.018
 6091.00    0.98272   0.98854    0.018
 6092.00    1.00841   0.98765    0.018
 6093.00    1.00066   0.98821    0.018
 6094.00    0.99373   0.98944    0.018
 6095.00    0.99677   0.99085    0.018
 6096.00    1.00069   0.99328    0.017
 6097.00    1.01190   0.99645    0.018
 6098.00    1.01927   0.99823    0.018
 6099.00    1.00275   0.99756    0.017
 6100.00    0.98458   0.99560    0.017
 6101.00    0.95836   0.99340    0.017
 6102.00    0.93452   0.98985    0.017
 6103.00    0.92012   0.98398    0.017
 6104.00    0.90853   0.97771    0.018
 6105.00    0.90617   0.97517    0.018
 6106.00    0.90629   0.97739    0.018
 6107.00    0.91332   0.98091    0.018
 6108.00    0.92004   0.98376    0.018
 6109.00    0.92605   0.98759    0.018
 6110.00    0.93595   0.99370    0.018
 6111.00    0.95385   0.99986    0.018
 6112.00    0.97731   1.00357    0.018
 6113.00    1.01070   1.00510    0.018
 6114.00    1.02614   1.00669    0.018
 6115.00    1.01350   1.00888    0.018
 6116.00    1.00537   1.00935    0.018
 6117.00    1.00342   1.00673    0.018
 6118.00    0.98938   1.00240    0.018
 6119.00    0.96071   0.99764    0.018
 6120.00    0.93689   0.99208    0.018
 6121.00    0.91824   0.98534    0.018
 6122.00    0.91409   0.97820    0.018
 6123.00    0.92358   0.97221    0.017
 6124.00    0.93964   0.96905    0.017
 6125.00    0.96114   0.96950    0.017
 6126.00    0.98530   0.97197    0.017
 6127.00    1.01140   0.97463    0.017
 6128.00    1.01354   0.97775    0.017
 6129.00    1.00033   0.98202    0.017
 6130.00    0.97964   0.98620    0.017
 6131.00    0.95476   0.98888    0.017
 6132.00    0.94483   0.98992    0.017
 6133.00    0.94219   0.98850    0.018
 6134.00    0.95871   0.98397    0.018
 6135.00    0.98330   0.97745    0.018
 6136.00    0.98775   0.96984    0.018
 6137.00    0.98491   0.96087    0.018
 6138.00    0.97542   0.95152    0.019
 6139.00    0.96389   0.94579    0.019
 6140.00    0.97619   0.94698    0.019
 6141.00    0.99455   0.95292    0.019
 6142.00    1.00095   0.95930    0.019
 6143.00    1.00490   0.96592    0.019
 6144.00    0.98782   0.97529    0.018
 6145.00    0.96733   0.98574    0.018
 6146.00    0.98517   0.99266    0.018
 6147.00    1.00768   0.99519    0.018
 6148.00    1.01263   0.99593    0.018
 6149.00    1.01611   0.99596    0.018
 6150.00    0.99179   0.99421    0.018
 6151.00    0.96613   0.99059    0.018
 6152.00    0.96836   0.98683    0.017
 6153.00    0.97115   0.98421    0.017
 6154.00    0.98353   0.98211    0.017
 6155.00    0.99490   0.97916    0.017
 6156.00    0.98663   0.97506    0.017
 6157.00    0.97628   0.97040    0.018
 6158.00    0.94198   0.96411    0.018
 6159.00    0.90820   0.95473    0.018
 6160.00    0.87858   0.94308    0.018
 6161.00    0.85524   0.93073    0.018
 6162.00    0.86974   0.91752    0.018
 6163.00    0.88128   0.90420    0.018
 6164.00    0.87878   0.89474    0.018
 6165.00    0.87511   0.89116    0.018
 6166.00    0.86694   0.89091    0.018
 6167.00    0.85688   0.89198    0.018
 6168.00    0.84071   0.89581    0.018
 6169.00    0.83261   0.90216    0.018
 6170.00    0.84657   0.90706    0.018
 6171.00    0.86513   0.90972    0.018
 6172.00    0.89445   0.91386    0.018
 6173.00    0.91358   0.92033    0.018
 6174.00    0.91209   0.92576    0.018
 6175.00    0.91028   0.92985    0.018
 6176.00    0.90791   0.93538    0.018
 6177.00    0.90954   0.94169    0.018
 6178.00    0.91732   0.94639    0.018
 6179.00    0.91659   0.95016    0.017
 6180.00    0.90433   0.95426    0.017
 6181.00    0.89144   0.95758    0.017
 6182.00    0.87780   0.95968    0.017
 6183.00    0.87569   0.96141    0.017
 6184.00    0.88572   0.96213    0.017
 6185.00    0.89001   0.96072    0.017
 6186.00    0.88900   0.95762    0.017
 6187.00    0.90455   0.95301    0.018
 6188.00    0.93366   0.94613    0.018
 6189.00    0.94196   0.93814    0.018
 6190.00    0.93529   0.93143    0.018
 6191.00    0.93492   0.92606    0.018
 6192.00    0.93855   0.92082    0.018
 6193.00    0.95996   0.91757    0.018
 6194.00    0.99119   0.91943    0.018
 6195.00    0.98214   0.92481    0.019
 6196.00    0.95373   0.92975   -2.000
 6197.00    0.77373   0.93398   -2.000
 6198.00    0.53087   0.93938   -2.000
 6199.00    0.38800   0.94463   -2.000
 6200.00    0.28057   0.94698   -2.000
 6201.00    0.57929   0.94723   -2.000
 6202.00    0.99956   0.94845   -2.000
 6203.00    1.28610   0.95139   -2.000
 6204.00    1.53944   0.95432   -2.000
 6205.00    1.48375   0.95654   -2.000
 6206.00    1.36584   0.95897   -2.000
 6207.00    1.18526   0.96160   -2.000
 6208.00    0.99480   0.96297    0.018
 6209.00    0.97578   0.96215    0.018
 6210.00    0.97684   0.95918    0.017
 6211.00    0.98090   0.95413    0.017
 6212.00    0.98520   0.94722    0.017
 6213.00    0.94447   0.93902    0.017
 6214.00    0.90176   0.92992    0.017
 6215.00    0.87498   0.92045    0.017
 6216.00    0.84894   0.91189    0.017
 6217.00    0.84960   0.90544    0.017
 6218.00    0.85011   0.90153    0.017
 6219.00    0.84809   0.89989    0.017
 6220.00    0.84696   0.89947    0.018
 6221.00    0.85570   0.89976    0.018
 6222.00    0.86528   0.90150    0.018
 6223.00    0.88140   0.90467    0.018
 6224.00    0.89713   0.90767    0.018
 6225.00    0.91057   0.90943    0.018
 6226.00    0.92022   0.91057    0.018
 6227.00    0.91225   0.91118    0.018
 6228.00    0.90372   0.91029    0.018
 6229.00    0.89306   0.90784    0.018
 6230.00    0.89056   0.90439    0.019
 6231.00    0.91391   0.90030    0.018
 6232.00    0.92786   0.89697    0.018
 6233.00    0.91660   0.89648    0.018
 6234.00    0.90422   0.89866    0.017
 6235.00    0.88925   0.90226    0.017
 6236.00    0.87720   0.90695    0.017
 6237.00    0.87099   0.91167    0.017
 6238.00    0.86711   0.91474    0.017
 6239.00    0.86731   0.91534    0.017
 6240.00    0.86840   0.91318    0.017
 6241.00    0.87083   0.90855    0.017
 6242.00    0.87951   0.90338    0.017
 6243.00    0.89653   0.89882    0.017
 6244.00    0.90413   0.89432    0.017
 6245.00    0.90064   0.89131    0.017
 6246.00    0.89289   0.89156    0.017
 6247.00    0.88072   0.89375    0.017
 6248.00    0.87338   0.89642    0.018
 6249.00    0.87043   0.89986    0.018
 6250.00    0.86128   0.90310    0.018
 6251.00    0.84712   0.90432    0.018
 6252.00    0.84363   0.90325    0.018
 6253.00    0.84770   0.89987    0.018
 6254.00    0.85601   0.89429    0.018
 6255.00    0.86695   0.88789    0.018
 6256.00    0.88105   0.88200    0.018
 6257.00    0.89685   0.87695    0.018
 6258.00    0.86636   0.87312    0.018
 6259.00    0.81400   0.87157    0.018
 6260.00    0.73949   0.87356    0.019
 6261.00    0.65596   0.87906    0.020
 6262.00    0.68206   0.88595    0.021
 6263.00    0.74630   0.89325    0.021
 6264.00    0.87563   0.90192    0.021
 6265.00    1.02406   0.91051    0.021
 6266.00    1.12500   0.91606    0.020
 6267.00    1.21440   0.91940    0.019
 6268.00    1.19621   0.92297    0.018
 6269.00    1.15690   0.92581    0.018
 6270.00    1.08356   0.92666    0.017
 6271.00    1.00501   0.92725    0.017
 6272.00    0.96515   0.92906    0.017
 6273.00    0.92966   0.93127    0.017
 6274.00    0.93034   0.93298    0.018
 6275.00    0.93373   0.93421    0.018
 6276.00    0.91412   0.93514    0.018
 6277.00    0.89358   0.93560    0.018
 6278.00    0.90145   0.93525    0.019
 6279.00    0.90984   0.93420    0.019
 6280.00    0.93091   0.93289    0.000
 6281.00    0.95083   0.93143    0.000
 6282.00    0.95120   0.93031    0.000
 6283.00    0.95078   0.93060    0.000
 6284.00    0.94205   0.93261    0.000
 6285.00    0.93355   0.93570    0.000
 6286.00    0.92669   0.93934    0.000
 6287.00    0.92308   0.94346    0.000
 6288.00    0.93794   0.94784    0.000
 6289.00    0.95381   0.95162    0.000
 6290.00    0.97426   0.95384    0.000
 6291.00    0.99472   0.95428    0.000
 6292.00    1.01524   0.95327    0.000
 6293.00    1.02658   0.95087    0.000
 6294.00    1.00944   0.94713    0.000
 6295.00    0.99035   0.94285    0.000
 6296.00    0.96615   0.93874    0.000
 6297.00    0.94414   0.93423    0.000
 6298.00    0.92709   0.92918    0.000
 6299.00    0.91408   0.92508    0.000
 6300.00    0.90898   0.92286    0.000
 6301.00    0.91325   0.92148    0.000
 6302.00    0.93352   0.91996    0.000
 6303.00    0.94968   0.91941    0.000
 6304.00    0.95969   0.92152    0.000
 6305.00    0.97038   0.92568    0.000
 6306.00    0.98194   0.92972    0.000
 6307.00    0.98054   0.93355    0.000
 6308.00    0.96410   0.93843    0.000
 6309.00    0.95605   0.94345    0.000
 6310.00    0.95656   0.94643    0.000
 6311.00    0.96403   0.94688    0.000
 6312.00    0.97776   0.94542    0.000
 6313.00    0.97763   0.94274    0.000
 6314.00    0.96648   0.93935    0.000
 6315.00    0.95280   0.93461    0.000
 6316.00    0.93734   0.92861    0.000
 6317.00    0.92687   0.92401    0.000
 6318.00    0.91945   0.92175    0.000
 6319.00    0.91687   0.91947    0.000
 6320.00    0.91688   0.91784    0.000
 6321.00    0.93090   0.91991    0.017
 6322.00    0.95145   0.92446    0.017
 6323.00    0.96142   0.92861    0.017
 6324.00    0.96715   0.93320    0.017
 6325.00    0.95687   0.93952    0.017
 6326.00    0.94114   0.94583    0.017
 6327.00    0.93018   0.95041    0.017
 6328.00    0.92060   0.95364    0.017
 6329.00    0.92982   0.95654    0.017
 6330.00    0.94351   0.95903    0.018
 6331.00    0.96336   0.95979    0.018
 6332.00    0.98439   0.95851    0.018
 6333.00    0.98989   0.95651    0.018
 6334.00    0.99309   0.95446    0.018
 6335.00    0.99279   0.95123    0.018
 6336.00    0.99211   0.94621    0.018
 6337.00    0.98597   0.94121    0.018
 6338.00    0.97943   0.93860    0.018
 6339.00    0.94792   0.93771    0.017
 6340.00    0.91551   0.93655    0.017
 6341.00    0.90835   0.93603    0.017
 6342.00    0.90281   0.93764    0.017
 6343.00    0.95075   0.93961    0.017
 6344.00    0.99577   0.93989    0.017
 6345.00    0.99422   0.93957    0.017
 6346.00    0.99108   0.94067    0.017
 6347.00    0.97194   0.94267    0.017
 6348.00    0.95895   0.94434    0.017
 6349.00    0.99032   0.94643    0.017
 6350.00    1.01832   0.94972    0.017
 6351.00    1.02768   0.95252    0.017
 6352.00    1.02878   0.95345    0.017
 6353.00    0.99334   0.95324    0.017
 6354.00    0.96451   0.95188    0.017
 6355.00    0.95973   0.94787    0.018
 6356.00    0.95301   0.94151    0.018
 6357.00    0.94038   0.93514    0.017
 6358.00    0.92874   0.92885    0.017
 6359.00    0.91966   0.92090    0.017
 6360.00    0.91751   0.91254    0.018
 6361.00    0.93078   0.90678    0.018
 6362.00    0.93938   0.90318    0.018
 6363.00    0.93895   0.90012    0.018
 6364.00    0.93336   0.89928    0.018
 6365.00    0.91907   0.90246    0.018
 6366.00    0.92067   0.90825    0.017
 6367.00    0.94569   0.91489    0.018
 6368.00    0.96575   0.92267    0.018
 6369.00    0.97935   0.93188    0.017
 6370.00    0.98806   0.94098    0.017
 6371.00    0.99116   0.94836    0.017
 6372.00    0.99029   0.95449    0.017
 6373.00    0.98541   0.96044    0.017
 6374.00    0.99771   0.96547    0.017
 6375.00    1.02528   0.96828    0.017
 6376.00    1.03770   0.96937    0.017
 6377.00    1.03827   0.97012    0.017
 6378.00    1.03462   0.97012    0.017
 6379.00    1.02805   0.96835    0.017
 6380.00    1.02746   0.96577    0.017
 6381.00    1.03046   0.96387    0.017
 6382.00    1.01565   0.96233    0.017
 6383.00    0.99145   0.96114    0.017
 6384.00    0.97536   0.96099    0.018
 6385.00    0.96297   0.96143    0.018
 6386.00    0.96150   0.96196    0.018
 6387.00    0.96432   0.96326    0.018
 6388.00    0.97501   0.96482    0.018
 6389.00    0.98835   0.96506    0.018
 6390.00    0.99909   0.96390    0.017
 6391.00    1.00909   0.96231    0.017
 6392.00    0.99072   0.96038    0.017
 6393.00    0.96576   0.95721    0.017
 6394.00    0.94980   0.95290    0.017
 6395.00    0.93551   0.94974    0.018
 6396.00    0.94278   0.94878    0.017
 6397.00    0.95315   0.94791    0.017
 6398.00    0.98079   0.94662    0.017
 6399.00    1.01023   0.94723    0.017
 6400.00    1.01734   0.94854    0.017
 6401.00    1.02295   0.94820    0.017
 6402.00    1.01275   0.94901    0.018
 6403.00    1.00203   0.95273    0.018
 6404.00    0.99453   0.95582    0.037
 6405.00    0.98712   0.95717   -1.000
 6406.00    0.98237   0.95966   -1.000
 6407.00    0.97772   0.96271   -1.000
 6408.00    0.97444   0.96279   -1.000
 6409.00    0.97161   0.96029   -1.000
 6410.00    0.97312   0.95874   -1.000
 6411.00    0.97615   0.95811   -1.000
 6412.00    0.98977   0.95577   -1.000
 6413.00    1.00545   0.95333   -1.000
 6414.00    1.03220   0.95371   -1.000
 6415.00    1.05210   0.95475    0.182
 6416.00    1.04246   0.95431    0.029
 6417.00    1.03142   0.95415    0.017
 6418.00    1.01543   0.95445    0.017
 6419.00    1.00504   0.95374    0.017
 6420.00    1.01137   0.95258    0.017
 6421.00    1.01727   0.95173    0.017
 6422.00    1.02210   0.95108    0.017
 6423.00    1.01920   0.95205    0.017
 6424.00    0.99940   0.95539    0.017
 6425.00    0.97623   0.95910    0.017
 6426.00    0.94666   0.96222    0.017
 6427.00    0.92481   0.96560    0.017
 6428.00    0.91577   0.96844    0.017
 6429.00    0.92699   0.96895    0.017
 6430.00    0.96768   0.96744    0.018
 6431.00    0.99416   0.96471    0.018
 6432.00    1.00247   0.96145    0.018
 6433.00    1.00954   0.95935    0.018
 6434.00    1.01524   0.95875    0.018
 6435.00    1.01780   0.95825    0.018
 6436.00    1.01722   0.95787    0.018
 6437.00    1.01662   0.95909    0.018
 6438.00    1.01598   0.96126    0.018
 6439.00    1.01558   0.96221    0.018
 6440.00    1.01537   0.96232    0.018
 6441.00    1.03073   0.96457    0.018
 6442.00    1.05666   0.96890    0.018
 6443.00    1.05941   0.97248    0.018
 6444.00    1.04836   0.97536    0.017
 6445.00    1.03920   0.97888    0.017
 6446.00    1.03101   0.98090    0.017
 6447.00    1.02795   0.97915    0.017
 6448.00    1.02720   0.97492    0.018
 6449.00    0.99491   0.96937    0.018
 6450.00    0.95042   0.96167    0.018
 6451.00    0.92436   0.95349    0.018
 6452.00    0.90437   0.94859    0.018
 6453.00    0.91108   0.94669    0.017
 6454.00    0.92516   0.94611    0.017
 6455.00    0.92944   0.94804    0.017
 6456.00    0.93149   0.95269    0.018
 6457.00    0.91611   0.95776    0.018
 6458.00    0.89756   0.96267    0.017
 6459.00    0.91217   0.96681    0.018
 6460.00    0.93139   0.96856    0.018
 6461.00    0.94259   0.96907    0.018
 6462.00    0.95299   0.96935    0.018
 6463.00    0.96142   0.96749    0.018
 6464.00    0.96973   0.96458    0.018
 6465.00    0.96761   0.96413    0.018
 6466.00    0.96523   0.96515    0.018
 6467.00    0.97543   0.96547    0.017
 6468.00    0.98567   0.96698    0.017
 6469.00    0.99712   0.97038    0.017
 6470.00    1.00707   0.97295    0.017
 6471.00    0.99570   0.97403    0.017
 6472.00    0.98524   0.97424    0.017
 6473.00    0.98331   0.97393    0.017
 6474.00    0.98120   0.97391    0.017
 6475.00    0.97781   0.97374    0.017
 6476.00    0.97779   0.97239    0.017
 6477.00    0.99540   0.97150    0.017
 6478.00    1.01180   0.97185    0.017
 6479.00    1.02305   0.97049    0.018
 6480.00    1.02646   0.96718    0.018
 6481.00    1.00256   0.96455    0.018
 6482.00    0.97931   0.96198    0.018
 6483.00    0.95797   0.95781    0.018
 6484.00    0.94600   0.95430    0.017
 6485.00    0.95745   0.95328    0.018
 6486.00    0.96741   0.95298    0.018
 6487.00    0.97418   0.95232    0.018
 6488.00    0.97431   0.95217    0.018
 6489.00    0.96206   0.95217    0.017
 6490.00    0.95554   0.94999    0.017
 6491.00    0.95841   0.94403    0.017
 6492.00    0.96268   0.93500    0.018
 6493.00    0.96898   0.92444    0.018
 6494.00    0.97002   0.91203    0.018
 6495.00    0.96443   0.89763    0.018
 6496.00    0.95052   0.88475    0.018
 6497.00    0.92736   0.87635    0.017
 6498.00    0.91605   0.87197    0.017
 6499.00    0.91635   0.87113    0.018
 6500.00    0.93060   0.87497    0.018
 6501.00    0.95688   0.88364    0.018
 6502.00    0.97513   0.89515    0.018
 6503.00    0.98725   0.90734    0.018
 6504.00    1.00615   0.91895    0.018
 6505.00    1.02958   0.92995    0.018
 6506.00    1.03570   0.93952    0.018
 6507.00    1.03168   0.94695    0.018
 6508.00    1.01872   0.95245    0.018
 6509.00    1.00119   0.95595    0.018
 6510.00    0.98782   0.95801    0.018
 6511.00    0.97627   0.95980    0.018
 6512.00    0.99247   0.96079    0.018
 6513.00    1.01921   0.96025    0.018
 6514.00    1.01880   0.95938    0.018
 6515.00    1.00963   0.95877    0.017
 6516.00    0.98927   0.95704    0.017
 6517.00    0.96590   0.95448    0.017
 6518.00    0.95338   0.95291    0.017
 6519.00    0.94327   0.95185    0.017
 6520.00    0.94614   0.95082    0.017
 6521.00    0.95131   0.95148    0.017
 6522.00    0.97300   0.95385    0.018
 6523.00    0.99692   0.95609    0.018
 6524.00    1.00602   0.95788    0.018
 6525.00    1.01370   0.96021    0.018
 6526.00    1.01137   0.96230    0.018
 6527.00    1.00844   0.96276    0.018
 6528.00    1.01098   0.96194    0.000
 6529.00    1.01356   0.96139    0.000
 6530.00    1.00188   0.96106    0.000
 6531.00    0.99060   0.96006    0.000
 6532.00    0.98910   0.95906    0.000
 6533.00    0.98776   0.95889    0.000
 6534.00    0.98849   0.95919    0.000
 6535.00    0.98918   0.95989    0.000
 6536.00    0.98938   0.96144    0.000
 6537.00    0.98999   0.96331    0.000
 6538.00    0.99321   0.96483    0.000
 6539.00    0.99726   0.96628    0.000
 6540.00    1.00555   0.96782    0.000
 6541.00    1.00997   0.96824    0.000
 6542.00    0.99843   0.96658    0.000
 6543.00    0.98664   0.96338    0.000
 6544.00    0.97396   0.95930    0.000
 6545.00    0.96444   0.95460    0.000
 6546.00    0.96406   0.94911    0.000
 6547.00    0.97116   0.94300    0.000
 6548.00    0.99666   0.93778    0.000
 6549.00    1.01158   0.93423    0.000
 6550.00    1.00408   0.93110    0.000
 6551.00    0.99577   0.92748    0.000
 6552.00    0.98597   0.92393    0.000
 6553.00    0.97922   0.92039    0.000
 6554.00    0.97737   0.91604    0.000
 6555.00    0.97033   0.91021    0.000
 6556.00    0.95597   0.90272    0.000
 6557.00    0.94292   0.89441    0.000
 6558.00    0.93152   0.88568    0.000
 6559.00    0.93669   0.87456    0.000
 6560.00    0.96001   0.85986    0.000
 6561.00    0.97655   0.84469    0.000
 6562.00    0.98653   0.83130    0.000
 6563.00    0.98677   0.81675    0.000
 6564.00    0.97870   0.80373    0.000
 6565.00    0.97760   0.80081    0.000
 6566.00    0.98173   0.80601    0.000
 6567.00    0.96468   0.81262    0.000
 6568.00    0.93366   0.82407    0.000
 6569.00    0.90250   0.84211    0.000
 6570.00    0.87126   0.85846    0.000
 6571.00    0.86016   0.87025    0.000
 6572.00    0.85918   0.88066    0.000
 6573.00    0.88782   0.88840    0.000
 6574.00    0.92935   0.89265    0.000
 6575.00    0.93987   0.89620    0.000
 6576.00    0.93881   0.90019    0.000
 6577.00    0.94287   0.90436    0.000
 6578.00    0.94856   0.90887    0.000
 6579.00    0.97941   0.91366    0.000
 6580.00    1.01692   0.91849    0.000
 6581.00    1.03499   0.92307    0.000
 6582.00    1.04885   0.92662    0.000
 6583.00    1.06024   0.92959    0.000
 6584.00    1.07122   0.93242    0.000
 6585.00    1.08966   0.93481    0.000
 6586.00    1.10908   0.93681    0.000
 6587.00    1.10432   0.93856    0.000
 6588.00    1.09736   0.94023    0.000
 6589.00    1.07949   0.94126    0.000
 6590.00    1.06102   0.94020    0.000
 6591.00    1.04114   0.93735    0.000
 6592.00    1.02113   0.93429    0.000
 6593.00    0.99137   0.93010    0.000
 6594.00    0.96264   0.92432    0.000
 6595.00    0.95776   0.92023    0.000
 6596.00    0.95494   0.91885    0.000
 6597.00    0.97824   0.91821    0.000
 6598.00    0.99924   0.91886    0.000
 6599.00    1.00050   0.92211    0.000
 6600.00    1.00162   0.92655    0.000
 6601.00    1.00177   0.93083    0.000
 6602.00    0.99598   0.93468    0.000
 6603.00    0.96054   0.93724    0.000
 6604.00    0.93250   0.93843    0.000
 6605.00    0.93428   0.93853    0.000
 6606.00    0.93892   0.93689    0.000
 6607.00    0.95308   0.93391    0.000
 6608.00    0.96832   0.93118    0.000
 6609.00    0.98660   0.92892    0.018
 6610.00    1.00030   0.92679    0.018
 6611.00    1.00295   0.92629    0.018
 6612.00    1.00987   0.92839    0.018
 6613.00    1.02568   0.93153    0.018
 6614.00    1.02505   0.93445    0.018
 6615.00    0.99458   0.93812    0.018
 6616.00    0.98649   0.94294    0.018
 6617.00    1.01391   0.94681    0.018
 6618.00    1.03234   0.94885    0.018
 6619.00    1.03825   0.95045    0.018
 6620.00    1.03799   0.95199    0.018
 6621.00    1.03014   0.95203    0.018
 6622.00    1.01126   0.95036    0.018
 6623.00    0.98048   0.94819    0.018
 6624.00    0.96179   0.94570    0.018
 6625.00    0.95463   0.94207    0.018
 6626.00    0.94522   0.93802    0.018
 6627.00    0.93392   0.93507    0.018
 6628.00    0.94540   0.93246    0.018
 6629.00    0.97373   0.92948    0.018
 6630.00    0.98916   0.92699    0.018
 6631.00    0.99620   0.92497    0.018
 6632.00    0.98786   0.92269    0.018
 6633.00    0.97077   0.92045    0.018
 6634.00    0.96339   0.91836    0.018
 6635.00    0.96080   0.91677    0.018
 6636.00    0.98224   0.91668    0.018
 6637.00    1.01396   0.91750    0.018
 6638.00    1.00128   0.91862    0.018
 6639.00    0.97232   0.92074    0.018
 6640.00    0.95737   0.92296    0.018
 6641.00    0.94676   0.92400    0.018
 6642.00    0.95619   0.92508    0.018
 6643.00    0.97081   0.92618    0.019
 6644.00    0.97114   0.92540    0.019
 6645.00    0.96845   0.92425    0.018
 6646.00    0.94424   0.92480    0.018
 6647.00    0.91644   0.92533    0.018
 6648.00    0.94475   0.92469    0.018
 6649.00    0.98009   0.92484    0.018
 6650.00    0.97540   0.92613    0.018
 6651.00    0.96722   0.92665    0.018
 6652.00    0.96609   0.92630    0.018
 6653.00    0.96533   0.92626    0.018
 6654.00    0.95224   0.92628    0.018
 6655.00    0.93918   0.92569    0.018
 6656.00    0.94331   0.92505    0.018
 6657.00    0.94798   0.92427    0.018
 6658.00    0.96406   0.92294    0.018
 6659.00    0.97823   0.92155    0.018
 6660.00    0.96941   0.91972    0.018
 6661.00    0.95927   0.91662    0.018
 6662.00    0.93817   0.91343    0.018
 6663.00    0.91709   0.91073    0.019
 6664.00    0.89612   0.90721    0.018
 6665.00    0.88403   0.90418    0.018
 6666.00    0.91502   0.90334    0.018
 6667.00    0.93837   0.90340    0.018
 6668.00    0.93151   0.90396    0.019
 6669.00    0.93292   0.90631    0.019
 6670.00    0.96145   0.91003    0.019
 6671.00    0.98032   0.91359    0.019
 6672.00    0.97237   0.91667    0.019
 6673.00    0.96739   0.91928    0.019
 6674.00    0.96948   0.92074    0.019
 6675.00    0.97733   0.92006    0.019
 6676.00    0.99703   0.91765    0.018
 6677.00    1.00258   0.91478    0.018
 6678.00    0.98285   0.91069    0.018
 6679.00    0.96751   0.90548    0.018
 6680.00    0.95902   0.90240    0.018
 6681.00    0.93542   0.90172    0.018
 6682.00    0.89109   0.90101    0.018
 6683.00    0.89777   0.90162    0.018
 6684.00    0.96605   0.90502    0.019
 6685.00    1.00916   0.90869    0.019
 6686.00    1.02547   0.91127    0.019
 6687.00    1.01116   0.91409    0.019
 6688.00    0.96809   0.91679    0.019
 6689.00    0.95453   0.91815    0.019
 6690.00    0.96541   0.91883    0.019
 6691.00    0.97797   0.91929    0.019
 6692.00    0.99176   0.91905    0.019
 6693.00    0.99128   0.91792    0.019
 6694.00    0.98166   0.91631    0.019
 6695.00    0.96939   0.91456    0.019
 6696.00    0.95562   0.91225    0.000
 6697.00    0.94010   0.90958    0.000
 6698.00    0.92372   0.90777    0.000
 6699.00    0.93694   0.90679    0.000
 6700.00    0.96261   0.90616    0.000
 6701.00    0.98000   0.90635    0.000
 6702.00    0.99442   0.90723    0.000
 6703.00    1.01648   0.90813    0.000
 6704.00    1.04086   0.90884    0.000
 6705.00    1.04060   0.90921    0.000
 6706.00    1.03409   0.90942    0.000
 6707.00    1.00350   0.90962    0.000
 6708.00    0.96796   0.90918    0.000
 6709.00    0.98877   0.90844    0.000
 6710.00    1.01871   0.90786    0.000
 6711.00    1.01944   0.90625    0.000
 6712.00    1.01664   0.90369    0.000
 6713.00    1.00003   0.90098    0.000
 6714.00    0.98228   0.89727    0.000
 6715.00    0.96720   0.89249    0.000
 6716.00    0.95226   0.88812    0.000
 6717.00    0.93028   0.88455    0.000
 6718.00    0.90871   0.88119    0.000
 6719.00    0.91592   0.87919    0.000
 6720.00    0.92445   0.87967    0.000
 6721.00    0.95851   0.88149    0.000
 6722.00    0.98792   0.88379    0.000
 6723.00    0.96381   0.88689    0.000
 6724.00    0.94133   0.89074    0.000
 6725.00    0.93182   0.89430    0.000
 6726.00    0.92397   0.89677    0.000
 6727.00    0.92605   0.89870    0.000
 6728.00    0.93660   0.90083    0.000
 6729.00    0.98730   0.90257    0.000
 6730.00    1.02630   0.90349    0.000
 6731.00    1.02011   0.90449    0.000
 6732.00    1.01850   0.90572    0.000
 6733.00    1.03168   0.90631    0.000
 6734.00    1.04157   0.90628    0.000
 6735.00    1.04248   0.90600    0.000
 6736.00    1.03281   0.90524    0.000
 6737.00    0.99841   0.90404    0.000
 6738.00    0.97140   0.90248    0.000
 6739.00    0.95934   0.90057    0.000
 6740.00    0.94624   0.89851    0.000
 6741.00    0.93135   0.89669    0.000
 6742.00    0.92779   0.89535    0.000
 6743.00    0.94167   0.89389    0.000
 6744.00    0.94835   0.89229    0.000
 6745.00    0.94530   0.89152    0.000
 6746.00    0.94583   0.89103    0.000
 6747.00    0.95062   0.88972    0.000
 6748.00    0.93841   0.88841    0.000
 6749.00    0.90835   0.88794    0.000
 6750.00    0.88959   0.88710    0.000
 6751.00    0.88128   0.88574    0.000
 6752.00    0.86355   0.88582    0.000
 6753.00    0.83813   0.88665    0.021
 6754.00    0.82537   0.88720    0.022
 6755.00    0.82171   0.88933    0.022
 6756.00    0.85624   0.89271    0.023
 6757.00    0.91487   0.89588    0.023
 6758.00    0.96868   0.89970    0.023
 6759.00    1.01984   0.90405    0.023
 6760.00    1.07860   0.90743    0.023
 6761.00    1.14100   0.91019    0.024
 6762.00    1.16397   0.91243    0.024
 6763.00    1.17063   0.91312    0.025
 6764.00    1.15681   0.91272    0.025
 6765.00    1.13573   0.91162    0.024
 6766.00    1.11960   0.90961    0.024
 6767.00    1.10494   0.90705    0.023
 6768.00    1.13344   0.90423    0.023
 6769.00    1.17263   0.90171    0.023
 6770.00    1.16385   0.90027    0.023
 6771.00    1.14545   0.89954    0.022
 6772.00    1.09213   0.89941    0.022
 6773.00    1.03332   0.90096    0.021
 6774.00    0.99225   0.90388    0.021
 6775.00    0.95324   0.90682    0.021
 6776.00    0.96768   0.91008    0.021
 6777.00    0.98633   0.91373    0.021
 6778.00    1.02439   0.91633    0.022
 6779.00    1.06329   0.91756    0.022
 6780.00    1.02334   0.91780    0.022
 6781.00    0.98316   0.91634    0.023
 6782.00    0.97040   0.91317    0.022
 6783.00    0.96185   0.90912    0.022
 6784.00    1.02930   0.90431    0.022
 6785.00    1.08728   0.89942    0.022
 6786.00    1.04153   0.89565    0.022
 6787.00    0.99891   0.89284    0.022
 6788.00    0.98042   0.89123    0.022
 6789.00    0.96985   0.89161    0.022
 6790.00    1.00550   0.89266    0.022
 6791.00    1.02506   0.89360    0.022
 6792.00    0.97024   0.89534    0.022
 6793.00    0.93483   0.89697    0.021
 6794.00    0.97282   0.89721    0.022
 6795.00    1.01152   0.89747    0.022
 6796.00    1.05246   0.89821    0.022
 6797.00    1.07443   0.89829    0.022
 6798.00    1.04564   0.89858    0.022
 6799.00    1.02487   0.89978    0.022
 6800.00    1.02258   0.90100    0.022
 6801.00    1.02434   0.90212    0.022
 6802.00    1.03419   0.90344    0.023
 6803.00    1.01344   0.90485    0.023
 6804.00    0.93969   0.90551    0.022
 6805.00    0.89781   0.90549    0.022
 6806.00    0.90430   0.90591    0.022
 6807.00    0.93587   0.90582    0.022
 6808.00    1.00088   0.90473    0.021
 6809.00    1.03332   0.90440    0.021
 6810.00    1.02754   0.90434    0.021
 6811.00    1.01148   0.90339    0.021
 6812.00    0.98478   0.90289    0.022
 6813.00    0.97252   0.90297    0.022
 6814.00    0.97343   0.90281    0.022
 6815.00    0.98603   0.90271    0.022
 6816.00    1.00803   0.90287    0.022
 6817.00    1.01002   0.90346    0.022
 6818.00    0.99784   0.90437    0.021
 6819.00    0.98527   0.90526    0.021
 6820.00    0.97246   0.90641    0.021
 6821.00    0.98235   0.90783    0.021
 6822.00    1.00457   0.90924    0.021
 6823.00    0.98803   0.91070    0.021
 6824.00    0.95321   0.91209    0.022
 6825.00    0.94113   0.91302    0.022
 6826.00    0.93828   0.91347    0.022
 6827.00    0.91328   0.91369    0.022
 6828.00    0.88059   0.91343    0.022
 6829.00    0.90085   0.91255    0.022
 6830.00    0.93661   0.91175    0.022
 6831.00    0.94175   0.91139    0.022
 6832.00    0.93948   0.91127    0.022
 6833.00    0.95517   0.91124    0.022
 6834.00    0.97437   0.91126    0.021
 6835.00    0.99626   0.91142    0.021
 6836.00    1.01857   0.91114    0.022
 6837.00    0.97984   0.90960    0.022
 6838.00    0.93427   0.90718    0.022
 6839.00    0.90460   0.90421    0.022
 6840.00    0.87612   0.90033    0.023
 6841.00    0.88070   0.89629    0.022
 6842.00    0.88661   0.89301    0.022
 6843.00    0.95548   0.89069    0.022
 6844.00    1.02274   0.88979    0.022
 6845.00    1.00870   0.89066    0.022
 6846.00    0.99417   0.89290    0.022
 6847.00    0.97146   0.89578    0.022
 6848.00    0.94928   0.89907    0.022
 6849.00    0.93254   0.90231    0.021
 6850.00    0.91912   0.90452    0.021
 6851.00    0.93036   0.90570    0.022
 6852.00    0.94213   0.90579    0.022
 6853.00    0.95688   0.90446    0.022
 6854.00    0.96170   0.90259    0.021
 6855.00    0.92166   0.90002    0.021
 6856.00    0.89556   0.89632    0.021
 6857.00    0.92103   0.89344    0.021
 6858.00    0.93411   0.89130    0.021
 6859.00    0.90880   0.88849    0.021
 6860.00    0.89627   0.88697    0.021
 6861.00    0.91740   0.88712    0.021
 6862.00    0.92856   0.88687    0.021
 6863.00    0.91721   0.88707    0.021
 6864.00    0.90051   0.88894    0.021
 6865.00    0.87334   0.89045    0.021
 6866.00    0.87393   0.89082    0.022
 6867.00    0.92189   0.89185    0.022
 6868.00    0.94326   0.89275    0.022
 6869.00    0.92486   0.89188    0.023
 6870.00    0.92288   0.89112    0.023
 6871.00    0.94247   0.89142    0.022
 6872.00    0.96258   0.89096    0.022
 6873.00    0.98330   0.89027    0.022
 6874.00    0.99060   0.89109    0.022
 6875.00    0.98421   0.89255    0.022
 6876.00    0.98274   0.89354    0.021
 6877.00    0.98570   0.89486    0.021
 6878.00    0.97307   0.89692    0.021
 6879.00    0.94808   0.89856    0.021
 6880.00    0.94639   0.89920    0.021
 6881.00    0.96098   0.89972    0.021
 6882.00    0.96378   0.90028    0.021
 6883.00    0.95938   0.90005    0.021
 6884.00    0.94489   0.89957    0.021
 6885.00    0.92500   0.90034    0.021
 6886.00    0.91773   0.90186    0.022
 6887.00    0.91631   0.90310    0.022
 6888.00    0.93274   0.90558    0.022
 6889.00    0.95630   0.90943    0.022
 6890.00    0.94588   0.91225    0.022
 6891.00    0.92389   0.91476    0.022
 6892.00    0.94661   0.91806    0.022
 6893.00    0.98214   0.91994    0.022
 6894.00    0.98243   0.92041    0.022
 6895.00    0.97439   0.92136    0.022
 6896.00    0.97779   0.92177    0.022
 6897.00    0.98339   0.92102    0.022
 6898.00    0.98613   0.92061    0.022
 6899.00    0.98845   0.92091    0.022
 6900.00    0.97285   0.92097    0.022
 6901.00    0.95531   0.92085    0.022
 6902.00    0.98743   0.92152    0.022
 6903.00    1.02307   0.92276    0.022
 6904.00    1.01684   0.92363    0.022
 6905.00    1.00911   0.92460    0.022
 6906.00    0.99831   0.92592    0.022
 6907.00    0.98732   0.92712    0.022
 6908.00    0.97019   0.92809    0.022
 6909.00    0.95256   0.92847    0.022
 6910.00    0.92717   0.92851    0.022
 6911.00    0.90363   0.92816    0.022
 6912.00    0.89863   0.92665    0.022
 6913.00    0.89075   0.92484    0.022
 6914.00    0.86224   0.92306    0.023
 6915.00    0.84815   0.92049    0.023
 6916.00    0.91361   0.91868    0.023
 6917.00    0.96099   0.91793    0.023
 6918.00    0.92863   0.91699    0.023
 6919.00    0.90091   0.91705    0.023
 6920.00    0.88998   0.91810    0.022
 6921.00    0.88077   0.91867    0.022
 6922.00    0.87676   0.91891    0.022
 6923.00    0.88907   0.91898    0.022
 6924.00    0.94354   0.91830    0.022
 6925.00    0.97633   0.91682    0.022
 6926.00    0.96096   0.91514    0.022
 6927.00    0.95800   0.91368    0.022
 6928.00    0.97895   0.91260    0.022
 6929.00    0.98258   0.91212    0.023
 6930.00    0.95712   0.91215    0.023
 6931.00    0.94232   0.91260    0.023
 6932.00    0.94325   0.91359    0.023
 6933.00    0.94489   0.91466    0.023
 6934.00    0.94746   0.91523    0.023
 6935.00    0.93777   0.91619    0.023
 6936.00    0.91409   0.91762    0.023
 6937.00    0.91767   0.91851    0.024
 6938.00    0.94867   0.91954    0.024
 6939.00    0.93560   0.92102    0.024
 6940.00    0.88340   0.92190    0.023
 6941.00    0.87835   0.92232    0.023
 6942.00    0.91016   0.92244    0.023
 6943.00    0.91386   0.92150    0.023
 6944.00    0.89825   0.92025    0.023
 6945.00    0.88953   0.91902    0.022
 6946.00    0.88495   0.91706    0.022
 6947.00    0.89162   0.91590    0.022
 6948.00    0.90420   0.91577    0.022
 6949.00    0.95460   0.91509    0.022
 6950.00    1.02225   0.91517    0.023
 6951.00    0.98956   0.91606    0.023
 6952.00    0.91746   0.91579    0.023
 6953.00    0.92918   0.91566    0.023
 6954.00    0.96894   0.91631    0.023
 6955.00    0.95231   0.91621    0.024
 6956.00    0.91984   0.91655    0.024
 6957.00    0.91792   0.91818    0.024
 6958.00    0.92306   0.91982    0.023
 6959.00    0.91941   0.92177    0.024
 6960.00    0.91413   0.92444    0.024
 6961.00    0.92818   0.92693    0.024
 6962.00    0.94500   0.92931    0.024
 6963.00    0.95961   0.93144    0.023
 6964.00    0.97400   0.93302    0.023
 6965.00    0.95935   0.93468    0.023
 6966.00    0.94277   0.93599    0.023
 6967.00    0.92564   0.93657    0.023
 6968.00    0.90850   0.93749    0.023
 6969.00    0.90580   0.93822    0.023
 6970.00    0.90304   0.93818    0.023
 6971.00    0.89855   0.93819    0.023
 6972.00    0.89567   0.93738    0.023
 6973.00    0.91658   0.93543    0.023
 6974.00    0.93128   0.93332    0.023
 6975.00    0.88624   0.92988    0.024
 6976.00    0.85223   0.92472    0.024
 6977.00    0.89499   0.91990    0.024
 6978.00    0.92663   0.91560    0.024
 6979.00    0.89857   0.91069    0.024
 6980.00    0.87388   0.90746    0.024
 6981.00    0.86376   0.90766    0.024
 6982.00    0.86303   0.90910    0.024
 6983.00    0.89563   0.91193    0.024
 6984.00    0.92182   0.91740    0.024
 6985.00    0.92886   0.92324    0.024
 6986.00    0.93474   0.92818    0.023
 6987.00    0.93764   0.93258    0.023
 6988.00    0.93194   0.93591    0.023
 6989.00    0.90742   0.93782    0.023
 6990.00    0.90252   0.93851    0.023
 6991.00    0.93482   0.93863    0.023
 6992.00    0.95529   0.93864    0.023
 6993.00    0.95617   0.93841    0.023
 6994.00    0.95527   0.93820    0.023
 6995.00    0.95179   0.93803    0.024
 6996.00    0.97130   0.93771    0.024
 6997.00    1.02018   0.93702    0.024
 6998.00    1.01018   0.93572    0.024
 6999.00    0.93397   0.93426    0.024
 7000.00    0.75378   0.93247    0.024
 7001.00    0.47046   0.93015    0.023
 7002.00    0.47454   0.92817    0.031
 7003.00    0.73006   0.92667    0.103
 7004.00    0.82332   0.92521   -1.000
 7005.00    0.79151   0.92409   -1.000
 7006.00    0.78325   0.92373   -1.000
 7007.00    0.79095   0.92392   -1.000
 7008.00    0.80738   0.92414   -1.000
 7009.00    0.82900   0.92453   -1.000
 7010.00    0.80824   0.92544   -1.000
 7011.00    0.76553   0.92607   -1.000
 7012.00    0.78843   0.92591   -1.000
 7013.00    0.84080   0.92549   -1.000
 7014.00    0.87274   0.92433   -1.000
 7015.00    0.89680   0.92259   -1.000
 7016.00    0.87407   0.92106   -1.000
 7017.00    0.83596   0.91915   -1.000
 7018.00    0.80958   0.91800   -1.000
 7019.00    0.78642   0.91871   -1.000
 7020.00    0.78640   0.91945   -1.000
 7021.00    0.79161   0.92041   -1.000
 7022.00    0.79344   0.92262   -1.000
 7023.00    0.79466   0.92438   -1.000
 7024.00    0.83110   0.92500   -1.000
 7025.00    0.87242   0.92549   -1.000
 7026.00    0.78545   0.92605   -1.000
 7027.00    0.68575   0.92651   -1.000
 7028.00    0.73841   0.92707   -1.000
 7029.00    0.80062   0.92834   -1.000
 7030.00    0.83455   0.93028   -1.000
 7031.00    0.86748   0.93228   -1.000
 7032.00    0.84643   0.93420   -1.000
 7033.00    0.82764   0.93581   -1.000
 7034.00    0.87083   0.93728   -1.000
 7035.00    0.90233   0.93831   -1.000
 7036.00    0.76972   0.93815   -1.000
 7037.00    0.65365   0.93858   -1.000
 7038.00    0.69005   0.93984   -1.000
 7039.00    0.73263   0.94007   -1.000
 7040.00    0.81681   0.94160   -1.000
 7041.00    0.88654   0.94544   -1.000
 7042.00    0.88071   0.94859   -1.000
 7043.00    0.87407   0.95202   -1.000
 7044.00    0.86401   0.95715   -1.000
 7045.00    0.84263   0.96126   -1.000
 7046.00    0.78192   0.96388   -1.000
 7047.00    0.74504   0.96653   -1.000
 7048.00    0.77797   0.96789   -1.000
 7049.00    0.73611   0.96732   -1.000
 7050.00    0.50755   0.96536   -2.000
 7051.00    0.43877   0.96155   -2.000
 7052.00    0.71367   0.95604   -2.000
 7053.00    0.88892   0.94856   -2.000
 7054.00    0.87810   0.93949   -2.000
 7055.00    0.89050   0.93036   -2.000
 7056.00    0.94077   0.92097   -2.000
 7057.00    0.99065   0.91180   -2.000
 7058.00    1.03997   0.90419   -2.000
 7059.00    1.04533   0.89795   -2.000
 7060.00    0.99536   0.89265   -2.000
 7061.00    0.96105   0.88830   -2.000
 7062.00    0.94410   0.88540   -2.000
 7063.00    0.94634   0.88319   -2.000
 7064.00    0.96735   0.88077   -2.000
 7065.00    0.94109   0.87950   -2.000
 7066.00    0.87407   0.87869   -2.000
 7067.00    0.92231   0.87724   -2.000
 7068.00    1.05814   0.87696   -2.000
 7069.00    1.01897   0.87730   -2.000
 7070.00    0.86295   0.87755   -2.000
 7071.00    0.82946   0.87953   -2.000
 7072.00    0.86761   0.88248   -2.000
 7073.00    0.91904   0.88536   -2.000
 7074.00    0.97722   0.88927   -2.000
 7075.00    0.98810   0.89350   -2.000
 7076.00    0.97808   0.89683   -2.000
 7077.00    1.02409   0.89961   -2.000
 7078.00    1.09134   0.90199   -2.000
 7079.00    1.07072   0.90331   -2.000
 7080.00    1.02181   0.90311   -2.000
 7081.00    0.95945   0.90199   -2.000
 7082.00    0.89347   0.89952   -2.000
 7083.00    0.81942   0.89504   -2.000
 7084.00    0.74358   0.88968   -2.000
 7085.00    0.86837   0.88294   -2.000
 7086.00    1.02843   0.87499   -2.000
 7087.00    0.89235   0.86793   -2.000
 7088.00    0.71660   0.86051   -2.000
 7089.00    0.87758   0.85329   -2.000
 7090.00    1.07055   0.84850   -2.000
 7091.00    0.94848   0.84398   -2.000
 7092.00    0.80792   0.84024   -2.000
 7093.00    0.85712   0.83879   -2.000
 7094.00    0.91099   0.83753   -2.000
 7095.00    0.96212   0.83718   -2.000
 7096.00    1.00909   0.83830   -2.000
 7097.00    0.95270   0.83949   -2.000
 7098.00    0.88654   0.84133   -2.000
 7099.00    0.69079   0.84369   -2.000
 7100.00    0.53979   0.84600   -2.000
 7101.00    0.78533   0.84823   -2.000
 7102.00    0.96901   0.85021   -2.000
 7103.00    0.74858   0.85203   -2.000
 7104.00    0.59041   0.85318   -2.000
 7105.00    0.74936   0.85387   -2.000
 7106.00    0.86781   0.85455   -2.000
 7107.00    0.81953   0.85455   -2.000
 7108.00    0.76614   0.85396   -2.000
 7109.00    0.69530   0.85348   -2.000
 7110.00    0.66112   0.85288   -2.000
 7111.00    0.73227   0.85189   -2.000
 7112.00    0.77883   0.85111   -2.000
 7113.00    0.76504   0.85102   -2.000
 7114.00    0.77014   0.85137   -2.000
 7115.00    0.81519   0.85190   -2.000
 7116.00    0.81183   0.85292   -2.000
 7117.00    0.71943   0.85445   -2.000
 7118.00    0.69785   0.85567   -2.000
 7119.00    0.79006   0.85642   -2.000
 7120.00    0.90397   0.85679   -2.000
 7121.00    1.04847   0.85652   -2.000
 7122.00    1.09862   0.85568   -2.000
 7123.00    1.03175   0.85374   -2.000
 7124.00    0.86861   0.85125   -2.000
 7125.00    0.60023   0.84877   -2.000
 7126.00    0.50496   0.84514   -2.000
 7127.00    0.57662   0.84110   -2.000
 7128.00    0.60756   0.83740   -2.000
 7129.00    0.60386   0.83359   -2.000
 7130.00    0.53231   0.83011   -2.000
 7131.00    0.40994   0.82716   -2.000
 7132.00    0.48271   0.82552   -2.000
 7133.00    0.68387   0.82537   -2.000
 7134.00    0.80919   0.82559   -2.000
 7135.00    0.89084   0.82743   -2.000
 7136.00    0.86270   0.83058   -2.000
 7137.00    0.77946   0.83295   -2.000
 7138.00    0.75153   0.83609   -2.000
 7139.00    0.74760   0.83955   -2.000
 7140.00    0.70863   0.84105   -2.000
 7141.00    0.65661   0.84274   -2.000
 7142.00    0.75108   0.84476   -2.000
 7143.00    0.89183   0.84470   -2.000
 7144.00    0.84519   0.84457   -2.000
 7145.00    0.74912   0.84499   -2.000
 7146.00    0.77706   0.84358   -2.000
 7147.00    0.83172   0.84230   -2.000
 7148.00    0.84008   0.84177   -2.000
 7149.00    0.84053   0.83999   -2.000
 7150.00    0.73994   0.83956   -2.000
 7151.00    0.62626   0.84072   -2.000
 7152.00    0.65615   0.84134   -2.000
 7153.00    0.69907   0.84350   -2.000
 7154.00    0.62817   0.84718   -2.000
 7155.00    0.55103   0.85031   -2.000
 7156.00    0.72419   0.85307   -2.000
 7157.00    0.90118   0.85598   -2.000
 7158.00    0.94929   0.85839   -2.000
 7159.00    0.98565   0.85892   -2.000
 7160.00    0.75543   0.85866   -2.000
 7161.00    0.53148   0.85837   -2.000
 7162.00    0.38652   0.85639   -2.000
 7163.00    0.28724   0.85399   -2.000
 7164.00    0.57770   0.85216   -2.000
 7165.00    0.86946   0.84988   -2.000
 7166.00    1.16950   0.84835   -2.000
 7167.00    1.37233   0.84834   -2.000
 7168.00    1.09248   0.84895   -2.000
 7169.00    0.84963   0.85067   -2.000
 7170.00    0.75567   0.85381   -2.000
 7171.00    0.68293   0.85705   -2.000
 7172.00    0.68105   0.86040   -2.000
 7173.00    0.70538   0.86378   -2.000
 7174.00    0.80361   0.86583   -2.000
 7175.00    0.84737   0.86711   -2.000
 7176.00    0.75970   0.86806   -2.000
 7177.00    0.70836   0.86719   -2.000
 7178.00    0.73263   0.86568   -2.000
 7179.00    0.77568   0.86451   -2.000
 7180.00    0.85271   0.86228   -2.000
 7181.00    0.83882   0.86009   -2.000
 7182.00    0.68100   0.85864   -2.000
 7183.00    0.61796   0.85713   -2.000
 7184.00    0.68661   0.85629   -2.000
 7185.00    0.73620   0.85518   -2.000
 7186.00    0.76250   0.85399   -2.000
 7187.00    0.77142   0.85352   -2.000
 7188.00    0.76158   0.85173   -2.000
 7189.00    0.76838   0.84984   -2.000
 7190.00    0.79099   0.84892   -2.000
 7191.00    0.77519   0.84733   -2.000
 7192.00    0.72720   0.84667   -2.000
 7193.00    0.79225   0.84722   -2.000
 7194.00    0.94073   0.84762   -2.000
 7195.00    0.96050   0.84883   -2.000
 7196.00    0.89681   0.85084   -2.000
 7197.00    0.85235   0.85233   -2.000
 7198.00    0.81879   0.85350   -2.000
 7199.00    0.76031   0.85522   -2.000
 7200.00    0.68951   0.85657   -2.000
 7201.00    0.57888   0.85718   -2.000
 7202.00    0.45122   0.85795   -2.000
 7203.00    0.47690   0.85853   -2.000
 7204.00    0.55867   0.85850   -2.000
 7205.00    0.64653   0.85789   -2.000
 7206.00    0.73628   0.85711   -2.000
 7207.00    0.73163   0.85597   -2.000
 7208.00    0.70262   0.85400   -2.000
 7209.00    0.65448   0.85311   -2.000
 7210.00    0.60233   0.85280   -2.000
 7211.00    0.70942   0.85218   -2.000
 7212.00    0.84295   0.85365   -2.000
 7213.00    0.64903   0.85577   -2.000
 7214.00    0.41420   0.85732   -2.000
 7215.00    0.43339   0.86021   -2.000
 7216.00    0.47460   0.86311   -2.000
 7217.00    0.52040   0.86501   -2.000
 7218.00    0.56643   0.86738   -2.000
