###################################################################
## OUTPUT of StarlightChains_v04.for    [Cid@UFSC - 01/Apr/2007] ##
###################################################################

## Some input info
KUG0210-078._33_43.txt                   [arq_obs]
Base.CB07.vall.4m                        [arq_base]
Masks.EmLines.NEW.gm                     [arq_masks]
StCv04.C11.config                        [arq_config]
   66                                    [N_base]
    0                                    [N_YAV_components = # of components with extra extinction!]
    0                                    [i_FitPowerLaw (1/0 = Yes/No)]
-9.99                                    [alpha_PowerLaw]
CCM                                      [red_law_option]
 1.458241                                [q_norm = A(l_norm)/A(V)]

## (Re)Sampling Parameters
 3741.00                                 [l_ini (A)]
 7218.00                                 [l_fin (A)]
    1.00                                 [dl    (A)]     (OBS: dl_cushion =    50.00 A)

## Normalization info
 4020.00                                 [l_norm (A) - for base]
 4010.00                                 [llow_norm (A) - window for f_obs]
 4060.00                                 [lupp_norm (A) - window for f_obs]
8.035398E-18                             [fobs_norm (in input units)]

## S/N
 3691.00                                 [llow_SN (A) - window for S/N]
 7268.00                                 [lupp_SN (A) - window for S/N]
   4.700                                 [S/N in S/N window]
   3.160                                 [S/N in norm. window]
   0.013                                 [S/N_err in S/N window]
   0.009                                 [S/N_err in norm. window]
  1.0000                                 [fscale_chi2]

## etc...
    -2007518                             [idum_orig]
  2416                                   [NOl_eff]
  2401                                   [Nl_eff]
    15    NSIGMA                         [Ntot_cliped & clip_method]
   486640                                [Nglobal_steps]
   7                                     [N_chains]
  11                                     [NEX0s_base = N_base in EX0s-fits]
 0   0   1       15   2.0   1.292E+03    [Clip-Bug, RC-Crash & Burn-In warning-flags, n_censored_weights, wei_nsig_threshold & wei_limit]
    11     10.537     10.065      0.471  [idt_all, wdt_TotTime, wdt_UsrTime & wdt_SysTime (sec)]

## Synthesis Results - Best model ##

 1.12483E-05                             [chi2/Nl_eff]
    14.54763                             [adev (%)]

   130.00000                             [sum-of-x (%)]
 7.85764E-18                             [Flux_tot (units of input spectrum!)]
 5.52080E-13                             [Mini_tot (???)]
 2.78487E-13                             [Mcor_tot (???)]

 280.71                                  [v0_min  (km/s)]
 322.40                                  [vd_min  (km/s)]
-0.2120                                  [AV_min  (mag)]
 0.0000                                  [YAV_min (mag)]

# j     x_j(%)      Mini_j(%)     Mcor_j(%)     age_j(yr)     Z_j      (L/M)_j    YAV?  Mstars   component_j        a/Fe...       SSP_chi2r SSP_adev(%)   SSP_AV   SSP_x(%)
  1      0.0000     0.0000E+00    0.0000E+00    1.000000E+06  0.00400  1.094E-02    0   1.0000   age020_m42            0.0000     1.4101E-05    18.8464   3.5432   116.6165
  2      0.0000     0.0000E+00    0.0000E+00    3.160000E+06  0.00400  4.007E-02    0   0.9999   age045_m42            0.0000     1.2957E-05    17.8008   2.8041   125.1996
  3      0.0000     0.0000E+00    0.0000E+00    5.010000E+06  0.00400  2.539E-02    0   0.9488   age055_m42            0.0000     1.3398E-05    18.2710   3.1285   121.9638
  4      0.0000     0.0000E+00    0.0000E+00    6.610000E+06  0.00400  2.620E-02    0   0.9220   age061_m42            0.0000     1.2955E-05    17.8052   2.7310   125.4660
  5      0.0000     0.0000E+00    0.0000E+00    1.000000E+07  0.00400  1.322E-02    0   0.8862   age070_m42            0.0000     1.3581E-05    19.0566   2.4803   126.7830
  6      0.0000     0.0000E+00    0.0000E+00    1.445000E+07  0.00400  7.883E-03    0   0.8571   age078_m42            0.0000     1.3761E-05    19.1654   2.8050   123.6465
  7      0.0000     0.0000E+00    0.0000E+00    2.512000E+07  0.00400  5.251E-03    0   0.8174   age090_m42            0.0000     1.3620E-05    19.2351   2.3533   127.3757
  8      1.1997     3.5997E-03    5.6025E-03    4.000000E+07  0.00400  3.649E-03    0   0.7851   age104_m42            0.0000     1.3333E-05    18.9049   2.1212   128.7012
  9      6.5116     2.3012E-02    3.4803E-02    5.500000E+07  0.00400  3.098E-03    0   0.7629   age110_m42            0.0000     1.2955E-05    18.1111   2.2601   129.3258
 10      0.0000     0.0000E+00    0.0000E+00    1.015200E+08  0.00400  2.228E-03    0   0.7207   age116_m42            0.0000     1.2762E-05    17.5695   2.2683   130.0701
 11      0.0000     0.0000E+00    0.0000E+00    2.861200E+08  0.00400  1.093E-03    0   0.6648   age125_m42            0.0000     1.2834E-05    17.7988   1.7037   133.6434
 12      0.0000     0.0000E+00    0.0000E+00    5.088000E+08  0.00400  6.597E-04    0   0.6365   age130_m42            0.0000     1.2462E-05    16.9187   1.6791   135.4917
 13      0.0000     0.0000E+00    0.0000E+00    1.434000E+09  0.00400  2.132E-04    0   0.5798   age139_m42            0.0000     1.1705E-05    16.2415   0.7020   138.7112
 14      0.0000     0.0000E+00    0.0000E+00    4.250000E+09  0.00400  5.895E-05    0   0.5377   age158_m42            0.0000     1.1280E-05    15.7083   0.2395   134.5667
 15      0.0000     0.0000E+00    0.0000E+00    7.500000E+09  0.00400  3.510E-05    0   0.5212   age171_m42            0.0000     1.1227E-05    15.3997   0.0409   134.1471
 16     43.0832     2.3526E+01    2.3477E+01    1.300000E+10  0.00400  2.005E-05    0   0.5034   age193_m42            0.0000     1.1253E-05    15.1844  -0.1330   133.7990
 17     41.9312     3.0103E+01    2.9642E+01    1.800000E+10  0.00400  1.525E-05    0   0.4967   age213_m42            0.0000     1.1283E-05    15.3126  -0.1536   133.1241
 18      0.0000     0.0000E+00    0.0000E+00    1.000000E+06  0.00800  1.238E-02    0   1.0000   age020_m52            0.0000     1.4099E-05    18.8300   3.5373   116.9221
 19      0.0000     0.0000E+00    0.0000E+00    3.160000E+06  0.00800  3.074E-02    0   0.9966   age045_m52            0.0000     1.3966E-05    18.7472   3.4605   118.0166
 20      0.0000     0.0000E+00    0.0000E+00    5.010000E+06  0.00800  2.668E-02    0   0.9443   age055_m52            0.0000     1.3549E-05    18.4623   3.2165   120.6815
 21      0.0000     0.0000E+00    0.0000E+00    6.610000E+06  0.00800  2.136E-02    0   0.9177   age061_m52            0.0000     1.3312E-05    18.9137   1.9801   128.4022
 22      0.0000     0.0000E+00    0.0000E+00    1.000000E+07  0.00800  1.215E-02    0   0.8827   age070_m52            0.0000     1.3951E-05    19.6173   2.6666   126.1149
 23      0.0000     0.0000E+00    0.0000E+00    1.445000E+07  0.00800  8.717E-03    0   0.8552   age078_m52            0.0000     1.3683E-05    19.1420   2.7717   125.3292
 24      0.0000     0.0000E+00    0.0000E+00    2.512000E+07  0.00800  5.592E-03    0   0.8162   age090_m52            0.0000     1.3613E-05    19.3094   2.4191   128.7827
 25      0.0000     0.0000E+00    0.0000E+00    4.000000E+07  0.00800  3.896E-03    0   0.7841   age104_m52            0.0000     1.3241E-05    18.7710   2.3200   130.2536
 26      0.0000     0.0000E+00    0.0000E+00    1.015200E+08  0.00800  2.148E-03    0   0.7226   age116_m52            0.0000     1.2808E-05    17.9060   2.2432   130.7742
 27      0.0000     0.0000E+00    0.0000E+00    2.861200E+08  0.00800  9.925E-04    0   0.6683   age125_m52            0.0000     1.2467E-05    16.9085   1.7444   136.7198
 28      0.0000     0.0000E+00    0.0000E+00    9.047900E+08  0.00800  3.141E-04    0   0.6138   age135_m52            0.0000     1.1575E-05    15.6119   0.9198   143.7785
 29      0.0000     0.0000E+00    0.0000E+00    1.434000E+09  0.00800  1.719E-04    0   0.5853   age139_m52            0.0000     1.1238E-05    15.7712   0.3374   141.0926
 30      0.0000     0.0000E+00    0.0000E+00    2.500000E+09  0.00800  7.872E-05    0   0.5600   age150_m52            0.0000     1.1009E-05    15.0165   0.0488   138.4645
 31      0.0000     0.0000E+00    0.0000E+00    4.250000E+09  0.00800  4.336E-05    0   0.5426   age158_m52            0.0000     1.1093E-05    15.0379   0.0332   137.2031
 32      0.0000     0.0000E+00    0.0000E+00    6.250000E+09  0.00800  3.159E-05    0   0.5319   age166_m52            0.0000     1.1084E-05    14.6223  -0.1866   138.0163
 33      0.0000     0.0000E+00    0.0000E+00    1.300000E+10  0.00800  1.361E-05    0   0.5073   age193_m52            0.0000     1.1154E-05    14.2688  -0.6745   138.1188
 34      0.0000     0.0000E+00    0.0000E+00    1.800000E+10  0.00800  9.886E-06    0   0.4990   age213_m52            0.0000     1.1285E-05    14.0990  -0.8022   138.3523
 35      0.0000     0.0000E+00    0.0000E+00    1.000000E+06  0.02000  1.544E-02    0   1.0000   age020_m62            0.0000     1.4146E-05    18.8862   3.5359   117.1174
 36      0.0000     0.0000E+00    0.0000E+00    3.160000E+06  0.02000  3.762E-02    0   0.9858   age045_m62            0.0000     1.4093E-05    18.8292   3.4715   118.2898
 37      0.0000     0.0000E+00    0.0000E+00    5.010000E+06  0.02000  3.296E-02    0   0.9342   age055_m62            0.0000     1.3161E-05    17.9423   3.0835   123.7148
 38      0.0000     0.0000E+00    0.0000E+00    8.710000E+06  0.02000  1.154E-02    0   0.8861   age067_m62            0.0000     1.6444E-05    23.2374   2.1692   127.2012
 39      0.0000     0.0000E+00    0.0000E+00    1.445000E+07  0.02000  7.663E-03    0   0.8472   age078_m62            0.0000     1.4420E-05    20.5330   2.3259   128.3472
 40      0.0000     0.0000E+00    0.0000E+00    2.512000E+07  0.02000  4.532E-03    0   0.8099   age090_m62            0.0000     1.4472E-05    20.6586   2.3200   127.8939
 41      0.0000     0.0000E+00    0.0000E+00    5.500000E+07  0.02000  2.733E-03    0   0.7595   age110_m62            0.0000     1.3302E-05    18.8330   2.3044   129.2876
 42      0.0000     0.0000E+00    0.0000E+00    1.609000E+08  0.02000  1.369E-03    0   0.6985   age120_m62            0.0000     1.2784E-05    17.5053   2.1198   133.9153
 43      0.0000     0.0000E+00    0.0000E+00    2.861200E+08  0.02000  9.013E-04    0   0.6714   age125_m62            0.0000     1.2574E-05    16.7575   1.8581   138.3562
 44      0.0000     0.0000E+00    0.0000E+00    5.088000E+08  0.02000  5.028E-04    0   0.6449   age130_m62            0.0000     1.1950E-05    15.5095   1.4547   143.3206
 45      0.0000     0.0000E+00    0.0000E+00    9.047900E+08  0.02000  2.428E-04    0   0.6179   age135_m62            0.0000     1.1242E-05    15.0579   0.8514   143.4596
 46      0.0000     0.0000E+00    0.0000E+00    1.434000E+09  0.02000  1.263E-04    0   0.5908   age139_m62            0.0000     1.1063E-05    15.0131   0.4014   141.7791
 47      0.0000     0.0000E+00    0.0000E+00    2.500000E+09  0.02000  5.985E-05    0   0.5673   age150_m62            0.0000     1.0993E-05    14.6041   0.0156   140.8868
 48      0.0000     0.0000E+00    0.0000E+00    4.250000E+09  0.02000  3.271E-05    0   0.5468   age158_m62            0.0000     1.1044E-05    14.2413  -0.3150   140.9402
 49      0.0000     0.0000E+00    0.0000E+00    1.000000E+10  0.02000  1.360E-05    0   0.5167   age181_m62            0.0000     1.1336E-05    14.0204  -0.6970   141.9764
 50      0.0000     0.0000E+00    0.0000E+00    1.800000E+10  0.02000  7.124E-06    0   0.5013   age213_m62            0.0000     1.1677E-05    14.0930  -0.9350   142.1845
 51      0.0000     0.0000E+00    0.0000E+00    1.000000E+06  0.05000  2.592E-02    0   0.9998   age020_m72            0.0000     1.4302E-05    19.0306   3.5277   117.1266
 52      0.0000     0.0000E+00    0.0000E+00    3.160000E+06  0.05000  4.845E-02    0   0.9577   age045_m72            0.0000     1.3627E-05    18.3972   3.3459   120.2386
 53      0.0000     0.0000E+00    0.0000E+00    5.010000E+06  0.05000  3.072E-02    0   0.9147   age055_m72            0.0000     1.4245E-05    19.8042   2.8914   124.1836
 54      0.0000     0.0000E+00    0.0000E+00    6.610000E+06  0.05000  1.455E-02    0   0.8877   age061_m72            0.0000     1.8326E-05    25.4223   2.2113   127.5942
 55      0.0000     0.0000E+00    0.0000E+00    1.000000E+07  0.05000  9.074E-03    0   0.8524   age070_m72            0.0000     1.4522E-05    20.0104   3.0636   123.8606
 56      0.0000     0.0000E+00    0.0000E+00    2.512000E+07  0.05000  4.250E-03    0   0.7902   age090_m72            0.0000     1.3915E-05    19.5394   2.7657   126.4109
 57      0.0000     0.0000E+00    0.0000E+00    4.000000E+07  0.05000  3.087E-03    0   0.7618   age104_m72            0.0000     1.3931E-05    19.6478   2.5396   128.4596
 58      0.0000     0.0000E+00    0.0000E+00    1.015200E+08  0.05000  1.700E-03    0   0.7096   age116_m72            0.0000     1.3104E-05    18.0948   2.2697   132.9175
 59      0.0000     0.0000E+00    0.0000E+00    2.861200E+08  0.05000  7.384E-04    0   0.6633   age125_m72            0.0000     1.2234E-05    16.0911   1.7102   141.0501
 60      0.0000     0.0000E+00    0.0000E+00    5.088000E+08  0.05000  3.819E-04    0   0.6372   age130_m72            0.0000     1.1454E-05    15.1375   1.1944   144.6919
 61      0.0000     0.0000E+00    0.0000E+00    9.047900E+08  0.05000  1.676E-04    0   0.6110   age135_m72            0.0000     1.1019E-05    14.6033   0.4691   143.8005
 62      0.0000     0.0000E+00    0.0000E+00    1.434000E+09  0.05000  8.837E-05    0   0.5874   age139_m72            0.0000     1.1063E-05    14.5591   0.0067   143.3779
 63      0.0000     0.0000E+00    0.0000E+00    2.500000E+09  0.05000  4.233E-05    0   0.5598   age150_m72            0.0000     1.1102E-05    14.2123  -0.3274   142.7734
 64     17.7695     1.3557E+01    1.4107E+01    6.250000E+09  0.05000  1.435E-05    0   0.5249   age166_m72            0.0000     1.1395E-05    14.1734  -0.8041   141.9374
 65     19.5047     3.2787E+01    3.2733E+01    1.300000E+10  0.05000  6.513E-06    0   0.5036   age193_m72            0.0000     1.2032E-05    13.8999  -1.0000   140.3986
 66      0.0000     0.0000E+00    0.0000E+00    1.800000E+10  0.05000  4.527E-06    0   0.4945   age213_m72            0.0000     1.3095E-05    14.3780  -1.0000   133.9595


## Synthesis Results - Average & Chains ##

# j      x_j: min, <> & last-chain-values for 1 ...  7 chains
  1      0.0000      0.4119      0.1386      0.2041      0.0000      0.0000      0.0000      0.0000      0.0000
  2      0.0000      0.4038      0.0000      0.0000      0.0000      0.0000      0.0000      0.0799      0.0000
  3      0.0000      0.4975      0.0003      0.0000      0.0000      0.0005      0.0000      0.0000      0.0000
  4      0.0000      0.3895      0.0000      0.0000      0.0000      0.0000      0.0000      0.0000      0.0002
  5      0.0000      0.3600      0.0000      0.0000      0.0002      0.0000      0.0000      0.0000      0.0000
  6      0.0000      0.5673      0.0000      0.0000      0.0000      0.0000      0.0000      0.0886      0.0000
  7      0.0000      0.3846      0.0007      0.0000      0.0000      0.0000      0.0000      0.1653      0.0000
  8      1.1997      0.5217      0.0000      0.0000      0.0000      0.0000      0.0000      0.2221      0.0000
  9      6.5116      0.6093      0.0000      0.0000      0.0000      0.0000      0.0000      0.2746      0.0000
 10      0.0000      0.3429      0.0000      0.0000      0.0000      0.0000      0.0000      0.0000      0.0000
 11      0.0000      0.3795      0.0000      0.0004      0.0001      0.0000      0.0000      0.0139      0.0000
 12      0.0000      0.3446      0.0001      0.0000      0.0000      0.0000      0.0000      0.0000      0.0000
 13      0.0000      0.6675      0.0000      0.0000      0.0000      0.0000      0.0012      0.0000      0.0000
 14      0.0000      0.5411      0.0000      0.0000      0.0000      0.0000      0.0000      0.0000      0.0000
 15      0.0000      0.4321      0.0000      0.0000      0.0000      0.0001      0.0000      0.0000      0.0000
 16     43.0832      0.6164      0.0000      0.1787      0.0000      0.0000      0.2656      0.4067      0.0000
 17     41.9312      0.4577      0.0000      0.0000      0.0000      0.0000      0.0000      0.1775      0.0009
 18      0.0000      0.5148      0.0000      0.0011      0.0000      0.0000      0.0003      0.2066      0.0000
 19      0.0000      0.4635      0.0000      0.0000      0.0000      0.0000      0.0000      0.0000      0.0000
 20      0.0000      0.3684      0.0000      0.0000      0.0000      0.0000      0.0000      0.0351      0.0000
 21      0.0000      0.5429      0.0000      0.0000      0.0000      0.0000      0.0000      0.0000      0.0000
 22      0.0000      0.5080      0.0000      0.0000      0.0000      0.0000      0.0000      0.0000      0.0000
 23      0.0000      0.4623      0.0000      0.0000      0.0000      0.0000      0.0671      0.0000      0.0000
 24      0.0000      0.4501      0.0000      0.0000      0.0000      0.0000      0.0000      0.0000      0.0000
 25      0.0000      0.4732      0.0000      0.0000      0.0000      0.0000      0.0000      0.0000      0.0000
 26      0.0000      0.4878      0.0000      0.0000      0.0000      0.0000      0.0000      0.0000      0.0000
 27      0.0000      0.4717      0.0000      0.0000      0.0000      0.0046      0.0000      0.0000      0.0000
 28      0.0000      0.5080      0.0000      0.0000      0.0000      0.0000      0.0000      0.0000      0.0000
 29      0.0000      0.4962      0.0000      0.0000      0.0000      0.0000      0.0000      0.0000      0.0000
 30      0.0000      0.4048      0.0000      0.0000      0.0000      0.0000      0.0000      0.0455      0.0000
 31      0.0000      0.4455      0.0000      0.0002      0.0000      0.0000      0.3666      0.0001      0.0000
 32      0.0000      0.4318      0.0000      0.0000      0.0000      0.0000      0.0398      0.1448      0.0000
 33      0.0000      0.6903      0.1256      0.0000      0.0000      0.0007      0.0010      0.0827      0.0000
 34      0.0000      0.4271      0.0000      0.0000      0.0000      0.0000      0.0000      0.0000      0.0000
 35      0.0000      0.4595      0.0000      0.0000      0.0000      0.0000      0.0000      0.1943      0.2986
 36      0.0000      0.4387      0.0000      0.0000      0.0000      0.0000      0.0000      0.0000      0.0000
 37      0.0000      0.4910      0.0000      0.0003      0.0000      0.0176      0.0000      0.0000      0.0000
 38      0.0000      2.0831      3.3900      2.9650      3.1188      3.1778      3.2907      2.5301      2.9512
 39      0.0000      0.7217      0.0000      0.0000      0.0000      0.0001      0.1276      0.0000      0.0000
 40      0.0000      0.4398      0.0000      0.0001      0.0000      0.0000      0.0000      0.0318      0.0000
 41      0.0000      0.4398      0.0000      0.0000      0.0000      0.0000      0.0000      0.1487      0.0000
 42      0.0000      0.4644      0.0000      0.0000      0.0000      0.0000      0.0010      0.0000      0.0000
 43      0.0000      0.3402      0.0000      0.0000      0.0000      0.0000      0.0000      0.0000      0.0000
 44      0.0000      0.5417      0.0000      0.0000      0.0000      0.0000      0.0000      0.0000      0.0000
 45      0.0000      0.4614      0.0000      0.0000      0.0000      0.0000      0.0000      0.0000      0.0000
 46      0.0000      0.4446      0.0000      0.0000      0.0000      0.0000      0.0000      0.0000      0.0000
 47      0.0000      0.4658      0.0000      0.0000      0.0000      0.0000      0.0000      0.0000      0.0000
 48      0.0000      0.6395      0.0000      0.0000      0.0000      0.0000      0.0837      0.1194      0.0000
 49      0.0000      0.3143      0.0000      0.0000      0.0039      0.0020      0.0108      0.1346      0.0000
 50      0.0000      0.3972      0.0148      0.0219      0.0088      0.0000      0.0126      0.0618      0.0000
 51      0.0000      0.5671      0.0000      0.0000      0.0000      0.0000      0.0000      0.0000      0.0000
 52      0.0000      0.3910      0.0000      0.0000      0.0000      0.0000      0.0000      0.0122      0.0000
 53      0.0000      0.4475      0.0000      0.0004      0.0000      0.0000      0.0000      0.0000      0.0000
 54      0.0000      1.5502      1.8557      1.9375      1.9774      2.0716      2.0314      1.5053      2.1250
 55      0.0000      0.5408      0.3804      0.2396      0.3837      0.1799      0.0999      0.0000      0.3596
 56      0.0000      0.4688      0.0000      0.0004      0.0000      0.0000      0.1331      0.0000      0.0000
 57      0.0000      0.5411      0.0000      0.0000      0.0000      0.0000      0.0000      0.0000      0.0000
 58      0.0000      0.6036      0.0000      0.0000      0.0000      0.0000      0.1337      0.0000      0.0000
 59      0.0000      0.4538      0.0000      0.0000      0.0000      0.0000      0.0000      0.0645      0.0003
 60      0.0000      0.3620      0.0000      0.0000      0.0000      0.0000      0.0000      0.0000      0.0000
 61      0.0000      0.4648      0.0000      0.0000      0.0000      0.0000      0.0000      0.0000      0.0000
 62      0.0000      0.5649      0.0000      0.0000      0.0000      0.0000      0.0000      0.1614      0.0000
 63      0.0000      0.5240      0.0000      0.0000      0.0000      0.0000      0.0000      0.0016      0.0000
 64     17.7695      0.3658      0.0024      0.0000      0.0000      0.0000      0.1157      0.6094      0.0001
 65     19.5047      1.6484      2.0018      2.0159      3.3243      1.7980      1.9810      3.3605      2.2127
 66      0.0000     35.5678     62.0897     62.4340     61.1941     62.8122     61.2374     59.1819     62.0515

# j      m_j: min, <> & last-chain-values for 1 ...  7 chains
  1  0.0000E+00  8.9402E-04  1.8249E-04  2.6721E-04  0.0000E+00  0.0000E+00  0.0000E+00  0.0000E+00  0.0000E+00
  2  0.0000E+00  2.3926E-04  0.0000E+00  0.0000E+00  0.0000E+00  0.0000E+00  0.0000E+00  2.9404E-05  0.0000E+00
  3  0.0000E+00  4.4147E-04  1.3542E-07  0.0000E+00  7.0553E-10  2.6946E-07  0.0000E+00  3.2158E-09  0.0000E+00
  4  0.0000E+00  3.2552E-04  0.0000E+00  0.0000E+00  0.0000E+00  0.0000E+00  0.0000E+00  0.0000E+00  1.1043E-07
  5  0.0000E+00  5.7300E-04  0.0000E+00  0.0000E+00  1.9092E-07  0.0000E+00  0.0000E+00  0.0000E+00  0.0000E+00
  6  0.0000E+00  1.4646E-03  0.0000E+00  0.0000E+00  0.0000E+00  0.0000E+00  0.0000E+00  1.4209E-04  0.0000E+00
  7  0.0000E+00  1.4216E-03  1.6562E-06  0.0000E+00  0.0000E+00  0.0000E+00  1.0775E-08  3.7933E-04  0.0000E+00
  8  5.6025E-03  2.6655E-03  0.0000E+00  0.0000E+00  0.0000E+00  0.0000E+00  0.0000E+00  7.0448E-04  0.0000E+00
  9  3.4803E-02  3.5629E-03  0.0000E+00  0.0000E+00  0.0000E+00  0.0000E+00  0.0000E+00  9.9718E-04  0.0000E+00
 10  0.0000E+00  2.6341E-03  0.0000E+00  0.0000E+00  0.0000E+00  0.0000E+00  0.0000E+00  0.0000E+00  0.0000E+00
 11  0.0000E+00  5.4813E-03  0.0000E+00  3.7185E-06  9.9172E-07  0.0000E+00  0.0000E+00  1.2427E-04  0.0000E+00
 12  0.0000E+00  7.8951E-03  9.0363E-07  0.0000E+00  0.0000E+00  0.0000E+00  0.0000E+00  0.0000E+00  0.0000E+00
 13  0.0000E+00  4.3107E-02  0.0000E+00  0.0000E+00  0.0000E+00  0.0000E+00  4.8868E-05  0.0000E+00  0.0000E+00
 14  0.0000E+00  1.1719E-01  0.0000E+00  0.0000E+00  0.0000E+00  0.0000E+00  0.0000E+00  0.0000E+00  0.0000E+00
 15  0.0000E+00  1.5234E-01  0.0000E+00  0.0000E+00  0.0000E+00  2.3460E-05  0.0000E+00  0.0000E+00  0.0000E+00
 16  2.3477E+01  3.6752E-01  0.0000E+00  6.4270E-02  0.0000E+00  0.0000E+00  9.7173E-02  1.5056E-01  0.0000E+00
 17  2.9642E+01  3.5400E-01  0.0000E+00  0.0000E+00  0.0000E+00  0.0000E+00  0.0000E+00  8.5246E-02  4.1213E-04
 18  0.0000E+00  9.8753E-04  0.0000E+00  1.3208E-06  0.0000E+00  0.0000E+00  3.2537E-07  2.4609E-04  0.0000E+00
 19  0.0000E+00  3.5686E-04  0.0000E+00  0.0000E+00  0.0000E+00  0.0000E+00  0.0000E+00  0.0000E+00  0.0000E+00
 20  0.0000E+00  3.0965E-04  0.0000E+00  0.0000E+00  0.0000E+00  0.0000E+00  0.0000E+00  1.8297E-05  0.0000E+00
 21  0.0000E+00  5.5391E-04  0.0000E+00  0.0000E+00  0.0000E+00  0.0000E+00  0.0000E+00  0.0000E+00  0.0000E+00
 22  0.0000E+00  8.7637E-04  0.0000E+00  0.0000E+00  0.0000E+00  0.0000E+00  0.0000E+00  0.0000E+00  0.0000E+00
 23  0.0000E+00  1.0771E-03  0.0000E+00  0.0000E+00  0.0000E+00  0.0000E+00  9.5982E-05  0.0000E+00  0.0000E+00
 24  0.0000E+00  1.5600E-03  0.0000E+00  0.0000E+00  0.0000E+00  0.0000E+00  0.0000E+00  0.0000E+00  0.0000E+00
 25  0.0000E+00  2.2616E-03  0.0000E+00  0.0000E+00  0.0000E+00  0.0000E+00  0.0000E+00  0.0000E+00  0.0000E+00
 26  0.0000E+00  3.8970E-03  0.0000E+00  0.0000E+00  0.0000E+00  0.0000E+00  0.0000E+00  0.0000E+00  0.0000E+00
 27  0.0000E+00  7.5425E-03  0.0000E+00  0.0000E+00  0.0000E+00  4.3768E-05  0.0000E+00  0.0000E+00  0.0000E+00
 28  0.0000E+00  2.3572E-02  0.0000E+00  0.0000E+00  0.0000E+00  0.0000E+00  0.0000E+00  0.0000E+00  0.0000E+00
 29  0.0000E+00  4.0119E-02  0.0000E+00  0.0000E+00  0.0000E+00  0.0000E+00  0.0000E+00  0.0000E+00  0.0000E+00
 30  0.0000E+00  6.8388E-02  0.0000E+00  0.0000E+00  0.0000E+00  0.0000E+00  0.0000E+00  4.7722E-03  0.0000E+00
 31  0.0000E+00  1.3238E-01  0.0000E+00  3.3851E-05  0.0000E+00  0.0000E+00  6.6852E-02  1.6248E-05  0.0000E+00
 32  0.0000E+00  1.7263E-01  0.0000E+00  0.0000E+00  0.0000E+00  0.0000E+00  9.7568E-03  3.5949E-02  0.0000E+00
 33  0.0000E+00  6.1098E-01  6.7415E-02  0.0000E+00  0.0000E+00  3.9918E-04  5.1694E-04  4.5454E-02  0.0000E+00
 34  0.0000E+00  5.1192E-01  0.0000E+00  0.0000E+00  0.0000E+00  0.0000E+00  0.0000E+00  0.0000E+00  0.0000E+00
 35  0.0000E+00  7.0676E-04  0.0000E+00  0.0000E+00  0.0000E+00  0.0000E+00  0.0000E+00  1.8560E-04  2.7824E-04
 36  0.0000E+00  2.7296E-04  0.0000E+00  0.0000E+00  0.0000E+00  0.0000E+00  0.0000E+00  0.0000E+00  0.0000E+00
 37  0.0000E+00  3.3045E-04  0.0000E+00  1.3977E-07  0.0000E+00  7.1056E-06  0.0000E+00  0.0000E+00  0.0000E+00
 38  0.0000E+00  3.7982E-03  3.7490E-03  3.2607E-03  3.4493E-03  3.4855E-03  3.6824E-03  2.8647E-03  3.2607E-03
 39  0.0000E+00  1.8946E-03  0.0000E+00  6.2673E-08  0.0000E+00  1.5814E-07  2.0562E-04  0.0000E+00  0.0000E+00
 40  0.0000E+00  1.8664E-03  0.0000E+00  3.3954E-07  0.0000E+00  0.0000E+00  0.0000E+00  8.3855E-05  0.0000E+00
 41  0.0000E+00  2.9022E-03  0.0000E+00  0.0000E+00  0.0000E+00  0.0000E+00  0.0000E+00  6.0914E-04  0.0000E+00
 42  0.0000E+00  5.6269E-03  0.0000E+00  0.0000E+00  0.0000E+00  0.0000E+00  7.7701E-06  0.0000E+00  0.0000E+00
 43  0.0000E+00  6.0175E-03  0.0000E+00  0.0000E+00  0.0000E+00  0.0000E+00  0.0000E+00  0.0000E+00  0.0000E+00
 44  0.0000E+00  1.6499E-02  0.0000E+00  0.0000E+00  0.0000E+00  0.0000E+00  0.0000E+00  0.0000E+00  0.0000E+00
 45  0.0000E+00  2.7882E-02  0.0000E+00  0.0000E+00  0.0000E+00  0.0000E+00  0.0000E+00  0.0000E+00  0.0000E+00
 46  0.0000E+00  4.9386E-02  0.0000E+00  0.0000E+00  0.0000E+00  0.0000E+00  0.0000E+00  0.0000E+00  0.0000E+00
 47  0.0000E+00  1.0483E-01  0.0000E+00  0.0000E+00  0.0000E+00  0.0000E+00  0.0000E+00  0.0000E+00  0.0000E+00
 48  0.0000E+00  2.5386E-01  0.0000E+00  0.0000E+00  0.0000E+00  0.0000E+00  2.0381E-02  2.9425E-02  0.0000E+00
 49  0.0000E+00  2.8352E-01  0.0000E+00  0.0000E+00  2.1124E-03  1.0623E-03  5.9523E-03  7.5379E-02  0.0000E+00
 50  0.0000E+00  6.6374E-01  1.5010E-02  2.2083E-02  8.9355E-03  0.0000E+00  1.2913E-02  6.4165E-02  0.0000E+00
 51  0.0000E+00  5.1947E-04  0.0000E+00  0.0000E+00  0.0000E+00  0.0000E+00  0.0000E+00  0.0000E+00  0.0000E+00
 52  0.0000E+00  1.8355E-04  0.0000E+00  0.0000E+00  0.0000E+00  0.0000E+00  0.0000E+00  3.5695E-06  0.0000E+00
 53  0.0000E+00  3.1642E-04  0.0000E+00  1.8561E-07  0.0000E+00  0.0000E+00  0.0000E+00  0.0000E+00  0.0000E+00
 54  0.0000E+00  2.2459E-03  1.6306E-03  1.6930E-03  1.7377E-03  1.8053E-03  1.8062E-03  1.3542E-03  1.8655E-03
 55  0.0000E+00  1.2064E-03  5.1470E-04  3.2239E-04  5.1914E-04  2.4133E-04  1.3678E-04  0.0000E+00  4.8603E-04
 56  0.0000E+00  2.0697E-03  0.0000E+00  1.1488E-06  0.0000E+00  0.0000E+00  3.6073E-04  0.0000E+00  0.0000E+00
 57  0.0000E+00  3.1706E-03  0.0000E+00  0.0000E+00  0.0000E+00  0.0000E+00  0.0000E+00  0.0000E+00  0.0000E+00
 58  0.0000E+00  5.9830E-03  0.0000E+00  0.0000E+00  0.0000E+00  0.0000E+00  8.1313E-04  0.0000E+00  0.0000E+00
 59  0.0000E+00  9.6805E-03  0.0000E+00  0.0000E+00  0.0000E+00  0.0000E+00  0.0000E+00  8.5490E-04  3.2908E-06
 60  0.0000E+00  1.4343E-02  0.0000E+00  0.0000E+00  0.0000E+00  0.0000E+00  0.0000E+00  0.0000E+00  0.0000E+00
 61  0.0000E+00  4.0232E-02  0.0000E+00  0.0000E+00  0.0000E+00  0.0000E+00  0.0000E+00  0.0000E+00  0.0000E+00
 62  0.0000E+00  8.9165E-02  0.0000E+00  0.0000E+00  0.0000E+00  0.0000E+00  0.0000E+00  1.5823E-02  0.0000E+00
 63  0.0000E+00  1.6454E-01  0.0000E+00  0.0000E+00  0.0000E+00  0.0000E+00  0.0000E+00  3.1704E-04  0.0000E+00
 64  1.4107E+01  3.1774E-01  1.2560E-03  0.0000E+00  0.0000E+00  0.0000E+00  6.1670E-02  3.2867E-01  6.4448E-05
 65  3.2733E+01  3.0266E+00  2.2293E+00  2.2325E+00  3.7023E+00  1.9859E+00  2.2323E+00  3.8314E+00  2.4618E+00
 66  0.0000E+00  9.2258E+01  9.7681E+01  9.7676E+01  9.6281E+01  9.8007E+01  9.7485E+01  9.5324E+01  9.7532E+01

# AV, chi2 & Mass for <> & i_chain = 1 ...  7 solutions
AV      -0.2120      0.4411      0.4488      0.4404      0.4449      0.4381      0.4601      0.4633      0.4493
chi2 1.1248E-05  4.7134E-05  3.8519E-05  3.8516E-05  3.8516E-05  3.8477E-05  3.8505E-05  3.8427E-05  3.8522E-05
Mass 2.7849E-13  6.1192E-13  1.0194E-12  1.0136E-12  1.0140E-12  1.0132E-12  1.0229E-12  1.0153E-12  1.0210E-12
 280.71                                  [v0_min (km/s) before EX0s...]
 322.40                                  [vd_min (km/s) before EX0s...]


## Synthetic spectrum (Best Model) ##l_obs f_obs f_syn wei
 3478    [Nl_obs]
 3741.00    1.05024   0.63258    0.000
 3742.00    1.07691   0.64504    0.000
 3743.00    0.76392   0.65730    0.000
 3744.00    0.53678   0.66649    0.000
 3745.00    0.35967   0.66937    0.019
 3746.00    0.39724   0.66704    0.019
 3747.00    0.54384   0.65995    0.018
 3748.00    0.43559   0.64851    0.018
 3749.00    0.21529   0.63917    0.019
 3750.00    0.51340   0.63075    0.019
 3751.00    1.00723   0.62673    0.019
 3752.00    0.88818   0.63260    0.018
 3753.00    0.57272   0.64457    0.018
 3754.00    0.42772   0.66151    0.018
 3755.00    0.32840   0.68207    0.018
 3756.00    0.69678   0.70641    0.018
 3757.00    1.16781   0.72841    0.018
 3758.00    1.18261   0.74464    0.018
 3759.00    1.11776   0.75611    0.018
 3760.00    0.90817   0.76042    0.020
 3761.00    0.67934   0.76382    0.022
 3762.00    0.43953   0.76417    0.020
 3763.00    0.19867   0.75935    0.018
 3764.00    0.46825   0.75788    0.018
 3765.00    0.76727   0.75715    0.018
 3766.00    0.77857   0.75651    0.018
 3767.00    0.78253   0.75900    0.018
 3768.00    0.72550   0.75974    0.017
 3769.00    0.67910   0.76215    0.017
 3770.00    0.89076   0.76965    0.017
 3771.00    1.09025   0.77675    0.017
 3772.00    1.13025   0.78371    0.017
 3773.00    1.13442   0.79483    0.017
 3774.00    0.82395   0.80932    0.017
 3775.00    0.57440   0.82398    0.017
 3776.00    0.71982   0.83997    0.017
 3777.00    0.81231   0.85636    0.017
 3778.00    0.63683   0.87342    0.017
 3779.00    0.56871   0.89108    0.017
 3780.00    0.93999   0.90522    0.017
 3781.00    1.17584   0.91907    0.017
 3782.00    0.95235   0.93175    0.017
 3783.00    0.67369   0.93889    0.017
 3784.00    0.23729   0.94318    0.017
 3785.00   -0.14069   0.94274    0.000
 3786.00   -0.37592   0.93728    0.000
 3787.00   -0.48321   0.92721    0.000
 3788.00   -0.32084   0.91052    0.000
 3789.00   -0.09513   0.89266    0.000
 3790.00    0.24663   0.87278    0.017
 3791.00    0.41217   0.85040    0.017
 3792.00    0.29562   0.82933    0.017
 3793.00    0.18449   0.80988    0.017
 3794.00    0.08095   0.79126    0.017
 3795.00    0.09516   0.77301    0.017
 3796.00    0.25490   0.75675    0.017
 3797.00    0.44611   0.74313    0.017
 3798.00    0.67160   0.73295    0.017
 3799.00    0.58825   0.72482    0.017
 3800.00    0.20811   0.72145    0.017
 3801.00   -0.03018   0.72553    0.000
 3802.00   -0.14827   0.73598    0.000
 3803.00   -0.02301   0.75151    0.000
 3804.00    0.28385   0.76976    0.018
 3805.00    0.53141   0.79299    0.018
 3806.00    0.74011   0.81669    0.018
 3807.00    0.73694   0.83763    0.018
 3808.00    0.61218   0.85614    0.017
 3809.00    0.63210   0.86896    0.017
 3810.00    0.72434   0.87899    0.017
 3811.00    0.81807   0.88475    0.017
 3812.00    0.91244   0.88333    0.018
 3813.00    1.22930   0.87838    0.018
 3814.00    1.62867   0.86968    0.018
 3815.00    1.44378   0.85610    0.018
 3816.00    1.07523   0.84033    0.017
 3817.00    0.83272   0.82133    0.017
 3818.00    0.62327   0.80161    0.016
 3819.00    0.59809   0.78463    0.016
 3820.00    0.61239   0.76674    0.016
 3821.00    0.62883   0.74776    0.016
 3822.00    0.64564   0.73058    0.016
 3823.00    0.60856   0.71596    0.016
 3824.00    0.56458   0.70362    0.016
 3825.00    0.08990   0.69079    0.016
 3826.00   -0.42343   0.67540    0.000
 3827.00   -0.51822   0.66219    0.000
 3828.00   -0.59052   0.65026    0.000
 3829.00   -0.23759   0.63771    0.000
 3830.00    0.12104   0.62535    0.017
 3831.00    0.24209   0.61213    0.017
 3832.00    0.37079   0.60097    0.017
 3833.00    0.66938   0.59047    0.017
 3834.00    0.94823   0.57883    0.018
 3835.00    0.98162   0.56910    0.017
 3836.00    1.00852   0.56218    0.017
 3837.00    0.98060   0.55743    0.018
 3838.00    0.94584   0.55696    0.018
 3839.00    0.86800   0.55994    0.018
 3840.00    0.74308   0.56660    0.017
 3841.00    0.38579   0.58043    0.018
 3842.00    0.10528   0.59863    0.018
 3843.00    0.13213   0.62070    0.018
 3844.00    0.29359   0.64856    0.018
 3845.00    0.90253   0.67657    0.018
 3846.00    1.25115   0.70501    0.018
 3847.00    0.86876   0.73312    0.000
 3848.00    0.59312   0.75743    0.000
 3849.00    0.57389   0.78040    0.000
 3850.00    0.60629   0.79766    0.000
 3851.00    0.74580   0.80867    0.000
 3852.00    0.81520   0.81578    0.000
 3853.00    0.75816   0.81961    0.000
 3854.00    0.77298   0.82133    0.000
 3855.00    0.90110   0.81811    0.000
 3856.00    0.77855   0.81162    0.000
 3857.00    0.30900   0.80385    0.000
 3858.00    0.03941   0.79523    0.000
 3859.00    0.01348   0.78848    0.000
 3860.00    0.34730   0.78083    0.000
 3861.00    1.06757   0.77335    0.000
 3862.00    1.43879   0.77039    0.000
 3863.00    1.47930   0.77151    0.000
 3864.00    1.29664   0.77712    0.000
 3865.00    0.92753   0.78395    0.000
 3866.00    0.87240   0.79039    0.000
 3867.00    1.04820   0.79717    0.000
 3868.00    1.04697   0.80401    0.000
 3869.00    0.93140   0.80872    0.000
 3870.00    0.74159   0.80953    0.000
 3871.00    0.50983   0.80791    0.000
 3872.00    0.37872   0.80307    0.000
 3873.00    0.29712   0.79754    0.000
 3874.00    0.32299   0.79115    0.000
 3875.00    0.39456   0.78520    0.000
 3876.00    0.56912   0.78232    0.000
 3877.00    0.78119   0.77942    0.000
 3878.00    0.77053   0.77593    0.000
 3879.00    0.69120   0.77220    0.000
 3880.00    0.55997   0.76847    0.000
 3881.00    0.41542   0.76754    0.017
 3882.00    0.53634   0.76592    0.017
 3883.00    0.71276   0.75982    0.017
 3884.00    0.92435   0.75340    0.017
 3885.00    1.14175   0.74688    0.017
 3886.00    1.01959   0.74251    0.017
 3887.00    0.85539   0.73729    0.018
 3888.00    0.92853   0.72959    0.017
 3889.00    1.02199   0.72611    0.017
 3890.00    0.70321   0.72585    0.017
 3891.00    0.36389   0.72928    0.018
 3892.00    0.03222   0.73666    0.017
 3893.00   -0.28562   0.74691    0.000
 3894.00    0.28231   0.76247    0.017
 3895.00    0.84318   0.77888    0.018
 3896.00    1.25965   0.79537    0.017
 3897.00    1.62117   0.81160    0.017
 3898.00    1.33292   0.82777    0.017
 3899.00    1.04965   0.84285    0.016
 3900.00    0.80699   0.85188    0.016
 3901.00    0.59481   0.85969    0.015
 3902.00    0.56879   0.86449    0.015
 3903.00    0.55280   0.87024    0.015
 3904.00    0.58510   0.87574    0.014
 3905.00    0.59781   0.87700    0.014
 3906.00    0.53386   0.88183    0.014
 3907.00    0.57232   0.88545    0.014
 3908.00    0.94459   0.89203    0.015
 3909.00    1.23737   0.90281    0.015
 3910.00    1.31097   0.91301    0.016
 3911.00    1.31431   0.92646    0.016
 3912.00    1.15175   0.93856    0.016
 3913.00    1.14969   0.94962    0.016
 3914.00    1.47522   0.96225    0.016
 3915.00    1.68271   0.96969    0.017
 3916.00    1.68055   0.97260    0.017
 3917.00    1.51875   0.97167    0.017
 3918.00    1.10892   0.96454    0.017
 3919.00    0.89157   0.95562    0.017
 3920.00    0.93687   0.94169    0.017
 3921.00    1.00401   0.92400    0.017
 3922.00    1.09739   0.90478    0.017
 3923.00    1.07929   0.88252    0.017
 3924.00    0.94311   0.86098    0.018
 3925.00    0.81666   0.83705    0.018
 3926.00    0.69928   0.81131    0.018
 3927.00    0.70860   0.78233    0.018
 3928.00    0.82225   0.74923    0.018
 3929.00    0.77544   0.71433    0.018
 3930.00    0.61230   0.67492    0.018
 3931.00    0.33211   0.63450    0.018
 3932.00   -0.02258   0.59330    0.000
 3933.00   -0.04813   0.55309    0.000
 3934.00    0.10950   0.51841    0.018
 3935.00    0.57447   0.48971    0.019
 3936.00    1.18822   0.47107    0.019
 3937.00    0.87229   0.46355    0.019
 3938.00    0.16766   0.46692    0.018
 3939.00    0.29999   0.48193    0.018
 3940.00    0.73171   0.50582    0.018
 3941.00    0.88412   0.53726    0.018
 3942.00    0.95211   0.57482    0.018
 3943.00    0.98844   0.61388    0.018
 3944.00    1.01681   0.65430    0.018
 3945.00    1.00965   0.69333    0.018
 3946.00    0.99525   0.72962    0.018
 3947.00    1.41230   0.76634    0.018
 3948.00    1.89843   0.80072    0.019
 3949.00    1.89978   0.83050    0.018
 3950.00    1.84326   0.85697    0.018
 3951.00    0.91549   0.88156    0.018
 3952.00   -0.08323   0.90486    0.000
 3953.00    0.23344   0.92500    0.018
 3954.00    0.61056   0.93797    0.018
 3955.00    0.64534   0.94741    0.018
 3956.00    0.67617   0.95505    0.018
 3957.00    0.72894   0.95627    0.018
 3958.00    0.77997   0.95001    0.018
 3959.00    0.79836   0.93814    0.018
 3960.00    0.82101   0.92149    0.000
 3961.00    0.89160   0.89956    0.000
 3962.00    0.97881   0.86967    0.000
 3963.00    1.19666   0.83091    0.000
 3964.00    1.33363   0.78862    0.000
 3965.00    0.99064   0.74419    0.000
 3966.00    0.67979   0.69735    0.000
 3967.00    0.51987   0.65030    0.000
 3968.00    0.40429   0.60404    0.000
 3969.00    0.45865   0.56370    0.000
 3970.00    0.56426   0.53207    0.000
 3971.00    0.83365   0.51122    0.000
 3972.00    1.00862   0.50359    0.000
 3973.00    0.92787   0.50862    0.000
 3974.00    0.88954   0.52689    0.000
 3975.00    0.94971   0.55703    0.000
 3976.00    1.00939   0.59749    0.000
 3977.00    1.06808   0.64666    0.000
 3978.00    0.96758   0.69958    0.000
 3979.00    0.58860   0.75438    0.000
 3980.00    0.53952   0.80872    0.000
 3981.00    0.99550   0.86011    0.018
 3982.00    1.29702   0.90720    0.019
 3983.00    1.39082   0.94833    0.019
 3984.00    1.44116   0.98249    0.019
 3985.00    1.44006   1.01287    0.019
 3986.00    1.37301   1.03857    0.019
 3987.00    1.23709   1.06025    0.019
 3988.00    1.44936   1.07936    0.019
 3989.00    1.98234   1.09388    0.019
 3990.00    2.08210   1.10981    0.019
 3991.00    1.83014   1.12129    0.019
 3992.00    1.47535   1.13113    0.019
 3993.00    1.04709   1.14142    0.018
 3994.00    0.81697   1.14821    0.018
 3995.00    0.71109   1.15551    0.018
 3996.00    0.51102   1.15850    0.018
 3997.00    0.25935   1.16167    0.018
 3998.00    0.49934   1.16398    0.018
 3999.00    0.97353   1.16520    0.019
 4000.00    1.10060   1.16749    0.018
 4001.00    1.08500   1.17084    0.018
 4002.00    1.22921   1.17465    0.018
 4003.00    1.42955   1.17691    0.018
 4004.00    1.53154   1.17994    0.018
 4005.00    1.60439   1.18291    0.018
 4006.00    1.78736   1.18397    0.018
 4007.00    1.99739   1.18291    0.018
 4008.00    1.68096   1.18337    0.018
 4009.00    1.25986   1.18646    0.018
 4010.00    1.02519   1.18985    0.018
 4011.00    0.81949   1.19463    0.018
 4012.00    0.85318   1.20013    0.018
 4013.00    0.91440   1.20810    0.018
 4014.00    0.93523   1.21585    0.018
 4015.00    0.95294   1.22499    0.017
 4016.00    1.03079   1.23426    0.017
 4017.00    1.11118   1.24227    0.018
 4018.00    1.17312   1.24957    0.017
 4019.00    1.23528   1.25315    0.017
 4020.00    1.31441   1.25712    0.017
 4021.00    1.37586   1.26060    0.017
 4022.00    1.12558   1.26196    0.017
 4023.00    0.88392   1.26296    0.017
 4024.00    0.73493   1.26247    0.017
 4025.00    0.61992   1.26217    0.017
 4026.00    0.76277   1.25939    0.017
 4027.00    0.86137   1.25609    0.017
 4028.00    0.70467   1.25334    0.017
 4029.00    0.63792   1.24843    0.017
 4030.00    0.98344   1.24210    0.017
 4031.00    1.25422   1.23411    0.017
 4032.00    1.24465   1.22349    0.017
 4033.00    1.18147   1.21314    0.018
 4034.00    0.95022   1.20518    0.017
 4035.00    0.79581   1.19903    0.017
 4036.00    0.84584   1.19733    0.017
 4037.00    1.00000   1.19880    0.017
 4038.00    1.39192   1.20457    0.018
 4039.00    1.47669   1.21290    0.018
 4040.00    0.95425   1.22103    0.018
 4041.00    0.70781   1.22924    0.018
 4042.00    0.93684   1.23370    0.018
 4043.00    1.38797   1.23443    0.018
 4044.00    2.17414   1.23312    0.019
 4045.00    2.47191   1.22706    0.019
 4046.00    2.12227   1.21766    0.019
 4047.00    1.95602   1.20609    0.019
 4048.00    2.00388   1.19608    0.019
 4049.00    2.13519   1.19256    0.019
 4050.00    2.35240   1.19186    0.019
 4051.00    2.13779   1.19578    0.019
 4052.00    1.53107   1.20234    0.019
 4053.00    1.02011   1.20930    0.019
 4054.00    0.58580   1.21566    0.018
 4055.00    0.61027   1.22167    0.018
 4056.00    0.95779   1.22703    0.018
 4057.00    0.93376   1.22807    0.019
 4058.00    0.68020   1.22647    0.019
 4059.00    0.86822   1.22096    0.018
 4060.00    1.29451   1.21431    0.018
 4061.00    1.56913   1.20678    0.018
 4062.00    1.77268   1.19935    0.018
 4063.00    1.89351   1.19242    0.018
 4064.00    1.98093   1.18444    0.018
 4065.00    2.07055   1.17701    0.018
 4066.00    2.16092   1.17102    0.018
 4067.00    1.70873   1.16961    0.018
 4068.00    1.09898   1.16933    0.017
 4069.00    0.94765   1.17172    0.018
 4070.00    0.90642   1.17576    0.018
 4071.00    1.02561   1.18030    0.018
 4072.00    1.17588   1.18399    0.018
 4073.00    1.31167   1.18559    0.017
 4074.00    1.44527   1.18792    0.017
 4075.00    1.39757   1.19007    0.017
 4076.00    1.32983   1.18996    0.017
 4077.00    1.31362   1.18927    0.017
 4078.00    1.30119   1.18827    0.018
 4079.00    1.18891   1.18638    0.017
 4080.00    1.07280   1.18745    0.017
 4081.00    1.21994   1.19174    0.017
 4082.00    1.36976   1.20076    0.017
 4083.00    1.56500   1.21274    0.017
 4084.00    1.72704   1.22501    0.017
 4085.00    1.34196   1.23852    0.017
 4086.00    0.98592   1.25250    0.017
 4087.00    0.92867   1.26702    0.017
 4088.00    0.88457   1.28224    0.017
 4089.00    0.93695   1.29662    0.017
 4090.00    0.97360   1.30889    0.017
 4091.00    0.92197   1.31783    0.017
 4092.00    0.91222   1.32187    0.000
 4093.00    1.08984   1.32265    0.000
 4094.00    1.22307   1.31753    0.000
 4095.00    1.19328   1.30860    0.000
 4096.00    1.23231   1.29511    0.000
 4097.00    1.48299   1.27546    0.000
 4098.00    1.60979   1.25290    0.000
 4099.00    1.41278   1.22700    0.000
 4100.00    1.11276   1.20072    0.000
 4101.00    0.58140   1.17488    0.000
 4102.00    0.33769   1.15126    0.000
 4103.00    0.65373   1.13073    0.000
 4104.00    0.98683   1.11613    0.000
 4105.00    1.34890   1.10884    0.000
 4106.00    1.50312   1.10842    0.000
 4107.00    1.34836   1.11525    0.000
 4108.00    1.15574   1.12726    0.000
 4109.00    0.91363   1.14255    0.000
 4110.00    0.99114   1.15985    0.000
 4111.00    1.43655   1.17772    0.000
 4112.00    1.45728   1.19542    0.000
 4113.00    1.04695   1.21173    0.018
 4114.00    0.98792   1.22639    0.018
 4115.00    1.24342   1.23964    0.017
 4116.00    1.42681   1.25034    0.018
 4117.00    1.55330   1.25888    0.018
 4118.00    1.33932   1.26553    0.018
 4119.00    0.88906   1.27026    0.018
 4120.00    0.59063   1.27278    0.018
 4121.00    0.38459   1.27389    0.017
 4122.00    0.57145   1.27488    0.017
 4123.00    0.96705   1.27449    0.018
 4124.00    1.17327   1.27434    0.018
 4125.00    1.29216   1.27359    0.018
 4126.00    1.66359   1.27245    0.018
 4127.00    2.13530   1.27079    0.018
 4128.00    1.84405   1.26787    0.018
 4129.00    1.29458   1.26397    0.018
 4130.00    1.32646   1.25829    0.017
 4131.00    1.52374   1.25234    0.017
 4132.00    1.30026   1.24516    0.017
 4133.00    0.97800   1.23899    0.017
 4134.00    1.46487   1.23197    0.018
 4135.00    2.10447   1.22870    0.018
 4136.00    1.94990   1.22618    0.018
 4137.00    1.67936   1.22700    0.017
 4138.00    1.17774   1.23064    0.017
 4139.00    0.65156   1.23351    0.017
 4140.00    0.98331   1.23943    0.017
 4141.00    1.37442   1.24148    0.017
 4142.00    1.15260   1.24332    0.017
 4143.00    0.90964   1.24198    0.017
 4144.00    0.83504   1.23777    0.017
 4145.00    0.76834   1.23213    0.017
 4146.00    0.95150   1.22543    0.017
 4147.00    1.12019   1.22073    0.017
 4148.00    1.06522   1.21674    0.017
 4149.00    1.02155   1.21531    0.016
 4150.00    1.08924   1.21525    0.016
 4151.00    1.12642   1.21569    0.016
 4152.00    0.94701   1.21682    0.017
 4153.00    0.84593   1.21904    0.017
 4154.00    1.17236   1.22034    0.017
 4155.00    1.42330   1.22366    0.017
 4156.00    1.34424   1.22620    0.016
 4157.00    1.19708   1.23024    0.016
 4158.00    0.80497   1.23429    0.016
 4159.00    0.49520   1.23965    0.016
 4160.00    0.43387   1.24726    0.016
 4161.00    0.39841   1.25490    0.016
 4162.00    0.42939   1.26444    0.016
 4163.00    0.58082   1.27255    0.016
 4164.00    0.99833   1.28061    0.016
 4165.00    1.29684   1.28622    0.016
 4166.00    1.36743   1.28924    0.016
 4167.00    1.40843   1.28991    0.016
 4168.00    1.40000   1.28668    0.016
 4169.00    1.25733   1.28092    0.016
 4170.00    0.91803   1.27276    0.016
 4171.00    0.74834   1.26295    0.016
 4172.00    0.79708   1.25128    0.016
 4173.00    0.93554   1.23989    0.016
 4174.00    1.17582   1.22761    0.017
 4175.00    1.30800   1.21629    0.017
 4176.00    1.33199   1.20681    0.017
 4177.00    1.55684   1.19983    0.017
 4178.00    1.95899   1.19676    0.017
 4179.00    1.79755   1.19559    0.017
 4180.00    1.19777   1.19727    0.016
 4181.00    1.09566   1.20089    0.016
 4182.00    1.33390   1.20532    0.017
 4183.00    1.59081   1.21136    0.017
 4184.00    1.85891   1.21676    0.017
 4185.00    1.97075   1.22279    0.017
 4186.00    2.00087   1.22699    0.017
 4187.00    1.90182   1.23200    0.017
 4188.00    1.74420   1.23565    0.017
 4189.00    1.48128   1.23789    0.017
 4190.00    1.17727   1.24073    0.017
 4191.00    0.94649   1.24160    0.017
 4192.00    0.74002   1.24393    0.016
 4193.00    0.80667   1.24513    0.017
 4194.00    0.94945   1.24594    0.017
 4195.00    1.00318   1.24510    0.017
 4196.00    1.03650   1.24244    0.017
 4197.00    1.04530   1.23874    0.017
 4198.00    1.04959   1.23201    0.017
 4199.00    0.96345   1.22411    0.017
 4200.00    0.86453   1.21530    0.017
 4201.00    0.90701   1.20791    0.017
 4202.00    0.96391   1.20180    0.017
 4203.00    1.01061   1.19794    0.017
 4204.00    1.05665   1.19791    0.016
 4205.00    0.99627   1.20099    0.016
 4206.00    0.93308   1.20694    0.016
 4207.00    1.17367   1.21661    0.017
 4208.00    1.41707   1.22824    0.017
 4209.00    1.74282   1.24019    0.017
 4210.00    2.04282   1.25309    0.017
 4211.00    1.96778   1.26422    0.017
 4212.00    1.87274   1.27392    0.017
 4213.00    1.58849   1.28109    0.017
 4214.00    1.34282   1.28595    0.017
 4215.00    1.36233   1.28866    0.017
 4216.00    1.38854   1.29049    0.017
 4217.00    1.45042   1.28996    0.017
 4218.00    1.51610   1.28864    0.016
 4219.00    1.59804   1.28680    0.016
 4220.00    1.66032   1.28371    0.016
 4221.00    1.65331   1.28123    0.016
 4222.00    1.50641   1.27526    0.016
 4223.00    0.94524   1.26646    0.016
 4224.00    0.54727   1.25343    0.016
 4225.00    0.56118   1.23781    0.016
 4226.00    0.76869   1.21857    0.016
 4227.00    1.39691   1.19839    0.016
 4228.00    1.67191   1.17941    0.016
 4229.00    1.28081   1.16343    0.015
 4230.00    1.15761   1.15340    0.015
 4231.00    1.47548   1.14933    0.015
 4232.00    1.67684   1.15406    0.015
 4233.00    1.71002   1.16345    0.015
 4234.00    1.71085   1.17525    0.015
 4235.00    1.67063   1.18895    0.015
 4236.00    1.60702   1.20262    0.015
 4237.00    1.51723   1.21499    0.015
 4238.00    1.41632   1.22671    0.015
 4239.00    1.30446   1.23815    0.015
 4240.00    1.41626   1.24668    0.015
 4241.00    1.72271   1.25700    0.014
 4242.00    1.66385   1.26654    0.015
 4243.00    1.32492   1.27593    0.015
 4244.00    1.18465   1.28451    0.015
 4245.00    1.17823   1.29285    0.015
 4246.00    1.34543   1.29922    0.015
 4247.00    1.61513   1.30194    0.015
 4248.00    1.59346   1.30353    0.015
 4249.00    1.42177   1.30100    0.015
 4250.00    1.29183   1.29500    0.016
 4251.00    1.18052   1.28664    0.016
 4252.00    1.17635   1.27684    0.016
 4253.00    1.21325   1.26792    0.015
 4254.00    1.06014   1.25871    0.015
 4255.00    0.84509   1.25159    0.015
 4256.00    0.79410   1.24747    0.015
 4257.00    0.78790   1.24431    0.015
 4258.00    0.87067   1.24185    0.015
 4259.00    0.97338   1.24247    0.015
 4260.00    0.93375   1.24482    0.015
 4261.00    0.86867   1.25019    0.015
 4262.00    0.90592   1.25387    0.015
 4263.00    0.95717   1.25909    0.015
 4264.00    1.05661   1.26500    0.015
 4265.00    1.16074   1.27155    0.016
 4266.00    1.38719   1.27948    0.016
 4267.00    1.62112   1.28476    0.016
 4268.00    1.45526   1.28711    0.015
 4269.00    1.27904   1.28451    0.015
 4270.00    1.18619   1.27928    0.015
 4271.00    1.09380   1.26798    0.016
 4272.00    1.01338   1.25415    0.032
 4273.00    0.92485   1.23891   -1.000
 4274.00    0.72466   1.22356   -1.000
 4275.00    0.52437   1.20955   -1.000
 4276.00    0.32311   1.19965   -1.000
 4277.00    0.15423   1.19713   -1.000
 4278.00    0.20101   1.19743   -1.000
 4279.00    0.31458   1.20217   -1.000
 4280.00    0.77395   1.21142   -1.000
 4281.00    1.14301   1.22214   -1.000
 4282.00    1.13511   1.23188   -2.000
 4283.00    0.96261   1.23997   -2.000
 4284.00    0.22194   1.24354   -2.000
 4285.00   -0.19502   1.24571   -2.000
 4286.00    0.32898   1.24444   -2.000
 4287.00    0.85329   1.23951   -2.000
 4288.00    1.37838   1.23298   -2.000
 4289.00    1.75472   1.22259   -2.000
 4290.00    1.81305   1.21180   -2.000
 4291.00    1.71036   1.20113   -2.000
 4292.00    1.30868   1.19072   -2.000
 4293.00    1.01817   1.18002   -2.000
 4294.00    0.90797   1.16998   -2.000
 4295.00    0.78914   1.16219   -2.000
 4296.00    0.65803   1.15362   -2.000
 4297.00    0.84398   1.14528   -2.000
 4298.00    1.42675   1.13281    0.017
 4299.00    1.51878   1.11888    0.016
 4300.00    1.06949   1.10286    0.016
 4301.00    0.88749   1.08364    0.016
 4302.00    0.96557   1.06399    0.016
 4303.00    1.11779   1.04286    0.016
 4304.00    1.33363   1.02324    0.016
 4305.00    1.20507   1.00659    0.016
 4306.00    0.81624   0.99235    0.016
 4307.00    0.89568   0.98131    0.016
 4308.00    1.28610   0.97516    0.016
 4309.00    1.43941   0.97288    0.016
 4310.00    1.45482   0.97598    0.016
 4311.00    1.57447   0.98503    0.016
 4312.00    1.74696   0.99969    0.016
 4313.00    1.55008   1.02274    0.016
 4314.00    1.19111   1.05236    0.016
 4315.00    1.02219   1.08866    0.016
 4316.00    0.92485   1.12964    0.016
 4317.00    1.31110   1.17349    0.016
 4318.00    1.85194   1.21765    0.016
 4319.00    1.79741   1.25895    0.016
 4320.00    1.58375   1.29691    0.016
 4321.00    1.41809   1.32575    0.016
 4322.00    1.26293   1.34663    0.016
 4323.00    1.38648   1.35679    0.016
 4324.00    1.55851   1.35994    0.016
 4325.00    1.33168   1.35436    0.016
 4326.00    1.05209   1.34702    0.016
 4327.00    1.13756   1.33607    0.016
 4328.00    1.25715   1.32760    0.016
 4329.00    1.48431   1.32226    0.016
 4330.00    1.71762   1.32180    0.000
 4331.00    1.48657   1.32809    0.000
 4332.00    1.24355   1.33750    0.000
 4333.00    0.86561   1.34953    0.000
 4334.00    0.50775   1.35982    0.000
 4335.00    0.63213   1.36726    0.000
 4336.00    0.78767   1.37022    0.000
 4337.00    1.34901   1.36684    0.000
 4338.00    1.82614   1.35823    0.000
 4339.00    1.56765   1.34378    0.000
 4340.00    1.32931   1.32610    0.000
 4341.00    1.22112   1.30580    0.000
 4342.00    1.15917   1.28723    0.000
 4343.00    1.33046   1.27223    0.000
 4344.00    1.45794   1.26235    0.000
 4345.00    1.40659   1.26050    0.000
 4346.00    1.33335   1.26530    0.000
 4347.00    1.18610   1.27609    0.000
 4348.00    1.12464   1.29062    0.000
 4349.00    1.30798   1.30771    0.000
 4350.00    1.43471   1.32352    0.000
 4351.00    1.42339   1.33841    0.016
 4352.00    1.50718   1.35047    0.016
 4353.00    1.79100   1.35975    0.015
 4354.00    1.92129   1.36631    0.015
 4355.00    1.77089   1.37074    0.015
 4356.00    1.52833   1.37447    0.015
 4357.00    1.13851   1.37849    0.015
 4358.00    1.12201   1.38436    0.015
 4359.00    1.62891   1.39220    0.015
 4360.00    1.94318   1.40243    0.016
 4361.00    2.01979   1.41286    0.015
 4362.00    1.83661   1.42468    0.015
 4363.00    1.37089   1.43587    0.015
 4364.00    1.21919   1.44696    0.015
 4365.00    1.36873   1.45597    0.015
 4366.00    1.44837   1.46387    0.015
 4367.00    1.46887   1.46906    0.015
 4368.00    1.59758   1.47135    0.015
 4369.00    1.80691   1.47025    0.015
 4370.00    1.83567   1.46604    0.015
 4371.00    1.74626   1.45958    0.015
 4372.00    1.62700   1.45013    0.015
 4373.00    1.49063   1.43947    0.015
 4374.00    1.51532   1.42772    0.015
 4375.00    1.62035   1.41674    0.015
 4376.00    1.68098   1.40549    0.015
 4377.00    1.72244   1.39475    0.015
 4378.00    1.60896   1.38452    0.015
 4379.00    1.43813   1.37441    0.014
 4380.00    1.39097   1.36371    0.015
 4381.00    1.38259   1.35290    0.015
 4382.00    1.34431   1.34127    0.015
 4383.00    1.29820   1.32899    0.014
 4384.00    1.36753   1.31524    0.015
 4385.00    1.46153   1.30099    0.015
 4386.00    1.43272   1.28791    0.015
 4387.00    1.38314   1.27695    0.014
 4388.00    1.34738   1.27013    0.014
 4389.00    1.31338   1.26630    0.014
 4390.00    1.28330   1.26892    0.014
 4391.00    1.25356   1.27707    0.014
 4392.00    1.25382   1.28968    0.014
 4393.00    1.25568   1.30402    0.015
 4394.00    1.25054   1.31923    0.015
 4395.00    1.24762   1.33523    0.015
 4396.00    1.43525   1.35046    0.014
 4397.00    1.61820   1.36457    0.014
 4398.00    1.69798   1.37704    0.014
 4399.00    1.78116   1.38676    0.015
 4400.00    1.90614   1.39286    0.014
 4401.00    2.00379   1.39593    0.014
 4402.00    1.87156   1.39631    0.014
 4403.00    1.74992   1.39431    0.014
 4404.00    1.69457   1.38901    0.014
 4405.00    1.67802   1.38198    0.015
 4406.00    1.85229   1.37464    0.015
 4407.00    1.94294   1.36797    0.014
 4408.00    1.69985   1.36484    0.014
 4409.00    1.50738   1.36339    0.014
 4410.00    1.48281   1.36484    0.014
 4411.00    1.49249   1.36964    0.014
 4412.00    1.59816   1.37900    0.014
 4413.00    1.60161   1.38977    0.014
 4414.00    1.36007   1.40133    0.014
 4415.00    1.25305   1.41323    0.014
 4416.00    1.42443   1.42466    0.014
 4417.00    1.68709   1.43443    0.014
 4418.00    2.11407   1.44264    0.014
 4419.00    2.27388   1.44935    0.015
 4420.00    2.01313   1.45448    0.014
 4421.00    1.73707   1.45838    0.014
 4422.00    1.43985   1.46252    0.014
 4423.00    1.31419   1.46609    0.014
 4424.00    1.39720   1.46892    0.014
 4425.00    1.48959   1.47135    0.014
 4426.00    1.59201   1.47229    0.014
 4427.00    1.66718   1.47211    0.014
 4428.00    1.71658   1.47095    0.014
 4429.00    1.60105   1.46891    0.014
 4430.00    1.34798   1.46687    0.014
 4431.00    1.28276   1.46407    0.014
 4432.00    1.35544   1.46142    0.014
 4433.00    1.37367   1.45862    0.014
 4434.00    1.35679   1.45605    0.014
 4435.00    1.32969   1.45428    0.014
 4436.00    1.29682   1.45283    0.014
 4437.00    1.32039   1.45294    0.014
 4438.00    1.37165   1.45420    0.015
 4439.00    1.47420   1.45667    0.015
 4440.00    1.59850   1.46061    0.014
 4441.00    1.57341   1.46538    0.015
 4442.00    1.49403   1.47068    0.015
 4443.00    1.40326   1.47706    0.014
 4444.00    1.30898   1.48312    0.014
 4445.00    1.26245   1.48982    0.014
 4446.00    1.22815   1.49536    0.014
 4447.00    1.36284   1.50066    0.014
 4448.00    1.53276   1.50496    0.014
 4449.00    1.91352   1.50848    0.014
 4450.00    2.32893   1.51081    0.014
 4451.00    2.13868   1.51163    0.014
 4452.00    1.87377   1.51027    0.015
 4453.00    1.61079   1.50624    0.015
 4454.00    1.34798   1.49921    0.014
 4455.00    1.57302   1.48898    0.014
 4456.00    1.82214   1.47677    0.014
 4457.00    1.64959   1.46327    0.014
 4458.00    1.47309   1.44935    0.014
 4459.00    1.47029   1.43568    0.014
 4460.00    1.46820   1.42481    0.014
 4461.00    1.48029   1.41528    0.000
 4462.00    1.48765   1.40966    0.000
 4463.00    1.43949   1.40672    0.000
 4464.00    1.40858   1.40831    0.000
 4465.00    1.51757   1.41289    0.000
 4466.00    1.61996   1.41998    0.000
 4467.00    1.68215   1.42924    0.000
 4468.00    1.74301   1.44009    0.000
 4469.00    1.79753   1.45221    0.000
 4470.00    1.86369   1.46482    0.000
 4471.00    1.97530   1.47840    0.000
 4472.00    1.97133   1.49242    0.000
 4473.00    1.59152   1.50588    0.000
 4474.00    1.31782   1.52011    0.000
 4475.00    1.33606   1.53331    0.000
 4476.00    1.38954   1.54661    0.000
 4477.00    1.52608   1.55804    0.000
 4478.00    1.54351   1.56836    0.000
 4479.00    1.31834   1.57634    0.000
 4480.00    1.28217   1.58197    0.000
 4481.00    1.58106   1.58533    0.000
 4482.00    1.83547   1.58632    0.014
 4483.00    2.02092   1.58591    0.014
 4484.00    2.04200   1.58421    0.014
 4485.00    1.83921   1.58272    0.014
 4486.00    1.83390   1.58088    0.014
 4487.00    2.06539   1.57992    0.014
 4488.00    2.05936   1.57890    0.014
 4489.00    1.80222   1.57835    0.014
 4490.00    1.71379   1.57748    0.014
 4491.00    1.78270   1.57650    0.014
 4492.00    1.85764   1.57492    0.014
 4493.00    1.93754   1.57291    0.014
 4494.00    1.73151   1.57049    0.014
 4495.00    1.31859   1.56825    0.014
 4496.00    1.31616   1.56639    0.014
 4497.00    1.57449   1.56619    0.014
 4498.00    1.69328   1.56733    0.014
 4499.00    1.73457   1.57108    0.014
 4500.00    1.77314   1.57695    0.014
 4501.00    1.81040   1.58557    0.014
 4502.00    1.76130   1.59614    0.014
 4503.00    1.67616   1.60821    0.014
 4504.00    1.71278   1.62138    0.014
 4505.00    1.79285   1.63479    0.014
 4506.00    1.66701   1.64829    0.014
 4507.00    1.47907   1.66041    0.014
 4508.00    1.58032   1.67110    0.014
 4509.00    1.75401   1.67928    0.014
 4510.00    1.85031   1.68494    0.014
 4511.00    1.93088   1.68777    0.014
 4512.00    1.87913   1.68799    0.014
 4513.00    1.80628   1.68595    0.014
 4514.00    1.92484   1.68176    0.014
 4515.00    2.06615   1.67596    0.014
 4516.00    1.81727   1.66913    0.014
 4517.00    1.53683   1.66164    0.014
 4518.00    1.47555   1.65405    0.014
 4519.00    1.42424   1.64655    0.014
 4520.00    1.71701   1.63910    0.014
 4521.00    2.00924   1.63179    0.014
 4522.00    2.05757   1.62385    0.014
 4523.00    2.09133   1.61547    0.014
 4524.00    1.85174   1.60553    0.014
 4525.00    1.61931   1.59445    0.014
 4526.00    1.46701   1.58149    0.014
 4527.00    1.33863   1.56717    0.014
 4528.00    1.39747   1.55173    0.013
 4529.00    1.41177   1.53565    0.013
 4530.00    1.16265   1.52028    0.013
 4531.00    1.01560   1.50575    0.013
 4532.00    1.34628   1.49421    0.013
 4533.00    1.63507   1.48468    0.013
 4534.00    1.76372   1.47972    0.014
 4535.00    1.88238   1.47742    0.014
 4536.00    1.96918   1.48011    0.014
 4537.00    2.01768   1.48532    0.014
 4538.00    1.96269   1.49437    0.014
 4539.00    1.88292   1.50511    0.014
 4540.00    1.74573   1.51768    0.014
 4541.00    1.61583   1.53057    0.013
 4542.00    1.50054   1.54309    0.014
 4543.00    1.38926   1.55446    0.014
 4544.00    1.28498   1.56379    0.013
 4545.00    1.34584   1.57097    0.013
 4546.00    1.65905   1.57554    0.013
 4547.00    1.87206   1.57777    0.013
 4548.00    1.95054   1.57795    0.014
 4549.00    1.83115   1.57636    0.014
 4550.00    1.47786   1.57395    0.000
 4551.00    1.46014   1.57086    0.000
 4552.00    1.79219   1.56819    0.000
 4553.00    2.02976   1.56604    0.000
 4554.00    2.18048   1.56525    0.000
 4555.00    2.15715   1.56622    0.000
 4556.00    1.99274   1.56886    0.000
 4557.00    1.91684   1.57390    0.000
 4558.00    1.90404   1.58023    0.000
 4559.00    1.97061   1.58871    0.000
 4560.00    2.08684   1.59754    0.000
 4561.00    1.94717   1.60745    0.000
 4562.00    1.66752   1.61649    0.000
 4563.00    1.57164   1.62528    0.000
 4564.00    1.56312   1.63233    0.000
 4565.00    1.50449   1.63829    0.000
 4566.00    1.42532   1.64247    0.000
 4567.00    1.69677   1.64564    0.000
 4568.00    2.09109   1.64761    0.000
 4569.00    1.87963   1.64909    0.000
 4570.00    1.48913   1.65012    0.000
 4571.00    1.53543   1.65110    0.000
 4572.00    1.68872   1.65195    0.000
 4573.00    1.55137   1.65270    0.000
 4574.00    1.35642   1.65321    0.000
 4575.00    1.35700   1.65317    0.000
 4576.00    1.38784   1.65255    0.000
 4577.00    1.48008   1.65086    0.000
 4578.00    1.57934   1.64830    0.000
 4579.00    1.73130   1.64442    0.000
 4580.00    1.88732   1.63974    0.000
 4581.00    1.80135   1.63398    0.000
 4582.00    1.70531   1.62802    0.000
 4583.00    1.76721   1.62185    0.000
 4584.00    1.82674   1.61638    0.000
 4585.00    1.72599   1.61179    0.000
 4586.00    1.62500   1.60861    0.000
 4587.00    1.51983   1.60707    0.000
 4588.00    1.43793   1.60685    0.000
 4589.00    1.60504   1.60827    0.000
 4590.00    1.75190   1.61015    0.000
 4591.00    1.74580   1.61293    0.000
 4592.00    1.76131   1.61503    0.000
 4593.00    1.90110   1.61718    0.000
 4594.00    2.00290   1.61788    0.000
 4595.00    1.93112   1.61823    0.000
 4596.00    1.85334   1.61716    0.000
 4597.00    1.75309   1.61596    0.000
 4598.00    1.63363   1.61395    0.000
 4599.00    1.45412   1.61243    0.000
 4600.00    1.36482   1.61088    0.000
 4601.00    1.51500   1.61037    0.000
 4602.00    1.63275   1.61049    0.000
 4603.00    1.67659   1.61192    0.000
 4604.00    1.67730   1.61451    0.000
 4605.00    1.59289   1.61838    0.000
 4606.00    1.56851   1.62373    0.000
 4607.00    1.64734   1.63006    0.000
 4608.00    1.67681   1.63793    0.000
 4609.00    1.63195   1.64617    0.000
 4610.00    1.55799   1.65550    0.000
 4611.00    1.44551   1.66439    0.000
 4612.00    1.46101   1.67354    0.000
 4613.00    1.62566   1.68153    0.000
 4614.00    1.83398   1.68894    0.000
 4615.00    2.08719   1.69493    0.000
 4616.00    2.06641   1.69987    0.000
 4617.00    1.79725   1.70371    0.000
 4618.00    1.68121   1.70649    0.000
 4619.00    1.68751   1.70880    0.000
 4620.00    1.66965   1.71025    0.000
 4621.00    1.63481   1.71173    0.000
 4622.00    1.72876   1.71253    0.000
 4623.00    1.90210   1.71353    0.000
 4624.00    1.84484   1.71385    0.000
 4625.00    1.66338   1.71422    0.000
 4626.00    1.65349   1.71388    0.000
 4627.00    1.72384   1.71332    0.000
 4628.00    1.86490   1.71204    0.000
 4629.00    2.03448   1.71032    0.000
 4630.00    1.97413   1.70792    0.000
 4631.00    1.83469   1.70494    0.000
 4632.00    1.67563   1.70133    0.000
 4633.00    1.51088   1.69705    0.000
 4634.00    1.62731   1.69212    0.000
 4635.00    1.81110   1.68650    0.000
 4636.00    1.62765   1.68030    0.000
 4637.00    1.37328   1.67356    0.000
 4638.00    1.39600   1.66640    0.000
 4639.00    1.46030   1.65910    0.000
 4640.00    1.50552   1.65165    0.000
 4641.00    1.54864   1.64451    0.000
 4642.00    1.68671   1.63743    0.000
 4643.00    1.83168   1.63095    0.000
 4644.00    1.80866   1.62455    0.000
 4645.00    1.77929   1.61884    0.000
 4646.00    1.90510   1.61322    0.000
 4647.00    2.01820   1.60837    0.000
 4648.00    1.63131   1.60381    0.000
 4649.00    1.29220   1.60034    0.000
 4650.00    1.73426   1.59766    0.000
 4651.00    2.10225   1.59651    0.000
 4652.00    1.71218   1.59660    0.000
 4653.00    1.36560   1.59849    0.000
 4654.00    1.33681   1.60175    0.000
 4655.00    1.35045   1.60658    0.000
 4656.00    1.60130   1.61248    0.000
 4657.00    1.79287   1.61932    0.000
 4658.00    1.71994   1.62663    0.000
 4659.00    1.65079   1.63389    0.000
 4660.00    1.59551   1.64075    0.000
 4661.00    1.56493   1.64633    0.000
 4662.00    1.61013   1.65042    0.000
 4663.00    1.66426   1.65208    0.000
 4664.00    1.74171   1.65134    0.000
 4665.00    1.79445   1.64769    0.000
 4666.00    1.79181   1.64161    0.000
 4667.00    1.84209   1.63335    0.000
 4668.00    1.99514   1.62383    0.000
 4669.00    2.09119   1.61401    0.000
 4670.00    2.09071   1.60491    0.000
 4671.00    1.99164   1.59752    0.000
 4672.00    1.74629   1.59250    0.000
 4673.00    1.60412   1.59027    0.000
 4674.00    1.59650   1.59074    0.000
 4675.00    1.61546   1.59359    0.000
 4676.00    1.66494   1.59815    0.000
 4677.00    1.73929   1.60362    0.000
 4678.00    1.83883   1.60926    0.000
 4679.00    1.78530   1.61441    0.000
 4680.00    1.59496   1.61857    0.000
 4681.00    1.47032   1.62166    0.000
 4682.00    1.39742   1.62353    0.000
 4683.00    1.51455   1.62462    0.000
 4684.00    1.76330   1.62505    0.000
 4685.00    1.93650   1.62536    0.000
 4686.00    2.06381   1.62571    0.000
 4687.00    2.04278   1.62644    0.000
 4688.00    1.94311   1.62760    0.000
 4689.00    1.89754   1.62921    0.000
 4690.00    1.87687   1.63125    0.000
 4691.00    1.84740   1.63356    0.000
 4692.00    1.81444   1.63602    0.000
 4693.00    1.79117   1.63847    0.000
 4694.00    1.77116   1.64071    0.000
 4695.00    1.81478   1.64257    0.000
 4696.00    1.87647   1.64378    0.000
 4697.00    1.85460   1.64413    0.000
 4698.00    1.81317   1.64345    0.000
 4699.00    1.70721   1.64144    0.000
 4700.00    1.58911   1.63832    0.000
 4701.00    1.59702   1.63372    0.000
 4702.00    1.62326   1.62844    0.000
 4703.00    1.47583   1.62209    0.000
 4704.00    1.31003   1.61591    0.000
 4705.00    1.44687   1.60953    0.000
 4706.00    1.60450   1.60418    0.000
 4707.00    1.74136   1.59958    0.000
 4708.00    1.87751   1.59649    0.000
 4709.00    1.96330   1.59487    0.000
 4710.00    2.04209   1.59483    0.000
 4711.00    1.89543   1.59657    0.000
 4712.00    1.75016   1.59969    0.000
 4713.00    1.62613   1.60455    0.000
 4714.00    1.49817   1.61050    0.000
 4715.00    1.33172   1.61792    0.000
 4716.00    1.20644   1.62614    0.000
 4717.00    1.37213   1.63538    0.000
 4718.00    1.51110   1.64502    0.000
 4719.00    1.50467   1.65504    0.000
 4720.00    1.50201   1.66484    0.000
 4721.00    1.51573   1.67417    0.000
 4722.00    1.53619   1.68244    0.000
 4723.00    1.58085   1.68925    0.000
 4724.00    1.63143   1.69416    0.000
 4725.00    1.69983   1.69678    0.000
 4726.00    1.74372   1.69706    0.000
 4727.00    1.72477   1.69480    0.000
 4728.00    1.71654   1.69044    0.000
 4729.00    1.73193   1.68419    0.000
 4730.00    1.77182   1.67676    0.000
 4731.00    1.85854   1.66885    0.000
 4732.00    1.88478   1.66105    0.000
 4733.00    1.81010   1.65430    0.000
 4734.00    1.75675   1.64878    0.000
 4735.00    1.73455   1.64529    0.000
 4736.00    1.73553   1.64356    0.000
 4737.00    1.76630   1.64390    0.000
 4738.00    1.77734   1.64589    0.000
 4739.00    1.76601   1.64932    0.000
 4740.00    1.79760   1.65392    0.000
 4741.00    1.87206   1.65910    0.000
 4742.00    1.91078   1.66493    0.000
 4743.00    1.91802   1.67072    0.000
 4744.00    1.84606   1.67674    0.000
 4745.00    1.71263   1.68240    0.000
 4746.00    1.73327   1.68791    0.000
 4747.00    1.85910   1.69288    0.000
 4748.00    1.86741   1.69729    0.000
 4749.00    1.80543   1.70101    0.000
 4750.00    1.84730   1.70366    0.000
 4751.00    1.94337   1.70545    0.000
 4752.00    2.06690   1.70577    0.000
 4753.00    2.20286   1.70513    0.000
 4754.00    2.15037   1.70292    0.000
 4755.00    2.02450   1.69980    0.000
 4756.00    1.94204   1.69539    0.000
 4757.00    1.87396   1.69025    0.000
 4758.00    1.91948   1.68432    0.000
 4759.00    1.99657   1.67786    0.000
 4760.00    1.83176   1.67107    0.000
 4761.00    1.61161   1.66392    0.012
 4762.00    1.58685   1.65674    0.012
 4763.00    1.59788   1.64949    0.012
 4764.00    1.67713   1.64248    0.012
 4765.00    1.76600   1.63591    0.012
 4766.00    1.72192   1.63007    0.012
 4767.00    1.66436   1.62538    0.012
 4768.00    1.83053   1.62208    0.012
 4769.00    2.01117   1.62057    0.012
 4770.00    2.02026   1.62096    0.012
 4771.00    2.02411   1.62327    0.012
 4772.00    2.00224   1.62747    0.012
 4773.00    1.98320   1.63316    0.012
 4774.00    2.04622   1.64006    0.012
 4775.00    2.09412   1.64763    0.012
 4776.00    1.92341   1.65529    0.012
 4777.00    1.77291   1.66265    0.011
 4778.00    1.81253   1.66900    0.011
 4779.00    1.80757   1.67426    0.011
 4780.00    1.49729   1.67777    0.011
 4781.00    1.27317   1.67974    0.011
 4782.00    1.50538   1.67975    0.011
 4783.00    1.69630   1.67835    0.011
 4784.00    1.71135   1.67536    0.011
 4785.00    1.72747   1.67158    0.011
 4786.00    1.74730   1.66711    0.011
 4787.00    1.76756   1.66281    0.012
 4788.00    1.78907   1.65893    0.012
 4789.00    1.81421   1.65614    0.012
 4790.00    1.84849   1.65479    0.012
 4791.00    1.86168   1.65502    0.012
 4792.00    1.82912   1.65716    0.012
 4793.00    1.80989   1.66082    0.012
 4794.00    1.81575   1.66606    0.012
 4795.00    1.80497   1.67219    0.011
 4796.00    1.76681   1.67897    0.012
 4797.00    1.67061   1.68563    0.012
 4798.00    1.49078   1.69193    0.012
 4799.00    1.39743   1.69712    0.012
 4800.00    1.41370   1.70141    0.012
 4801.00    1.50875   1.70402    0.012
 4802.00    1.69179   1.70576    0.012
 4803.00    1.89614   1.70584    0.012
 4804.00    2.12147   1.70544    0.012
 4805.00    2.17468   1.70384    0.012
 4806.00    2.07836   1.70218    0.012
 4807.00    1.89635   1.69997    0.012
 4808.00    1.64877   1.69799    0.012
 4809.00    1.60359   1.69612    0.012
 4810.00    1.69455   1.69467    0.012
 4811.00    1.79735   1.69396    0.012
 4812.00    1.90714   1.69380    0.012
 4813.00    1.76099   1.69476    0.012
 4814.00    1.48332   1.69629    0.012
 4815.00    1.54681   1.69895    0.012
 4816.00    1.76219   1.70194    0.012
 4817.00    1.64548   1.70567    0.012
 4818.00    1.40172   1.70918    0.012
 4819.00    1.41639   1.71268    0.012
 4820.00    1.51508   1.71539    0.012
 4821.00    1.64159   1.71725    0.012
 4822.00    1.77568   1.71796    0.012
 4823.00    1.70213   1.71730    0.012
 4824.00    1.58218   1.71550    0.012
 4825.00    1.67543   1.71239    0.012
 4826.00    1.80669   1.70852    0.011
 4827.00    1.76469   1.70391    0.012
 4828.00    1.69908   1.69905    0.012
 4829.00    1.70157   1.69420    0.012
 4830.00    1.71068   1.68955    0.011
 4831.00    1.72688   1.68552    0.012
 4832.00    1.74350   1.68186    0.012
 4833.00    1.66194   1.67908    0.012
 4834.00    1.57904   1.67663    0.011
 4835.00    1.72419   1.67500    0.011
 4836.00    1.85995   1.67349    0.012
 4837.00    1.75069   1.67250    0.011
 4838.00    1.65220   1.67147    0.011
 4839.00    1.70067   1.67056    0.011
 4840.00    1.73957   1.66960    0.011
 4841.00    1.69184   1.66848    0.011
 4842.00    1.64545   1.66749    0.011
 4843.00    1.60788   1.66629    0.011
 4844.00    1.59338   1.66533    0.011
 4845.00    1.69794   1.66430    0.011
 4846.00    1.74036   1.66350    0.011
 4847.00    1.52412   1.66259    0.011
 4848.00    1.33895   1.66164    0.000
 4849.00    1.26075   1.66022    0.000
 4850.00    1.25366   1.65818    0.000
 4851.00    1.45279   1.65497    0.000
 4852.00    1.56561   1.65038    0.000
 4853.00    1.46481   1.64378    0.000
 4854.00    1.47310   1.63523    0.000
 4855.00    1.71412   1.62427    0.000
 4856.00    1.92995   1.61091    0.000
 4857.00    2.09910   1.59522    0.000
 4858.00    2.15282   1.57748    0.000
 4859.00    2.01970   1.55830    0.000
 4860.00    1.86966   1.53823    0.000
 4861.00    1.69558   1.51846    0.000
 4862.00    1.62549   1.49968    0.000
 4863.00    1.68531   1.48332    0.000
 4864.00    1.67572   1.46984    0.000
 4865.00    1.58971   1.46063    0.000
 4866.00    1.56877   1.45538    0.000
 4867.00    1.61103   1.45471    0.000
 4868.00    1.52866   1.45799    0.000
 4869.00    1.33954   1.46467    0.000
 4870.00    1.31378   1.47406    0.000
 4871.00    1.41125   1.48504    0.000
 4872.00    1.46239   1.49729    0.000
 4873.00    1.48282   1.50950    0.000
 4874.00    1.45635   1.52181    0.000
 4875.00    1.40266   1.53357    0.011
 4876.00    1.54334   1.54504    0.011
 4877.00    1.78233   1.55610    0.011
 4878.00    1.74676   1.56676    0.011
 4879.00    1.59097   1.57686    0.011
 4880.00    1.52639   1.58622    0.011
 4881.00    1.49610   1.59469    0.011
 4882.00    1.45429   1.60208    0.011
 4883.00    1.40882   1.60768    0.011
 4884.00    1.46999   1.61192    0.011
 4885.00    1.55958   1.61389    0.011
 4886.00    1.59751   1.61480    0.011
 4887.00    1.62417   1.61371    0.011
 4888.00    1.63114   1.61232    0.011
 4889.00    1.63470   1.61002    0.011
 4890.00    1.54471   1.60879    0.011
 4891.00    1.44241   1.60812    0.011
 4892.00    1.47014   1.60977    0.011
 4893.00    1.50995   1.61345    0.011
 4894.00    1.74554   1.61950    0.011
 4895.00    1.99222   1.62829    0.011
 4896.00    1.86205   1.63888    0.011
 4897.00    1.72512   1.65148    0.011
 4898.00    1.78896   1.66412    0.011
 4899.00    1.85512   1.67742    0.011
 4900.00    1.97658   1.68930    0.011
 4901.00    2.07708   1.70004    0.011
 4902.00    1.90670   1.70832    0.011
 4903.00    1.74638   1.71435    0.011
 4904.00    1.67348   1.71802    0.011
 4905.00    1.62635   1.71949    0.011
 4906.00    1.74498   1.71958    0.011
 4907.00    1.82512   1.71762    0.011
 4908.00    1.71174   1.71475    0.011
 4909.00    1.63824   1.71104    0.011
 4910.00    1.72701   1.70681    0.011
 4911.00    1.75677   1.70235    0.011
 4912.00    1.58738   1.69740    0.011
 4913.00    1.51944   1.69231    0.011
 4914.00    1.74032   1.68662    0.011
 4915.00    1.84297   1.68074    0.011
 4916.00    1.65802   1.67398    0.011
 4917.00    1.53621   1.66668    0.011
 4918.00    1.54697   1.65855    0.011
 4919.00    1.54263   1.64976    0.011
 4920.00    1.51077   1.64087    0.011
 4921.00    1.52810   1.63190    0.011
 4922.00    1.62388   1.62419    0.011
 4923.00    1.69377   1.61779    0.011
 4924.00    1.72744   1.61378    0.011
 4925.00    1.73710   1.61224    0.011
 4926.00    1.71720   1.61385    0.011
 4927.00    1.72278   1.61819    0.011
 4928.00    1.75603   1.62513    0.011
 4929.00    1.79665   1.63432    0.011
 4930.00    1.84432   1.64443    0.011
 4931.00    1.83323   1.65505    0.011
 4932.00    1.77253   1.66474    0.011
 4933.00    1.86388   1.67317    0.011
 4934.00    2.06827   1.67930    0.011
 4935.00    2.01691   1.68277    0.011
 4936.00    1.79851   1.68379    0.011
 4937.00    1.73974   1.68304    0.011
 4938.00    1.77221   1.68093    0.011
 4939.00    1.81587   1.67797    0.011
 4940.00    1.86510   1.67546    0.000
 4941.00    1.87082   1.67392    0.000
 4942.00    1.85780   1.67391    0.000
 4943.00    2.00261   1.67603    0.000
 4944.00    2.20568   1.68006    0.000
 4945.00    2.11690   1.68610    0.000
 4946.00    1.93681   1.69433    0.000
 4947.00    1.88339   1.70332    0.000
 4948.00    1.86302   1.71235    0.000
 4949.00    1.85895   1.72088    0.000
 4950.00    1.85835   1.72860    0.000
 4951.00    1.76714   1.73436    0.000
 4952.00    1.66067   1.73851    0.000
 4953.00    1.64876   1.73895    0.000
 4954.00    1.64887   1.73735    0.000
 4955.00    1.53742   1.73258    0.000
 4956.00    1.41608   1.72593    0.000
 4957.00    1.52750   1.71695    0.000
 4958.00    1.65121   1.70727    0.000
 4959.00    1.68896   1.69709    0.000
 4960.00    1.72379   1.68665    0.000
 4961.00    1.65921   1.67768    0.000
 4962.00    1.60167   1.66925    0.000
 4963.00    1.69726   1.66344    0.000
 4964.00    1.78540   1.65844    0.000
 4965.00    1.78202   1.65600    0.000
 4966.00    1.77601   1.65452    0.000
 4967.00    1.74788   1.65427    0.000
 4968.00    1.72692   1.65559    0.000
 4969.00    1.75075   1.65678    0.000
 4970.00    1.77184   1.65967    0.000
 4971.00    1.77950   1.66134    0.000
 4972.00    1.75561   1.66365    0.000
 4973.00    1.60616   1.66512    0.000
 4974.00    1.52480   1.66698    0.000
 4975.00    1.66872   1.66786    0.000
 4976.00    1.75268   1.66832    0.000
 4977.00    1.66901   1.66732    0.000
 4978.00    1.58751   1.66494    0.000
 4979.00    1.51122   1.66083    0.000
 4980.00    1.44753   1.65464    0.000
 4981.00    1.40990   1.64716    0.000
 4982.00    1.42068   1.63794    0.000
 4983.00    1.51844   1.62813    0.000
 4984.00    1.61562   1.61828    0.000
 4985.00    1.71188   1.60854    0.000
 4986.00    1.75145   1.60091    0.000
 4987.00    1.71283   1.59440    0.000
 4988.00    1.68029   1.59091    0.000
 4989.00    1.65512   1.58973    0.000
 4990.00    1.63113   1.59089    0.000
 4991.00    1.60840   1.59387    0.000
 4992.00    1.62615   1.59848    0.000
 4993.00    1.68210   1.60434    0.000
 4994.00    1.55986   1.61018    0.000
 4995.00    1.28929   1.61568    0.000
 4996.00    1.24163   1.61993    0.000
 4997.00    1.35734   1.62286    0.000
 4998.00    1.55638   1.62350    0.000
 4999.00    1.80904   1.62265    0.000
 5000.00    1.82808   1.61977    0.000
 5001.00    1.71558   1.61554    0.000
 5002.00    1.67831   1.61006    0.000
 5003.00    1.67789   1.60284    0.000
 5004.00    1.79211   1.59563    0.000
 5005.00    1.95488   1.58809    0.000
 5006.00    1.97345   1.57970    0.000
 5007.00    1.93974   1.57247    0.000
 5008.00    1.81989   1.56463    0.000
 5009.00    1.67362   1.55814    0.000
 5010.00    1.66242   1.55224    0.000
 5011.00    1.68571   1.54749    0.000
 5012.00    1.62339   1.54293    0.000
 5013.00    1.54328   1.53907    0.000
 5014.00    1.45679   1.53504    0.000
 5015.00    1.36925   1.53138    0.000
 5016.00    1.49541   1.52899    0.000
 5017.00    1.64779   1.52729    0.000
 5018.00    1.69772   1.52632    0.000
 5019.00    1.73899   1.52496    0.000
 5020.00    1.81466   1.52598    0.000
 5021.00    1.89201   1.52689    0.000
 5022.00    1.75415   1.53027    0.000
 5023.00    1.61679   1.53436    0.000
 5024.00    1.71332   1.54035    0.000
 5025.00    1.80352   1.54733    0.000
 5026.00    1.76690   1.55474    0.000
 5027.00    1.73934   1.56212    0.000
 5028.00    1.81745   1.57047    0.000
 5029.00    1.85687   1.57884    0.011
 5030.00    1.58387   1.58645    0.010
 5031.00    1.38161   1.59380    0.010
 5032.00    1.60827   1.59958    0.011
 5033.00    1.80147   1.60592    0.011
 5034.00    1.83472   1.60910    0.011
 5035.00    1.84263   1.61083    0.011
 5036.00    1.75189   1.61047    0.011
 5037.00    1.65521   1.60732    0.011
 5038.00    1.53930   1.60395    0.011
 5039.00    1.46919   1.59800    0.010
 5040.00    1.52483   1.59147    0.010
 5041.00    1.60896   1.58402    0.010
 5042.00    1.76009   1.57752    0.010
 5043.00    1.86293   1.57126    0.010
 5044.00    1.86761   1.56702    0.010
 5045.00    1.81407   1.56484    0.010
 5046.00    1.65754   1.56522    0.010
 5047.00    1.62437   1.56848    0.010
 5048.00    1.78218   1.57201    0.010
 5049.00    1.81127   1.57873    0.010
 5050.00    1.66535   1.58598    0.010
 5051.00    1.57794   1.59430    0.010
 5052.00    1.56057   1.60299    0.010
 5053.00    1.61143   1.61057    0.010
 5054.00    1.73429   1.61783    0.010
 5055.00    1.79499   1.62433    0.010
 5056.00    1.79781   1.63078    0.010
 5057.00    1.77053   1.63700    0.010
 5058.00    1.71853   1.64366    0.010
 5059.00    1.70807   1.64978    0.010
 5060.00    1.72761   1.65586    0.010
 5061.00    1.74624   1.66017    0.010
 5062.00    1.76427   1.66421    0.010
 5063.00    1.68293   1.66584    0.010
 5064.00    1.54649   1.66580    0.010
 5065.00    1.45630   1.66373    0.010
 5066.00    1.38841   1.66034    0.010
 5067.00    1.41375   1.65517    0.010
 5068.00    1.47790   1.64905    0.010
 5069.00    1.64410   1.64231    0.010
 5070.00    1.84664   1.63515    0.010
 5071.00    1.83408   1.62800    0.010
 5072.00    1.75683   1.62037    0.010
 5073.00    1.67873   1.61504    0.010
 5074.00    1.60042   1.60941    0.010
 5075.00    1.63872   1.60390    0.010
 5076.00    1.70064   1.59909    0.010
 5077.00    1.79047   1.59404    0.010
 5078.00    1.88474   1.58953    0.010
 5079.00    1.73832   1.58342    0.010
 5080.00    1.56344   1.57869    0.010
 5081.00    1.49718   1.57397    0.010
 5082.00    1.43965   1.56940    0.010
 5083.00    1.49677   1.56628    0.010
 5084.00    1.55906   1.56361    0.010
 5085.00    1.59771   1.56366    0.010
 5086.00    1.63704   1.56338    0.010
 5087.00    1.72397   1.56648    0.010
 5088.00    1.80815   1.57136    0.010
 5089.00    1.84118   1.57856    0.010
 5090.00    1.85469   1.58616    0.010
 5091.00    1.65063   1.59437    0.010
 5092.00    1.47155   1.60287    0.010
 5093.00    1.48712   1.61009    0.010
 5094.00    1.51609   1.61638    0.010
 5095.00    1.62407   1.62017    0.010
 5096.00    1.72347   1.62356    0.010
 5097.00    1.78280   1.62434    0.010
 5098.00    1.80138   1.62384    0.010
 5099.00    1.66467   1.62143    0.010
 5100.00    1.55137   1.61814    0.010
 5101.00    1.51254   1.61357    0.010
 5102.00    1.44908   1.60805    0.010
 5103.00    1.31924   1.60235    0.010
 5104.00    1.29612   1.59668    0.010
 5105.00    1.51975   1.59208    0.010
 5106.00    1.63977   1.58685    0.010
 5107.00    1.55253   1.58457    0.010
 5108.00    1.52474   1.58271    0.010
 5109.00    1.60054   1.58151    0.010
 5110.00    1.67689   1.58057    0.010
 5111.00    1.75410   1.58068    0.010
 5112.00    1.77635   1.58169    0.010
 5113.00    1.72497   1.58405    0.010
 5114.00    1.70286   1.58715    0.010
 5115.00    1.71531   1.59086    0.010
 5116.00    1.73221   1.59646    0.010
 5117.00    1.75373   1.60068    0.010
 5118.00    1.70532   1.60569    0.010
 5119.00    1.59271   1.61009    0.010
 5120.00    1.58089   1.61210    0.010
 5121.00    1.65059   1.61305    0.010
 5122.00    1.70204   1.61210    0.010
 5123.00    1.74050   1.60872    0.010
 5124.00    1.65991   1.60408    0.010
 5125.00    1.50496   1.59766    0.010
 5126.00    1.55388   1.58951    0.010
 5127.00    1.71410   1.58137    0.010
 5128.00    1.71963   1.57280    0.010
 5129.00    1.65178   1.56560    0.010
 5130.00    1.64568   1.55893    0.010
 5131.00    1.66485   1.55414    0.010
 5132.00    1.70985   1.55190    0.010
 5133.00    1.76388   1.55101    0.010
 5134.00    1.77086   1.55121    0.010
 5135.00    1.76397   1.55158    0.010
 5136.00    1.71057   1.55385    0.010
 5137.00    1.64580   1.55527    0.010
 5138.00    1.59973   1.55736    0.010
 5139.00    1.55736   1.55816    0.010
 5140.00    1.51885   1.55840    0.010
 5141.00    1.48092   1.55724    0.010
 5142.00    1.51289   1.55554    0.010
 5143.00    1.55281   1.55328    0.010
 5144.00    1.48355   1.54825    0.010
 5145.00    1.40596   1.54557    0.010
 5146.00    1.53445   1.54111    0.010
 5147.00    1.67142   1.53810    0.010
 5148.00    1.67453   1.53624    0.010
 5149.00    1.67727   1.53290    0.010
 5150.00    1.71098   1.53067    0.010
 5151.00    1.74336   1.53099    0.010
 5152.00    1.75290   1.53116    0.010
 5153.00    1.74866   1.53168    0.010
 5154.00    1.59774   1.53427    0.010
 5155.00    1.46459   1.53700    0.010
 5156.00    1.46510   1.54170    0.010
 5157.00    1.48499   1.54595    0.010
 5158.00    1.61585   1.54978    0.010
 5159.00    1.72705   1.55376    0.010
 5160.00    1.74866   1.55702    0.010
 5161.00    1.71372   1.55827    0.010
 5162.00    1.46771   1.55696    0.010
 5163.00    1.29560   1.55222    0.010
 5164.00    1.35405   1.54351    0.010
 5165.00    1.39830   1.53110    0.010
 5166.00    1.40497   1.51501    0.010
 5167.00    1.41384   1.49479    0.010
 5168.00    1.42771   1.47227    0.010
 5169.00    1.42937   1.44724    0.010
 5170.00    1.40699   1.42204    0.010
 5171.00    1.37508   1.39883    0.010
 5172.00    1.32679   1.37641    0.010
 5173.00    1.34845   1.35849    0.010
 5174.00    1.47527   1.34442    0.010
 5175.00    1.53816   1.33698    0.010
 5176.00    1.51661   1.33448    0.010
 5177.00    1.49147   1.33527    0.010
 5178.00    1.46217   1.33862    0.010
 5179.00    1.43996   1.34301    0.010
 5180.00    1.42505   1.35127    0.010
 5181.00    1.40645   1.36149    0.010
 5182.00    1.38453   1.37147    0.010
 5183.00    1.42348   1.37978    0.010
 5184.00    1.51099   1.38618    0.009
 5185.00    1.52333   1.39293    0.009
 5186.00    1.48292   1.39779    0.009
 5187.00    1.51203   1.40263    0.009
 5188.00    1.58392   1.40660    0.010
 5189.00    1.58645   1.41230    0.010
 5190.00    1.55171   1.42101    0.000
 5191.00    1.59669   1.43090    0.000
 5192.00    1.67889   1.44521    0.000
 5193.00    1.71584   1.45775    0.000
 5194.00    1.73459   1.47035    0.000
 5195.00    1.65642   1.48285    0.000
 5196.00    1.54497   1.49353    0.000
 5197.00    1.49690   1.50450    0.000
 5198.00    1.46713   1.51357    0.000
 5199.00    1.52357   1.52190    0.000
 5200.00    1.60060   1.52898    0.000
 5201.00    1.57561   1.53577    0.000
 5202.00    1.53097   1.53980    0.000
 5203.00    1.44663   1.54107    0.000
 5204.00    1.35636   1.54109    0.000
 5205.00    1.41320   1.53886    0.000
 5206.00    1.48614   1.53486    0.000
 5207.00    1.42687   1.52991    0.000
 5208.00    1.35806   1.52455    0.000
 5209.00    1.49554   1.51919    0.000
 5210.00    1.64072   1.51514    0.000
 5211.00    1.61181   1.51186    0.009
 5212.00    1.58209   1.51206    0.009
 5213.00    1.55189   1.51290    0.009
 5214.00    1.52786   1.51881    0.010
 5215.00    1.60373   1.52594    0.010
 5216.00    1.66758   1.53540    0.010
 5217.00    1.60910   1.54782    0.010
 5218.00    1.55820   1.55882    0.010
 5219.00    1.56236   1.57105    0.010
 5220.00    1.57018   1.57979    0.010
 5221.00    1.59833   1.58801    0.010
 5222.00    1.61249   1.59333    0.010
 5223.00    1.56440   1.59708    0.010
 5224.00    1.51944   1.59995    0.010
 5225.00    1.48593   1.59946    0.010
 5226.00    1.46436   1.59913    0.010
 5227.00    1.47931   1.59605    0.010
 5228.00    1.48792   1.59217    0.010
 5229.00    1.48007   1.58775    0.010
 5230.00    1.49529   1.58323    0.010
 5231.00    1.56209   1.58044    0.010
 5232.00    1.58580   1.57902    0.010
 5233.00    1.52596   1.58229    0.010
 5234.00    1.58500   1.58741    0.010
 5235.00    1.84501   1.59402    0.010
 5236.00    1.90482   1.60301    0.010
 5237.00    1.66815   1.61106    0.010
 5238.00    1.52035   1.61944    0.010
 5239.00    1.48823   1.62937    0.010
 5240.00    1.44953   1.63838    0.010
 5241.00    1.40330   1.64854    0.010
 5242.00    1.46749   1.65753    0.010
 5243.00    1.64337   1.66468    0.010
 5244.00    1.65386   1.66968    0.010
 5245.00    1.51682   1.67180    0.010
 5246.00    1.47247   1.67286    0.010
 5247.00    1.50100   1.67152    0.010
 5248.00    1.56068   1.66862    0.010
 5249.00    1.64190   1.66526    0.010
 5250.00    1.67254   1.66082    0.010
 5251.00    1.67252   1.65491    0.009
 5252.00    1.70698   1.64831    0.010
 5253.00    1.75969   1.64253    0.010
 5254.00    1.77214   1.63886    0.010
 5255.00    1.76610   1.63448    0.010
 5256.00    1.67125   1.63256    0.009
 5257.00    1.54130   1.63088    0.009
 5258.00    1.57696   1.62880    0.009
 5259.00    1.66839   1.62744    0.009
 5260.00    1.70717   1.62246    0.009
 5261.00    1.73104   1.61860    0.010
 5262.00    1.64753   1.61231    0.010
 5263.00    1.53894   1.60504    0.010
 5264.00    1.53759   1.59438    0.010
 5265.00    1.55635   1.58113    0.010
 5266.00    1.49734   1.56663    0.010
 5267.00    1.42706   1.54934    0.010
 5268.00    1.45626   1.53325    0.010
 5269.00    1.49593   1.51825    0.010
 5270.00    1.54635   1.50688    0.010
 5271.00    1.59750   1.49678    0.010
 5272.00    1.59200   1.49267    0.010
 5273.00    1.58461   1.49159    0.010
 5274.00    1.54072   1.49158    0.010
 5275.00    1.49931   1.49707    0.010
 5276.00    1.53881   1.50814    0.010
 5277.00    1.57957   1.52272    0.010
 5278.00    1.63949   1.53758    0.010
 5279.00    1.69239   1.55481    0.010
 5280.00    1.67678   1.57095    0.010
 5281.00    1.65733   1.58749    0.010
 5282.00    1.61081   1.60590    0.010
 5283.00    1.56944   1.62146    0.010
 5284.00    1.55604   1.63618    0.010
 5285.00    1.56419   1.64968    0.010
 5286.00    1.66603   1.66117    0.010
 5287.00    1.76802   1.67109    0.010
 5288.00    1.87052   1.68029    0.010
 5289.00    1.93695   1.68863    0.010
 5290.00    1.89504   1.69793    0.010
 5291.00    1.86203   1.70593    0.010
 5292.00    1.85175   1.71196    0.010
 5293.00    1.83545   1.71487    0.010
 5294.00    1.80590   1.71577    0.010
 5295.00    1.75199   1.71575    0.010
 5296.00    1.65158   1.71326    0.010
 5297.00    1.60332   1.71050    0.010
 5298.00    1.64192   1.70545    0.010
 5299.00    1.68102   1.70042    0.010
 5300.00    1.72085   1.69529    0.010
 5301.00    1.77003   1.68924    0.010
 5302.00    1.83119   1.68447    0.010
 5303.00    1.86156   1.68085    0.010
 5304.00    1.85712   1.68221    0.010
 5305.00    1.79612   1.68517    0.009
 5306.00    1.67872   1.68854    0.009
 5307.00    1.61390   1.69461    0.009
 5308.00    1.59531   1.70189    0.009
 5309.00    1.57953   1.71087    0.009
 5310.00    1.56593   1.71899    0.009
 5311.00    1.61251   1.72667    0.009
 5312.00    1.70011   1.73291    0.009
 5313.00    1.76701   1.73859    0.009
 5314.00    1.82156   1.74372    0.009
 5315.00    1.80968   1.74614    0.009
 5316.00    1.76318   1.74721    0.009
 5317.00    1.82518   1.74596    0.009
 5318.00    1.93619   1.74316    0.009
 5319.00    1.93226   1.73839    0.009
 5320.00    1.88368   1.73236    0.009
 5321.00    1.75850   1.72463    0.009
 5322.00    1.60799   1.71509    0.009
 5323.00    1.61104   1.70641    0.009
 5324.00    1.65667   1.69509    0.009
 5325.00    1.66504   1.68317    0.009
 5326.00    1.66492   1.66971    0.009
 5327.00    1.57012   1.65782    0.009
 5328.00    1.45805   1.64666    0.009
 5329.00    1.47310   1.63496    0.009
 5330.00    1.50598   1.62719    0.009
 5331.00    1.57040   1.62039    0.009
 5332.00    1.63801   1.61546    0.009
 5333.00    1.77634   1.60892    0.009
 5334.00    1.91921   1.61033    0.009
 5335.00    1.83057   1.61588    0.009
 5336.00    1.73537   1.62184    0.009
 5337.00    1.77454   1.62807    0.009
 5338.00    1.81058   1.63270    0.009
 5339.00    1.75725   1.64074    0.009
 5340.00    1.70034   1.64728    0.009
 5341.00    1.59207   1.65349    0.009
 5342.00    1.50001   1.65872    0.009
 5343.00    1.55970   1.66351    0.009
 5344.00    1.62006   1.66658    0.009
 5345.00    1.68508   1.66713    0.009
 5346.00    1.72740   1.66857    0.009
 5347.00    1.64994   1.67291    0.009
 5348.00    1.59258   1.67628    0.009
 5349.00    1.62060   1.67992    0.009
 5350.00    1.66131   1.68421    0.009
 5351.00    1.74654   1.68781    0.009
 5352.00    1.80046   1.69481    0.009
 5353.00    1.76213   1.70144    0.009
 5354.00    1.74293   1.70874    0.009
 5355.00    1.77179   1.71830    0.009
 5356.00    1.75381   1.72798    0.009
 5357.00    1.63445   1.73748    0.009
 5358.00    1.58230   1.74437    0.009
 5359.00    1.65640   1.75157    0.009
 5360.00    1.67718   1.75778    0.009
 5361.00    1.61052   1.76069    0.009
 5362.00    1.59543   1.76278    0.009
 5363.00    1.65449   1.76200    0.009
 5364.00    1.68843   1.75980    0.009
 5365.00    1.69059   1.75440    0.009
 5366.00    1.63680   1.74717    0.009
 5367.00    1.52063   1.73816    0.009
 5368.00    1.54297   1.72808   -2.000
 5369.00    1.70150   1.71832   -2.000
 5370.00    1.75907   1.70749   -2.000
 5371.00    1.72908   1.70049   -2.000
 5372.00    1.79713   1.69265   -2.000
 5373.00    1.94006   1.68716   -2.000
 5374.00    1.99248   1.68258   -2.000
 5375.00    1.98414   1.67885   -2.000
 5376.00    1.92983   1.67902   -2.000
 5377.00    1.84848   1.68099   -2.000
 5378.00    1.80812   1.68842   -2.000
 5379.00    1.78878   1.69339   -2.000
 5380.00    1.72305   1.69972   -2.000
 5381.00    1.63669   1.70507   -2.000
 5382.00    1.65885   1.70902   -2.000
 5383.00    1.72243   1.71463    0.009
 5384.00    1.71113   1.71850    0.009
 5385.00    1.67555   1.72238    0.009
 5386.00    1.70920   1.72279    0.009
 5387.00    1.76164   1.72248    0.009
 5388.00    1.79144   1.71973    0.009
 5389.00    1.81619   1.71623    0.009
 5390.00    1.78193   1.71307    0.009
 5391.00    1.73719   1.70783    0.009
 5392.00    1.77249   1.70144    0.009
 5393.00    1.81866   1.69413    0.009
 5394.00    1.78692   1.68623    0.009
 5395.00    1.74765   1.67671    0.009
 5396.00    1.67292   1.66947    0.009
 5397.00    1.59606   1.66248    0.009
 5398.00    1.68632   1.65528    0.009
 5399.00    1.78087   1.64789    0.009
 5400.00    1.86508   1.64137    0.009
 5401.00    1.94025   1.63497    0.009
 5402.00    1.78234   1.62674    0.009
 5403.00    1.63249   1.62283    0.009
 5404.00    1.59176   1.62003    0.009
 5405.00    1.55925   1.61690    0.009
 5406.00    1.60066   1.61360    0.009
 5407.00    1.62476   1.61129    0.009
 5408.00    1.53436   1.60842    0.009
 5409.00    1.47786   1.60558    0.009
 5410.00    1.59567   1.60629    0.009
 5411.00    1.69273   1.60909    0.009
 5412.00    1.70368   1.61390    0.009
 5413.00    1.70194   1.61865    0.009
 5414.00    1.65662   1.62513    0.009
 5415.00    1.63131   1.63152    0.009
 5416.00    1.66390   1.64045    0.009
 5417.00    1.68653   1.65085    0.008
 5418.00    1.68457   1.66068    0.008
 5419.00    1.66628   1.67081    0.008
 5420.00    1.61324   1.67927    0.008
 5421.00    1.57420   1.68742    0.008
 5422.00    1.56104   1.69323    0.008
 5423.00    1.58192   1.69869    0.008
 5424.00    1.65778   1.70259    0.008
 5425.00    1.66903   1.70426    0.008
 5426.00    1.58869   1.70434    0.008
 5427.00    1.54995   1.70190    0.008
 5428.00    1.56309   1.69938    0.008
 5429.00    1.55976   1.69564    0.008
 5430.00    1.53834   1.69180    0.008
 5431.00    1.55235   1.68792    0.008
 5432.00    1.60071   1.68228    0.008
 5433.00    1.61700   1.67716    0.008
 5434.00    1.60588   1.67160    0.008
 5435.00    1.63824   1.66745    0.008
 5436.00    1.70334   1.66827    0.008
 5437.00    1.73580   1.66747    0.008
 5438.00    1.74667   1.66825    0.008
 5439.00    1.73246   1.66997    0.008
 5440.00    1.70370   1.67230    0.008
 5441.00    1.74593   1.67822    0.008
 5442.00    1.82400   1.68241    0.009
 5443.00    1.80086   1.68909    0.009
 5444.00    1.73350   1.69279    0.009
 5445.00    1.67680   1.69466    0.008
 5446.00    1.62410   1.69799    0.008
 5447.00    1.62291   1.69831    0.009
 5448.00    1.63810   1.69914    0.009
 5449.00    1.63624   1.69639    0.009
 5450.00    1.62985   1.69238    0.009
 5451.00    1.66847   1.68783    0.009
 5452.00    1.71688   1.68189    0.009
 5453.00    1.78637   1.67860    0.009
 5454.00    1.85950   1.67456    0.009
 5455.00    1.78250   1.67143    0.009
 5456.00    1.68582   1.66765    0.009
 5457.00    1.70870   1.66401    0.009
 5458.00    1.74264   1.66101    0.008
 5459.00    1.74769   1.65886    0.008
 5460.00    1.75112   1.65783    0.008
 5461.00    1.78700   1.65707    0.008
 5462.00    1.82238   1.65948    0.008
 5463.00    1.72981   1.66058    0.008
 5464.00    1.63780   1.66116    0.008
 5465.00    1.55898   1.66122    0.008
 5466.00    1.49516   1.66142    0.008
 5467.00    1.62411   1.66316    0.008
 5468.00    1.73256   1.66327    0.008
 5469.00    1.66363   1.66481    0.008
 5470.00    1.59667   1.66618    0.008
 5471.00    1.54238   1.66449    0.008
 5472.00    1.49811   1.66269    0.008
 5473.00    1.50411   1.66053    0.008
 5474.00    1.53065   1.65704    0.008
 5475.00    1.64053   1.65369    0.008
 5476.00    1.72744   1.65022    0.008
 5477.00    1.73700   1.64784    0.008
 5478.00    1.73456   1.64387   -2.000
 5479.00    1.69800   1.63829   -2.000
 5480.00    1.70313   1.63571   -2.000
 5481.00    1.80948   1.63303   -2.000
 5482.00    1.86655   1.63246   -2.000
 5483.00    1.82038   1.63436   -2.000
 5484.00    1.71324   1.63574   -2.000
 5485.00    1.49507   1.63781   -2.000
 5486.00    1.47765   1.63869   -2.000
 5487.00    1.77978   1.64310   -2.000
 5488.00    2.07162   1.64897   -2.000
 5489.00    2.34908   1.65448   -2.000
 5490.00    2.46046   1.66015   -2.000
 5491.00    2.36766   1.66304   -2.000
 5492.00    2.18297   1.66682   -2.000
 5493.00    1.89870   1.66988   -2.000
 5494.00    1.80433   1.67422   -2.000
 5495.00    1.89149   1.67708   -2.000
 5496.00    1.99370   1.67834   -2.000
 5497.00    2.10858   1.68031   -2.000
 5498.00    2.03915   1.67972   -2.000
 5499.00    1.83292   1.67960   -2.000
 5500.00    1.76631   1.67857   -2.000
 5501.00    1.79073   1.67797   -2.000
 5502.00    1.73105   1.67681    0.008
 5503.00    1.62338   1.67435    0.008
 5504.00    1.59419   1.67176    0.008
 5505.00    1.60398   1.66892    0.008
 5506.00    1.70839   1.66657    0.008
 5507.00    1.85345   1.66294    0.008
 5508.00    1.83105   1.66090    0.008
 5509.00    1.74697   1.65836    0.008
 5510.00    1.65418   1.65502    0.008
 5511.00    1.55867   1.65224    0.008
 5512.00    1.55775   1.64973    0.008
 5513.00    1.58144   1.65042    0.008
 5514.00    1.63232   1.64984    0.008
 5515.00    1.68897   1.64922    0.008
 5516.00    1.67632   1.65037    0.008
 5517.00    1.65204   1.65097    0.008
 5518.00    1.64512   1.65458    0.008
 5519.00    1.64040   1.65814    0.008
 5520.00    1.66336   1.66204    0.008
 5521.00    1.68877   1.66727    0.008
 5522.00    1.64538   1.67074    0.008
 5523.00    1.59839   1.67505    0.008
 5524.00    1.60211   1.67890    0.008
 5525.00    1.60683   1.68152    0.008
 5526.00    1.61582   1.68322    0.008
 5527.00    1.62310   1.68459    0.008
 5528.00    1.59363   1.68595    0.008
 5529.00    1.56957   1.68590    0.008
 5530.00    1.61163   1.68421    0.008
 5531.00    1.65590   1.68173    0.008
 5532.00    1.71864   1.68062    0.008
 5533.00    1.76331   1.67895    0.008
 5534.00    1.69562   1.67937    0.008
 5535.00    1.63700   1.68028    0.008
 5536.00    1.62279   1.68004    0.008
 5537.00    1.61879   1.68112    0.008
 5538.00    1.65537   1.68137    0.008
 5539.00    1.66506   1.68498    0.008
 5540.00    1.58605   1.68863    0.008
 5541.00    1.54955   1.69129    0.008
 5542.00    1.63163   1.69514    0.008
 5543.00    1.69562   1.69780    0.009
 5544.00    1.71645   1.70154    0.023
 5545.00    1.72090   1.70441   -1.000
 5546.00    1.69158   1.70788   -1.000
 5547.00    1.67603   1.71149   -1.000
 5548.00    1.68519   1.71328   -1.000
 5549.00    1.72103   1.71573    0.040
 5550.00    1.79869   1.71820    0.011
 5551.00    1.79441   1.72009    0.008
 5552.00    1.67730   1.72095    0.008
 5553.00    1.61362   1.72163    0.008
 5554.00    1.61472   1.72235    0.008
 5555.00    1.62844   1.72220    0.008
 5556.00    1.65564   1.72098    0.008
 5557.00    1.65826   1.71932    0.008
 5558.00    1.63772   1.71791    0.008
 5559.00    1.64627   1.71564    0.008
 5560.00    1.67898   1.71238    0.008
 5561.00    1.68157   1.70902    0.008
 5562.00    1.66211   1.70560    0.008
 5563.00    1.64303   1.70122    0.008
 5564.00    1.62419   1.69694    0.008
 5565.00    1.60085   1.69279    0.008
 5566.00    1.57499   1.68893    0.008
 5567.00    1.59254   1.68468    0.008
 5568.00    1.63133   1.67996    0.008
 5569.00    1.65787   1.67749    0.008
 5570.00    1.67925   1.67390    0.008
 5571.00    1.64437   1.67059    0.008
 5572.00    1.58913   1.66888    0.008
 5573.00    1.59647   1.66692    0.008
 5574.00    1.62296   1.66670    0.008
 5575.00    1.67297   1.66608    0.008
 5576.00    1.72898   1.66585    0.008
 5577.00    1.68884   1.66686    0.008
 5578.00    1.62878   1.66768    0.008
 5579.00    1.62498   1.66812    0.008
 5580.00    1.63036   1.66863    0.008
 5581.00    1.53175   1.66935    0.008
 5582.00    1.42045   1.66857    0.008
 5583.00    1.43539   1.66666    0.008
 5584.00    1.46095   1.66449    0.008
 5585.00    1.42647   1.66102    0.008
 5586.00    1.38908   1.65596    0.008
 5587.00    1.35664   1.65051    0.008
 5588.00    1.32517   1.64556    0.008
 5589.00    1.34622   1.63939    0.008
 5590.00    1.36901   1.63266    0.008
 5591.00    1.42611   1.62642    0.008
 5592.00    1.48626   1.61926    0.008
 5593.00    1.58186   1.61591    0.008
 5594.00    1.66265   1.61435    0.008
 5595.00    1.62444   1.61168    0.008
 5596.00    1.58764   1.61003    0.008
 5597.00    1.55941   1.60824    0.008
 5598.00    1.52857   1.60973    0.008
 5599.00    1.48532   1.61259    0.008
 5600.00    1.45629   1.61494    0.008
 5601.00    1.48250   1.61809    0.008
 5602.00    1.49536   1.62158    0.008
 5603.00    1.46503   1.62524    0.008
 5604.00    1.44930   1.62963    0.008
 5605.00    1.47356   1.63496    0.008
 5606.00    1.49948   1.64058    0.008
 5607.00    1.52931   1.64693    0.008
 5608.00    1.57286   1.65145    0.008
 5609.00    1.64423   1.65832    0.008
 5610.00    1.68578   1.66569    0.008
 5611.00    1.67465   1.67083    0.008
 5612.00    1.65544   1.67534    0.008
 5613.00    1.62377   1.67606    0.008
 5614.00    1.59829   1.67949    0.008
 5615.00    1.58124   1.68255    0.008
 5616.00    1.53843   1.68243    0.008
 5617.00    1.46486   1.68069    0.008
 5618.00    1.47372   1.67518    0.008
 5619.00    1.56940   1.67245    0.008
 5620.00    1.63343   1.66974    0.008
 5621.00    1.66805   1.66648    0.008
 5622.00    1.65900   1.66344    0.008
 5623.00    1.61418   1.65903    0.008
 5624.00    1.64860   1.65732    0.008
 5625.00    1.74016   1.65521    0.008
 5626.00    1.74042   1.65485    0.008
 5627.00    1.68291   1.65632    0.008
 5628.00    1.66239   1.65674    0.008
 5629.00    1.66234   1.65819    0.008
 5630.00    1.63637   1.65961    0.008
 5631.00    1.59793   1.66260    0.008
 5632.00    1.56642   1.66632    0.008
 5633.00    1.53779   1.66837    0.008
 5634.00    1.55687   1.66989    0.008
 5635.00    1.59291   1.67126    0.008
 5636.00    1.61160   1.67326    0.007
 5637.00    1.62509   1.67517    0.007
 5638.00    1.57829   1.67499    0.007
 5639.00    1.51648   1.67376    0.008
 5640.00    1.51240   1.67286    0.007
 5641.00    1.51999   1.67185    0.007
 5642.00    1.55658   1.67105    0.007
 5643.00    1.59776   1.66979    0.007
 5644.00    1.65742   1.66802    0.007
 5645.00    1.71924   1.66770    0.007
 5646.00    1.71124   1.66698    0.007
 5647.00    1.69765   1.66663    0.008
 5648.00    1.71704   1.66729    0.007
 5649.00    1.73789   1.66786    0.007
 5650.00    1.71612   1.66950    0.007
 5651.00    1.69435   1.66979    0.007
 5652.00    1.69608   1.66967    0.008
 5653.00    1.69891   1.67017    0.008
 5654.00    1.72205   1.67074    0.008
 5655.00    1.73511   1.67052    0.007
 5656.00    1.63663   1.66747    0.008
 5657.00    1.54721   1.66496    0.008
 5658.00    1.52810   1.66331    0.008
 5659.00    1.51435   1.66096    0.008
 5660.00    1.53200   1.65708    0.008
 5661.00    1.55169   1.65211    0.008
 5662.00    1.58092   1.64947    0.008
 5663.00    1.60918   1.64787    0.008
 5664.00    1.63373   1.64617    0.008
 5665.00    1.64203   1.64444    0.008
 5666.00    1.59876   1.64369    0.008
 5667.00    1.57784   1.64488    0.008
 5668.00    1.61705   1.64686    0.008
 5669.00    1.62962   1.64966    0.008
 5670.00    1.58069   1.65355    0.008
 5671.00    1.55310   1.65803    0.008
 5672.00    1.56810   1.66202    0.008
 5673.00    1.58133   1.66613    0.008
 5674.00    1.59146   1.67139    0.008
 5675.00    1.58585   1.67725    0.008
 5676.00    1.55628   1.68189    0.008
 5677.00    1.52157   1.68518    0.008
 5678.00    1.47998   1.68827    0.008
 5679.00    1.49664   1.69161    0.008
 5680.00    1.58193   1.69355    0.008
 5681.00    1.62783   1.69426    0.008
 5682.00    1.63281   1.69462    0.007
 5683.00    1.60086   1.69438    0.007
 5684.00    1.53505   1.69361    0.007
 5685.00    1.52042   1.69083    0.007
 5686.00    1.54710   1.68836    0.007
 5687.00    1.56933   1.68653    0.007
 5688.00    1.58841   1.68523    0.007
 5689.00    1.60320   1.68371    0.007
 5690.00    1.61530   1.68162    0.007
 5691.00    1.58872   1.68051    0.007
 5692.00    1.54106   1.67975    0.007
 5693.00    1.51819   1.68057    0.007
 5694.00    1.50706   1.68114    0.008
 5695.00    1.53849   1.68223    0.008
 5696.00    1.58729   1.68219    0.008
 5697.00    1.58950   1.68195    0.008
 5698.00    1.57547   1.68248    0.008
 5699.00    1.61335   1.68107    0.008
 5700.00    1.66649   1.68052    0.008
 5701.00    1.67665   1.67723    0.008
 5702.00    1.67635   1.67416    0.008
 5703.00    1.64506   1.67088    0.008
 5704.00    1.60766   1.66466    0.008
 5705.00    1.62590   1.66040    0.008
 5706.00    1.65268   1.65430    0.008
 5707.00    1.58615   1.64891    0.008
 5708.00    1.50903   1.64489    0.008
 5709.00    1.57424   1.63848    0.008
 5710.00    1.65022   1.63465    0.008
 5711.00    1.64306   1.63185    0.008
 5712.00    1.63251   1.62933    0.008
 5713.00    1.62059   1.63017    0.008
 5714.00    1.60971   1.63032    0.007
 5715.00    1.64188   1.63217    0.007
 5716.00    1.67214   1.63702    0.007
 5717.00    1.66949   1.64158    0.007
 5718.00    1.66332   1.64881    0.007
 5719.00    1.61996   1.65621    0.007
 5720.00    1.58097   1.66328    0.007
 5721.00    1.57483   1.67219    0.007
 5722.00    1.56908   1.68032    0.007
 5723.00    1.56555   1.68826    0.007
 5724.00    1.55886   1.69548    0.007
 5725.00    1.53782   1.70089    0.007
 5726.00    1.53893   1.70655    0.007
 5727.00    1.62249   1.71155    0.007
 5728.00    1.69490   1.71499    0.007
 5729.00    1.73257   1.71668    0.007
 5730.00    1.75159   1.71712    0.007
 5731.00    1.72131   1.71859    0.008
 5732.00    1.68754   1.71981    0.008
 5733.00    1.64587   1.72037    0.008
 5734.00    1.62287   1.71926    0.007
 5735.00    1.63659   1.71801    0.008
 5736.00    1.65756   1.71873    0.008
 5737.00    1.69097   1.71930    0.008
 5738.00    1.72872   1.72031    0.008
 5739.00    1.77298   1.72005    0.008
 5740.00    1.77729   1.71950    0.000
 5741.00    1.72895   1.72016    0.000
 5742.00    1.69818   1.72076    0.000
 5743.00    1.68781   1.72210    0.000
 5744.00    1.68582   1.72257    0.000
 5745.00    1.69241   1.72172    0.000
 5746.00    1.68079   1.72063    0.000
 5747.00    1.65274   1.72034    0.000
 5748.00    1.66341   1.72088    0.000
 5749.00    1.70491   1.72088    0.000
 5750.00    1.69692   1.71895    0.000
 5751.00    1.65426   1.71575    0.000
 5752.00    1.64535   1.71410    0.000
 5753.00    1.65716   1.71385    0.000
 5754.00    1.70217   1.71334    0.000
 5755.00    1.76497   1.71105    0.000
 5756.00    1.82313   1.70776    0.000
 5757.00    1.87911   1.70576    0.000
 5758.00    1.87849   1.70569    0.000
 5759.00    1.85513   1.70583    0.000
 5760.00    1.75447   1.70453    0.000
 5761.00    1.62733   1.70320    0.000
 5762.00    1.60328   1.70292    0.000
 5763.00    1.60893   1.70368    0.000
 5764.00    1.64245   1.70493    0.000
 5765.00    1.68259   1.70507    0.000
 5766.00    1.74202   1.70560    0.000
 5767.00    1.80516   1.70753    0.000
 5768.00    1.83587   1.70916    0.000
 5769.00    1.86175   1.71092    0.000
 5770.00    1.88454   1.71174    0.000
 5771.00    1.90700   1.71286    0.000
 5772.00    1.88154   1.71452    0.000
 5773.00    1.85263   1.71511    0.000
 5774.00    1.76459   1.71530    0.000
 5775.00    1.67436   1.71397    0.000
 5776.00    1.69341   1.71300    0.000
 5777.00    1.71133   1.71098    0.000
 5778.00    1.67240   1.70722    0.000
 5779.00    1.63788   1.70338    0.000
 5780.00    1.67434   1.69844    0.000
 5781.00    1.70422   1.69408    0.000
 5782.00    1.66749   1.68910    0.000
 5783.00    1.64205   1.68187    0.000
 5784.00    1.69844   1.67577    0.000
 5785.00    1.74630   1.67118    0.000
 5786.00    1.74683   1.66733    0.000
 5787.00    1.74576   1.66491    0.000
 5788.00    1.73751   1.66042    0.000
 5789.00    1.73974   1.65798    0.000
 5790.00    1.78014   1.65949    0.000
 5791.00    1.81122   1.66085   -2.000
 5792.00    1.81384   1.66485   -2.000
 5793.00    1.83070   1.66704   -2.000
 5794.00    1.88450   1.67001   -2.000
 5795.00    1.90338   1.67670   -2.000
 5796.00    1.84430   1.68168   -2.000
 5797.00    1.77358   1.68875   -2.000
 5798.00    1.68034   1.69454   -2.000
 5799.00    1.62848   1.69905   -2.000
 5800.00    1.64645   1.70527   -2.000
 5801.00    1.65857   1.70942   -2.000
 5802.00    1.66205   1.71484   -2.000
 5803.00    1.69783   1.71979   -2.000
 5804.00    1.77559   1.72270   -2.000
 5805.00    1.81825   1.72606   -2.000
 5806.00    1.82070   1.72774   -2.000
 5807.00    1.77407   1.72974   -2.000
 5808.00    1.67788   1.73214   -2.000
 5809.00    1.63039   1.73276   -2.000
 5810.00    1.62627   1.73378   -2.000
 5811.00    1.65237   1.73402    0.000
 5812.00    1.70217   1.73347    0.000
 5813.00    1.75231   1.73395    0.000
 5814.00    1.80267   1.73347    0.000
 5815.00    1.82188   1.73347    0.000
 5816.00    1.82224   1.73407    0.000
 5817.00    1.82150   1.73354    0.000
 5818.00    1.82018   1.73380    0.000
 5819.00    1.82213   1.73377    0.000
 5820.00    1.82560   1.73439    0.000
 5821.00    1.84846   1.73640    0.000
 5822.00    1.87898   1.73746    0.000
 5823.00    1.83044   1.73882    0.000
 5824.00    1.75532   1.73986    0.000
 5825.00    1.73720   1.74155    0.000
 5826.00    1.73517   1.74418    0.000
 5827.00    1.71473   1.74599    0.000
 5828.00    1.69000   1.74792    0.000
 5829.00    1.69927   1.74895    0.000
 5830.00    1.71490   1.75031    0.000
 5831.00    1.70467   1.75178    0.000
 5832.00    1.69070   1.75249    0.000
 5833.00    1.71474   1.75350    0.000
 5834.00    1.74276   1.75361    0.000
 5835.00    1.77999   1.75376    0.000
 5836.00    1.81784   1.75374    0.000
 5837.00    1.81491   1.75309    0.000
 5838.00    1.81063   1.75292    0.000
 5839.00    1.75531   1.75280    0.000
 5840.00    1.70029   1.75231    0.000
 5841.00    1.65606   1.75128    0.000
 5842.00    1.61761   1.74995    0.000
 5843.00    1.66646   1.74913    0.000
 5844.00    1.71206   1.74870    0.000
 5845.00    1.72610   1.74699    0.000
 5846.00    1.74053   1.74442    0.000
 5847.00    1.75774   1.74161    0.000
 5848.00    1.77424   1.73906    0.000
 5849.00    1.78686   1.73637    0.000
 5850.00    1.78456   1.73131    0.000
 5851.00    1.71765   1.72582    0.000
 5852.00    1.64331   1.72072    0.000
 5853.00    1.54246   1.71567    0.000
 5854.00    1.46990   1.71051    0.000
 5855.00    1.48209   1.70245    0.000
 5856.00    1.51627   1.69495    0.000
 5857.00    1.60656   1.68991    0.000
 5858.00    1.67202   1.68541    0.000
 5859.00    1.68298   1.68120    0.000
 5860.00    1.68932   1.67392    0.000
 5861.00    1.68688   1.66849    0.000
 5862.00    1.71168   1.66766    0.000
 5863.00    1.78175   1.66745    0.000
 5864.00    1.82031   1.66721    0.000
 5865.00    1.81297   1.66407    0.000
 5866.00    1.78847   1.66361    0.000
 5867.00    1.74195   1.66764    0.000
 5868.00    1.72953   1.67116    0.000
 5869.00    1.75557   1.67335    0.000
 5870.00    1.77572   1.67364    0.000
 5871.00    1.78998   1.67619    0.000
 5872.00    1.78599   1.68082    0.000
 5873.00    1.76597   1.68418    0.000
 5874.00    1.73349   1.68515    0.000
 5875.00    1.69139   1.68490    0.000
 5876.00    1.67289   1.68574    0.000
 5877.00    1.67045   1.68655    0.000
 5878.00    1.61474   1.68559    0.000
 5879.00    1.52728   1.68239    0.000
 5880.00    1.53293   1.67818    0.000
 5881.00    1.58700   1.67326    0.000
 5882.00    1.62443   1.66671    0.000
 5883.00    1.65436   1.65806    0.000
 5884.00    1.61136   1.64830    0.000
 5885.00    1.54009   1.63754    0.000
 5886.00    1.50006   1.62477    0.000
 5887.00    1.47034   1.60813    0.000
 5888.00    1.42814   1.58928    0.000
 5889.00    1.38250   1.57383    0.000
 5890.00    1.39265   1.55762    0.000
 5891.00    1.41548   1.53926    0.000
 5892.00    1.43433   1.51790    0.000
 5893.00    1.45245   1.49384    0.000
 5894.00    1.48291   1.48092    0.000
 5895.00    1.51509   1.47238    0.000
 5896.00    1.51787   1.46091    0.000
 5897.00    1.51771   1.45182    0.000
 5898.00    1.52564   1.44040    0.000
 5899.00    1.53409   1.43892    0.000
 5900.00    1.57107   1.44990    0.000
 5901.00    1.60886   1.45777    0.007
 5902.00    1.63854   1.46624    0.007
 5903.00    1.66582   1.47544    0.007
 5904.00    1.62536   1.48729    0.007
 5905.00    1.58564   1.50822    0.007
 5906.00    1.55650   1.52708    0.007
 5907.00    1.53010   1.54160    0.007
 5908.00    1.52935   1.55688    0.007
 5909.00    1.53124   1.57116    0.007
 5910.00    1.55109   1.58664    0.007
 5911.00    1.56597   1.60026    0.007
 5912.00    1.55463   1.60895    0.007
 5913.00    1.54675   1.61733    0.007
 5914.00    1.55348   1.62467    0.007
 5915.00    1.56527   1.63121    0.007
 5916.00    1.59473   1.63576    0.007
 5917.00    1.61764   1.63697    0.007
 5918.00    1.62131   1.63992    0.007
 5919.00    1.61798   1.64195    0.007
 5920.00    1.59714   1.64382    0.007
 5921.00    1.58704   1.64553    0.007
 5922.00    1.60011   1.64495    0.007
 5923.00    1.61949   1.64707    0.007
 5924.00    1.65068   1.64859    0.007
 5925.00    1.66592   1.64895    0.007
 5926.00    1.65503   1.65122    0.007
 5927.00    1.63398   1.65184    0.007
 5928.00    1.59836   1.65287    0.007
 5929.00    1.55939   1.65511    0.007
 5930.00    1.51619   1.65531    0.007
 5931.00    1.50203   1.65668    0.007
 5932.00    1.52021   1.65724    0.007
 5933.00    1.54065   1.65610    0.007
 5934.00    1.56331   1.65840    0.007
 5935.00    1.58146   1.65951    0.007
 5936.00    1.59570   1.65940    0.007
 5937.00    1.61189   1.65947    0.007
 5938.00    1.62956   1.65809    0.007
 5939.00    1.60366   1.65997    0.007
 5940.00    1.54857   1.66148    0.007
 5941.00    1.51337   1.66092    0.007
 5942.00    1.48986   1.66157    0.007
 5943.00    1.54110   1.66133    0.007
 5944.00    1.63060   1.66143    0.007
 5945.00    1.66932   1.66234    0.007
 5946.00    1.68552   1.66192    0.007
 5947.00    1.64147   1.66163    0.007
 5948.00    1.57446   1.66188    0.007
 5949.00    1.53842   1.66159    0.007
 5950.00    1.51240   1.66099    0.007
 5951.00    1.52676   1.65932    0.007
 5952.00    1.55205   1.65788    0.007
 5953.00    1.56814   1.65843    0.007
 5954.00    1.58218   1.65864    0.007
 5955.00    1.61190   1.65685    0.007
 5956.00    1.64438   1.65483    0.007
 5957.00    1.60708   1.65541    0.007
 5958.00    1.56035   1.65708    0.007
 5959.00    1.56995   1.65724    0.007
 5960.00    1.58497   1.65704    0.007
 5961.00    1.63248   1.65780    0.007
 5962.00    1.68192   1.66071    0.007
 5963.00    1.66326   1.66359    0.007
 5964.00    1.64285   1.66480    0.007
 5965.00    1.62257   1.66737    0.007
 5966.00    1.60310   1.67011    0.007
 5967.00    1.60427   1.67326    0.007
 5968.00    1.60711   1.67587    0.007
 5969.00    1.63243   1.67685    0.007
 5970.00    1.65705   1.67987    0.007
 5971.00    1.67547   1.68179    0.007
 5972.00    1.68256   1.68279    0.007
 5973.00    1.61502   1.68374    0.007
 5974.00    1.56051   1.68296    0.007
 5975.00    1.57282   1.68330    0.007
 5976.00    1.58057   1.68272    0.007
 5977.00    1.56945   1.68112    0.007
 5978.00    1.56477   1.67978    0.007
 5979.00    1.58213   1.67685    0.007
 5980.00    1.59618   1.67479    0.007
 5981.00    1.60068   1.67243    0.007
 5982.00    1.60417   1.66914    0.007
 5983.00    1.60519   1.66758    0.007
 5984.00    1.59219   1.66513    0.007
 5985.00    1.54939   1.66315    0.007
 5986.00    1.51549   1.66131    0.007
 5987.00    1.49804   1.65838    0.007
 5988.00    1.49345   1.65866    0.007
 5989.00    1.50962   1.65909    0.007
 5990.00    1.52669   1.65843    0.007
 5991.00    1.54504   1.65905    0.007
 5992.00    1.54787   1.65943    0.007
 5993.00    1.53137   1.66126    0.007
 5994.00    1.53156   1.66267    0.007
 5995.00    1.55008   1.66266    0.007
 5996.00    1.55869   1.66480    0.007
 5997.00    1.55772   1.66668    0.007
 5998.00    1.56061   1.66726    0.007
 5999.00    1.56680   1.66792    0.007
 6000.00    1.58509   1.66694    0.007
 6001.00    1.61248   1.66661    0.007
 6002.00    1.62868   1.66713    0.007
 6003.00    1.63750   1.66543    0.007
 6004.00    1.62979   1.66452    0.007
 6005.00    1.61254   1.66253    0.007
 6006.00    1.60237   1.65861    0.007
 6007.00    1.59577   1.65829    0.007
 6008.00    1.58421   1.65661    0.007
 6009.00    1.57047   1.65389    0.007
 6010.00    1.57635   1.65244    0.007
 6011.00    1.58957   1.64792    0.007
 6012.00    1.60475   1.64758    0.007
 6013.00    1.62055   1.64843    0.007
 6014.00    1.59964   1.64515    0.007
 6015.00    1.56901   1.64440    0.007
 6016.00    1.57214   1.64281    0.007
 6017.00    1.58260   1.64243    0.007
 6018.00    1.63470   1.64421    0.007
 6019.00    1.69396   1.64140    0.007
 6020.00    1.71906   1.64124    0.007
 6021.00    1.73970   1.64361    0.007
 6022.00    1.68539   1.64317    0.007
 6023.00    1.62420   1.64424    0.007
 6024.00    1.61865   1.64457    0.007
 6025.00    1.61620   1.64583    0.007
 6026.00    1.66830   1.65017    0.007
 6027.00    1.72070   1.65143    0.007
 6028.00    1.68420   1.65418    0.007
 6029.00    1.64851   1.65858    0.007
 6030.00    1.63179   1.66099    0.007
 6031.00    1.61535   1.66621    0.007
 6032.00    1.60237   1.67049    0.007
 6033.00    1.59546   1.67412    0.007
 6034.00    1.64071   1.67929    0.007
 6035.00    1.67920   1.68263    0.007
 6036.00    1.67447   1.68713    0.007
 6037.00    1.67323   1.69108    0.007
 6038.00    1.68942   1.69355    0.007
 6039.00    1.70550   1.69703    0.007
 6040.00    1.72108   1.69940    0.007
 6041.00    1.72140   1.70203    0.007
 6042.00    1.67046   1.70379    0.007
 6043.00    1.61156   1.70471    0.007
 6044.00    1.53011   1.70684    0.007
 6045.00    1.48583   1.70778    0.007
 6046.00    1.53160   1.70892    0.007
 6047.00    1.59447   1.70990    0.007
 6048.00    1.69311   1.71031    0.007
 6049.00    1.75438   1.71149    0.007
 6050.00    1.74776   1.71178    0.007
 6051.00    1.72537   1.71179    0.006
 6052.00    1.67794   1.71169    0.006
 6053.00    1.64589   1.71148    0.007
 6054.00    1.63531   1.71130    0.007
 6055.00    1.63005   1.71004    0.007
 6056.00    1.63135   1.70866    0.007
 6057.00    1.64489   1.70744    0.007
 6058.00    1.67169   1.70571    0.007
 6059.00    1.68636   1.70381    0.007
 6060.00    1.68947   1.70121    0.007
 6061.00    1.66245   1.69948    0.007
 6062.00    1.61007   1.69835    0.007
 6063.00    1.59442   1.69561    0.007
 6064.00    1.60598   1.69415    0.007
 6065.00    1.61298   1.69327    0.007
 6066.00    1.61701   1.69216    0.007
 6067.00    1.60786   1.69249    0.007
 6068.00    1.59120   1.69059    0.007
 6069.00    1.60826   1.69102    0.007
 6070.00    1.64202   1.69430    0.007
 6071.00    1.64388   1.69434    0.007
 6072.00    1.63206   1.69589    0.007
 6073.00    1.61628   1.69742    0.007
 6074.00    1.59906   1.69844    0.007
 6075.00    1.63938   1.70165    0.007
 6076.00    1.69761   1.70110    0.007
 6077.00    1.70799   1.70114    0.007
 6078.00    1.70595   1.70354    0.007
 6079.00    1.66106   1.70224    0.007
 6080.00    1.60710   1.70102    0.006
 6081.00    1.59474   1.69887    0.006
 6082.00    1.58934   1.69593    0.006
 6083.00    1.56645   1.69522    0.006
 6084.00    1.54137   1.69157    0.006
 6085.00    1.55690   1.68714    0.007
 6086.00    1.57600   1.68554    0.007
 6087.00    1.60146   1.68267    0.007
 6088.00    1.62725   1.67912    0.007
 6089.00    1.64912   1.67653    0.007
 6090.00    1.66998   1.67457    0.007
 6091.00    1.62195   1.67399    0.007
 6092.00    1.57723   1.67244    0.007
 6093.00    1.60290   1.66998    0.007
 6094.00    1.62727   1.66999    0.007
 6095.00    1.63582   1.67073    0.007
 6096.00    1.63632   1.66951    0.007
 6097.00    1.57008   1.66855    0.007
 6098.00    1.51772   1.66941    0.007
 6099.00    1.55135   1.67001    0.007
 6100.00    1.58525   1.66827    0.007
 6101.00    1.62045   1.66689    0.007
 6102.00    1.64807   1.66697    0.007
 6103.00    1.64564   1.66696    0.007
 6104.00    1.65972   1.66713    0.007
 6105.00    1.72819   1.66386    0.007
 6106.00    1.77668   1.66171    0.007
 6107.00    1.76962   1.66488    0.007
 6108.00    1.76134   1.66405    0.007
 6109.00    1.75019   1.66280    0.007
 6110.00    1.73842   1.66437    0.007
 6111.00    1.72536   1.66409    0.007
 6112.00    1.70297   1.66738    0.007
 6113.00    1.66387   1.66847    0.006
 6114.00    1.62620   1.66569    0.006
 6115.00    1.59078   1.66972    0.006
 6116.00    1.58206   1.67278    0.006
 6117.00    1.61006   1.67158    0.007
 6118.00    1.61226   1.67257    0.007
 6119.00    1.58325   1.67076    0.007
 6120.00    1.57843   1.66931    0.007
 6121.00    1.59942   1.67110    0.007
 6122.00    1.61139   1.66722    0.007
 6123.00    1.61488   1.66399    0.007
 6124.00    1.60026   1.66365    0.007
 6125.00    1.57062   1.65875    0.007
 6126.00    1.56446   1.65721    0.007
 6127.00    1.57544   1.65632    0.007
 6128.00    1.57659   1.65188    0.007
 6129.00    1.57144   1.65175    0.007
 6130.00    1.54326   1.65062    0.007
 6131.00    1.50217   1.64771    0.007
 6132.00    1.49060   1.64673    0.007
 6133.00    1.49344   1.64450    0.007
 6134.00    1.48537   1.64349    0.007
 6135.00    1.47270   1.64298    0.007
 6136.00    1.50512   1.64099    0.007
 6137.00    1.55380   1.63897    0.007
 6138.00    1.59983   1.63765    0.007
 6139.00    1.64505   1.63503    0.007
 6140.00    1.60822   1.63072    0.007
 6141.00    1.55056   1.63112    0.007
 6142.00    1.55268   1.63258    0.007
 6143.00    1.56714   1.63094    0.007
 6144.00    1.58226   1.63074    0.007
 6145.00    1.59749   1.63155    0.006
 6146.00    1.59694   1.63448    0.007
 6147.00    1.59446   1.63666    0.007
 6148.00    1.55911   1.63590    0.007
 6149.00    1.52102   1.63921    0.007
 6150.00    1.52780   1.64412    0.007
 6151.00    1.53673   1.64602    0.007
 6152.00    1.54231   1.64554    0.007
 6153.00    1.54755   1.64454    0.007
 6154.00    1.53649   1.64553    0.007
 6155.00    1.52598   1.64478    0.007
 6156.00    1.52624   1.64115    0.007
 6157.00    1.52887   1.63671    0.007
 6158.00    1.55883   1.63179    0.007
 6159.00    1.58740   1.62653    0.007
 6160.00    1.60485   1.61860    0.007
 6161.00    1.61374   1.60949    0.007
 6162.00    1.57118   1.60277    0.007
 6163.00    1.52929   1.59505    0.007
 6164.00    1.49058   1.58443    0.006
 6165.00    1.46221   1.57509    0.006
 6166.00    1.47387   1.56794    0.006
 6167.00    1.49009   1.56088    0.007
 6168.00    1.52104   1.55444    0.006
 6169.00    1.54612   1.54881    0.006
 6170.00    1.55516   1.54668    0.006
 6171.00    1.56073   1.54627    0.006
 6172.00    1.55815   1.54203    0.007
 6173.00    1.56490   1.54141    0.007
 6174.00    1.59055   1.54627    0.007
 6175.00    1.60582   1.54887    0.007
 6176.00    1.60281   1.55190    0.007
 6177.00    1.60719   1.55684    0.007
 6178.00    1.62295   1.56248    0.007
 6179.00    1.62154   1.56856    0.007
 6180.00    1.59686   1.57156    0.007
 6181.00    1.59033   1.57594    0.007
 6182.00    1.60543   1.58289    0.007
 6183.00    1.62412   1.58608    0.007
 6184.00    1.64657   1.58915    0.007
 6185.00    1.66993   1.59279    0.007
 6186.00    1.69413   1.59324    0.007
 6187.00    1.69081   1.59475    0.007
 6188.00    1.66500   1.59536    0.007
 6189.00    1.62564   1.59308    0.007
 6190.00    1.57653   1.59284    0.007
 6191.00    1.57778   1.59094    0.007
 6192.00    1.61083   1.58845    0.006
 6193.00    1.61262   1.58834    0.006
 6194.00    1.59714   1.58344    0.006
 6195.00    1.61488   1.58124    0.007
 6196.00    1.64857   1.58381   -2.000
 6197.00    1.90465   1.58033   -2.000
 6198.00    2.25293   1.57937   -2.000
 6199.00    2.39985   1.58184   -2.000
 6200.00    2.47539   1.58216   -2.000
 6201.00    2.21317   1.58511   -2.000
 6202.00    1.84986   1.58512   -2.000
 6203.00    1.56678   1.58566   -2.000
 6204.00    1.30363   1.59163   -2.000
 6205.00    1.26925   1.59283   -2.000
 6206.00    1.28093   1.59324   -2.000
 6207.00    1.36723   1.59673   -2.000
 6208.00    1.46531   1.59750    0.007
 6209.00    1.50546   1.59851    0.007
 6210.00    1.53883   1.59827    0.007
 6211.00    1.53838   1.59563    0.007
 6212.00    1.53524   1.59592    0.007
 6213.00    1.52503   1.59372    0.007
 6214.00    1.51452   1.58876    0.007
 6215.00    1.51666   1.58685    0.006
 6216.00    1.51992   1.58177    0.006
 6217.00    1.57027   1.57614    0.006
 6218.00    1.61894   1.57298    0.006
 6219.00    1.63681   1.56605    0.006
 6220.00    1.65387   1.56210    0.006
 6221.00    1.66209   1.55941    0.006
 6222.00    1.67322   1.55251    0.006
 6223.00    1.70682   1.55066    0.006
 6224.00    1.73311   1.54843    0.006
 6225.00    1.71668   1.54345    0.006
 6226.00    1.69595   1.54315    0.006
 6227.00    1.65521   1.54075    0.007
 6228.00    1.61924   1.53873    0.007
 6229.00    1.60133   1.53992    0.007
 6230.00    1.58928   1.53715    0.007
 6231.00    1.59580   1.53661    0.007
 6232.00    1.60228   1.53793    0.007
 6233.00    1.60860   1.53501    0.007
 6234.00    1.60745   1.53503    0.007
 6235.00    1.58906   1.53577    0.007
 6236.00    1.57537   1.53376    0.007
 6237.00    1.57104   1.53470    0.007
 6238.00    1.55611   1.53460    0.007
 6239.00    1.52280   1.53396    0.006
 6240.00    1.50518   1.53511    0.006
 6241.00    1.51140   1.53345    0.006
 6242.00    1.50979   1.53334    0.006
 6243.00    1.49771   1.53320    0.006
 6244.00    1.48741   1.53150    0.006
 6245.00    1.47921   1.53209    0.006
 6246.00    1.47094   1.52970    0.006
 6247.00    1.46259   1.52876    0.006
 6248.00    1.46218   1.52953    0.006
 6249.00    1.46902   1.52556    0.006
 6250.00    1.46809   1.52484    0.006
 6251.00    1.46089   1.52473    0.006
 6252.00    1.47163   1.52115    0.006
 6253.00    1.49509   1.52068    0.006
 6254.00    1.52055   1.51917    0.006
 6255.00    1.54727   1.51645    0.007
 6256.00    1.53627   1.51576    0.007
 6257.00    1.50476   1.51363    0.007
 6258.00    1.51712   1.51217    0.007
 6259.00    1.55022   1.51182    0.007
 6260.00    1.64768   1.51057    0.008
 6261.00    1.77135   1.51069    0.008
 6262.00    1.75557   1.51199    0.008
 6263.00    1.69126   1.51349    0.009
 6264.00    1.58245   1.51448    0.008
 6265.00    1.46059   1.51735    0.008
 6266.00    1.35086   1.52257    0.008
 6267.00    1.24407   1.52556    0.007
 6268.00    1.28244   1.52891    0.007
 6269.00    1.34930   1.53494    0.006
 6270.00    1.43312   1.53990    0.006
 6271.00    1.51953   1.54378    0.006
 6272.00    1.52571   1.54764    0.006
 6273.00    1.52284   1.55250    0.006
 6274.00    1.51593   1.55731    0.006
 6275.00    1.50871   1.55982    0.006
 6276.00    1.53358   1.56263    0.006
 6277.00    1.55974   1.56578    0.006
 6278.00    1.57810   1.56803    0.006
 6279.00    1.59667   1.56993    0.006
 6280.00    1.62558   1.57044    0.000
 6281.00    1.65247   1.57240    0.000
 6282.00    1.64482   1.57461    0.000
 6283.00    1.63742   1.57389    0.000
 6284.00    1.63264   1.57562    0.000
 6285.00    1.62628   1.57741    0.000
 6286.00    1.60816   1.57713    0.000
 6287.00    1.59155   1.57957    0.000
 6288.00    1.58359   1.58023    0.000
 6289.00    1.57310   1.58117    0.000
 6290.00    1.55120   1.58422    0.000
 6291.00    1.52746   1.58347    0.000
 6292.00    1.49691   1.58473    0.000
 6293.00    1.48203   1.58654    0.000
 6294.00    1.51581   1.58515    0.000
 6295.00    1.54883   1.58609    0.000
 6296.00    1.57987   1.58511    0.000
 6297.00    1.60502   1.58342    0.000
 6298.00    1.61684   1.58389    0.000
 6299.00    1.62659   1.58086    0.000
 6300.00    1.63228   1.57885    0.000
 6301.00    1.63878   1.57847    0.000
 6302.00    1.64667   1.57615    0.000
 6303.00    1.63649   1.57483    0.000
 6304.00    1.59923   1.57328    0.000
 6305.00    1.56311   1.57252    0.000
 6306.00    1.52850   1.57320    0.000
 6307.00    1.52204   1.57231    0.000
 6308.00    1.54823   1.57264    0.000
 6309.00    1.55864   1.57406    0.000
 6310.00    1.55290   1.57495    0.000
 6311.00    1.57091   1.57642    0.000
 6312.00    1.61032   1.57673    0.000
 6313.00    1.62619   1.57772    0.000
 6314.00    1.62335   1.57975    0.000
 6315.00    1.58842   1.57920    0.000
 6316.00    1.53104   1.57926    0.000
 6317.00    1.48345   1.57990    0.000
 6318.00    1.44185   1.57852    0.000
 6319.00    1.41623   1.57981    0.000
 6320.00    1.39915   1.58017    0.000
 6321.00    1.41812   1.57743   -1.000
 6322.00    1.45384   1.57929   -1.000
 6323.00    1.48837   1.58137    0.017
 6324.00    1.52242   1.58004    0.007
 6325.00    1.52368   1.58120    0.006
 6326.00    1.51375   1.58414    0.006
 6327.00    1.52550   1.58646    0.006
 6328.00    1.54347   1.58823    0.006
 6329.00    1.53668   1.59033    0.006
 6330.00    1.52402   1.59279    0.006
 6331.00    1.51445   1.59521    0.006
 6332.00    1.50547   1.59774    0.006
 6333.00    1.51431   1.59794    0.006
 6334.00    1.52579   1.59948    0.006
 6335.00    1.54800   1.60220    0.006
 6336.00    1.57136   1.60082    0.007
 6337.00    1.57794   1.60111    0.006
 6338.00    1.58333   1.60159    0.006
 6339.00    1.58710   1.59940    0.006
 6340.00    1.59081   1.60052    0.006
 6341.00    1.60360   1.59892    0.006
 6342.00    1.61600   1.59553    0.006
 6343.00    1.61348   1.59775    0.006
 6344.00    1.60979   1.59726    0.006
 6345.00    1.58720   1.59503    0.006
 6346.00    1.56294   1.59650    0.006
 6347.00    1.52174   1.59584    0.006
 6348.00    1.48387   1.59614    0.006
 6349.00    1.46996   1.59678    0.006
 6350.00    1.46137   1.59402    0.006
 6351.00    1.48217   1.59588    0.006
 6352.00    1.49993   1.59732    0.006
 6353.00    1.50424   1.59397    0.006
 6354.00    1.50031   1.59421    0.006
 6355.00    1.46641   1.59416    0.006
 6356.00    1.43522   1.59118    0.006
 6357.00    1.41233   1.58929    0.006
 6358.00    1.41217   1.58621    0.006
 6359.00    1.47090   1.58377    0.006
 6360.00    1.52541   1.58157    0.006
 6361.00    1.57052   1.57626    0.007
 6362.00    1.59679   1.57393    0.007
 6363.00    1.58667   1.57375    0.007
 6364.00    1.58127   1.56946    0.007
 6365.00    1.58382   1.56688    0.007
 6366.00    1.59221   1.56811    0.007
 6367.00    1.60920   1.56781    0.007
 6368.00    1.61616   1.56800    0.007
 6369.00    1.61009   1.56988    0.006
 6370.00    1.57767   1.57253    0.006
 6371.00    1.51513   1.57689    0.006
 6372.00    1.47082   1.58010    0.006
 6373.00    1.44487   1.58334    0.006
 6374.00    1.45828   1.58936    0.006
 6375.00    1.50669   1.59370    0.006
 6376.00    1.54391   1.59665    0.006
 6377.00    1.57235   1.60128    0.006
 6378.00    1.57985   1.60524    0.006
 6379.00    1.57291   1.60817    0.006
 6380.00    1.56638   1.61078    0.006
 6381.00    1.56010   1.61224    0.006
 6382.00    1.53716   1.61397    0.006
 6383.00    1.50544   1.61553    0.006
 6384.00    1.48036   1.61491    0.006
 6385.00    1.45832   1.61478    0.006
 6386.00    1.43040   1.61562    0.006
 6387.00    1.40017   1.61434    0.006
 6388.00    1.38543   1.61296    0.006
 6389.00    1.37588   1.61311    0.006
 6390.00    1.39794   1.61202    0.006
 6391.00    1.42889   1.60988    0.006
 6392.00    1.47426   1.60918    0.006
 6393.00    1.52297   1.60851    0.006
 6394.00    1.55689   1.60635    0.006
 6395.00    1.58804   1.60454    0.007
 6396.00    1.57695   1.60342    0.006
 6397.00    1.55979   1.60258    0.006
 6398.00    1.54701   1.60186    0.006
 6399.00    1.53468   1.59938    0.006
 6400.00    1.51049   1.59805    0.006
 6401.00    1.48551   1.60036    0.006
 6402.00    1.46725   1.59958    0.006
 6403.00    1.44920   1.59708    0.006
 6404.00    1.47007   1.60083    0.006
 6405.00    1.49032   1.60150    0.006
 6406.00    1.49092   1.59719    0.006
 6407.00    1.49048   1.60100    0.006
 6408.00    1.47464   1.60431    0.006
 6409.00    1.45995   1.60254    0.006
 6410.00    1.45635   1.60453    0.006
 6411.00    1.45115   1.60503    0.007
 6412.00    1.43479   1.60564    0.006
 6413.00    1.42318   1.60763    0.006
 6414.00    1.43708   1.60479    0.006
 6415.00    1.45283   1.60621    0.006
 6416.00    1.47652   1.60926    0.006
 6417.00    1.49525   1.60515    0.006
 6418.00    1.49632   1.60543    0.006
 6419.00    1.49883   1.60862    0.006
 6420.00    1.50567   1.60663    0.006
 6421.00    1.51119   1.60651    0.006
 6422.00    1.51335   1.60811    0.006
 6423.00    1.52538   1.60769    0.006
 6424.00    1.55904   1.60823    0.006
 6425.00    1.58818   1.60878    0.006
 6426.00    1.60873   1.60887    0.006
 6427.00    1.61684   1.60961    0.006
 6428.00    1.60434   1.61049    0.006
 6429.00    1.59604   1.61240    0.006
 6430.00    1.59386   1.61330    0.006
 6431.00    1.58820   1.61306    0.006
 6432.00    1.57810   1.61487    0.006
 6433.00    1.56276   1.61547    0.006
 6434.00    1.54152   1.61479    0.006
 6435.00    1.53039   1.61696    0.006
 6436.00    1.52930   1.61660    0.006
 6437.00    1.54106   1.61526    0.006
 6438.00    1.56408   1.61776    0.006
 6439.00    1.57319   1.61792    0.006
 6440.00    1.57157   1.61839    0.006
 6441.00    1.56715   1.61994    0.006
 6442.00    1.56085   1.61905    0.006
 6443.00    1.54368   1.62170    0.006
 6444.00    1.52005   1.62198    0.006
 6445.00    1.50376   1.61895    0.006
 6446.00    1.49128   1.62289    0.006
 6447.00    1.53109   1.62379    0.006
 6448.00    1.59443   1.62103    0.006
 6449.00    1.61969   1.62328    0.006
 6450.00    1.63021   1.62220    0.006
 6451.00    1.58832   1.62072    0.006
 6452.00    1.52919   1.62116    0.006
 6453.00    1.51070   1.61833    0.006
 6454.00    1.50342   1.61867    0.006
 6455.00    1.52991   1.61732    0.006
 6456.00    1.56406   1.61283    0.006
 6457.00    1.59017   1.61470    0.006
 6458.00    1.61481   1.61476    0.007
 6459.00    1.57759   1.61220    0.007
 6460.00    1.53177   1.61396    0.007
 6461.00    1.51185   1.61392    0.007
 6462.00    1.49452   1.61260    0.007
 6463.00    1.52564   1.61438    0.006
 6464.00    1.55983   1.61548    0.006
 6465.00    1.55148   1.61481    0.006
 6466.00    1.54189   1.61575    0.006
 6467.00    1.52782   1.61780    0.006
 6468.00    1.51427   1.61655    0.006
 6469.00    1.51526   1.61618    0.006
 6470.00    1.51886   1.61922    0.006
 6471.00    1.55931   1.61893    0.006
 6472.00    1.59779   1.61810    0.006
 6473.00    1.61798   1.62017    0.006
 6474.00    1.63031   1.61992    0.006
 6475.00    1.58954   1.61881    0.006
 6476.00    1.55095   1.61966    0.006
 6477.00    1.52379   1.61843    0.006
 6478.00    1.49939   1.61671    0.006
 6479.00    1.48659   1.61712    0.006
 6480.00    1.48273   1.61567    0.006
 6481.00    1.51000   1.61266    0.006
 6482.00    1.53491   1.61151    0.006
 6483.00    1.55288   1.61029    0.006
 6484.00    1.56766   1.60689    0.007
 6485.00    1.57441   1.60385    0.006
 6486.00    1.57883   1.60171    0.006
 6487.00    1.57821   1.59810    0.006
 6488.00    1.57068   1.59314    0.006
 6489.00    1.55021   1.58890    0.006
 6490.00    1.52058   1.58515    0.006
 6491.00    1.47600   1.57942    0.006
 6492.00    1.43670   1.57338    0.006
 6493.00    1.40499   1.56851    0.006
 6494.00    1.39399   1.56188    0.006
 6495.00    1.40909   1.55551    0.006
 6496.00    1.42562   1.54984    0.006
 6497.00    1.44373   1.54250    0.006
 6498.00    1.46501   1.53807    0.006
 6499.00    1.48938   1.53393    0.006
 6500.00    1.51142   1.52739    0.006
 6501.00    1.53145   1.52619    0.006
 6502.00    1.52970   1.52556    0.007
 6503.00    1.51139   1.52340    0.007
 6504.00    1.51631   1.52661    0.007
 6505.00    1.53677   1.52916    0.007
 6506.00    1.55337   1.53215    0.007
 6507.00    1.56770   1.53872    0.007
 6508.00    1.55946   1.54325    0.007
 6509.00    1.53969   1.54908    0.006
 6510.00    1.50094   1.55624    0.006
 6511.00    1.45380   1.56119    0.006
 6512.00    1.46426   1.56730    0.006
 6513.00    1.49662   1.57297    0.006
 6514.00    1.51691   1.57669    0.006
 6515.00    1.53332   1.58090    0.006
 6516.00    1.54892   1.58450    0.006
 6517.00    1.56430   1.58708    0.006
 6518.00    1.59907   1.58882    0.006
 6519.00    1.63814   1.59028    0.006
 6520.00    1.61690   1.59228    0.006
 6521.00    1.58501   1.59242    0.006
 6522.00    1.55303   1.59244    0.006
 6523.00    1.52103   1.59434    0.006
 6524.00    1.52720   1.59407    0.006
 6525.00    1.53702   1.59376    0.006
 6526.00    1.52224   1.59576    0.006
 6527.00    1.50599   1.59593    0.006
 6528.00    1.49245   1.59620    0.000
 6529.00    1.47897   1.59771    0.000
 6530.00    1.46658   1.59813    0.000
 6531.00    1.45505   1.59941    0.000
 6532.00    1.46528   1.60026    0.000
 6533.00    1.47806   1.60019    0.000
 6534.00    1.52485   1.60185    0.000
 6535.00    1.56570   1.60262    0.000
 6536.00    1.55369   1.60231    0.000
 6537.00    1.54339   1.60341    0.000
 6538.00    1.54428   1.60369    0.000
 6539.00    1.55310   1.60339    0.000
 6540.00    1.60243   1.60362    0.000
 6541.00    1.64629   1.60291    0.000
 6542.00    1.66752   1.60215    0.000
 6543.00    1.68489   1.60107    0.000
 6544.00    1.68903   1.59915    0.000
 6545.00    1.69541   1.59762    0.000
 6546.00    1.70827   1.59482    0.000
 6547.00    1.69765   1.59124    0.000
 6548.00    1.62927   1.58821    0.000
 6549.00    1.55817   1.58364    0.000
 6550.00    1.48128   1.57893    0.000
 6551.00    1.42994   1.57406    0.000
 6552.00    1.42566   1.56713    0.000
 6553.00    1.43475   1.56150    0.000
 6554.00    1.46534   1.55463    0.000
 6555.00    1.52551   1.54541    0.000
 6556.00    1.62744   1.53869    0.000
 6557.00    1.78597   1.52973    0.000
 6558.00    2.01484   1.51927    0.000
 6559.00    2.21748   1.51132    0.000
 6560.00    2.39137   1.50011    0.000
 6561.00    2.43439   1.48932    0.000
 6562.00    2.35096   1.48085    0.000
 6563.00    2.18556   1.46954    0.000
 6564.00    1.95031   1.46147    0.000
 6565.00    1.77292   1.45378    0.000
 6566.00    1.63891   1.44458    0.000
 6567.00    1.58473   1.44324    0.000
 6568.00    1.58315   1.43877    0.000
 6569.00    1.56739   1.43244    0.000
 6570.00    1.54343   1.43927    0.000
 6571.00    1.51859   1.44070    0.000
 6572.00    1.49330   1.43747    0.000
 6573.00    1.49746   1.44981    0.000
 6574.00    1.51443   1.45970    0.000
 6575.00    1.53345   1.46183    0.000
 6576.00    1.55324   1.47339    0.000
 6577.00    1.65614   1.48474    0.000
 6578.00    1.78537   1.48996    0.000
 6579.00    1.92326   1.50013    0.000
 6580.00    2.06345   1.51077    0.000
 6581.00    2.09371   1.51668    0.000
 6582.00    2.10020   1.52491    0.000
 6583.00    2.02064   1.53303    0.000
 6584.00    1.92633   1.53752    0.000
 6585.00    1.79766   1.54408    0.000
 6586.00    1.66453   1.54992    0.000
 6587.00    1.55604   1.55238    0.000
 6588.00    1.44979   1.55681    0.000
 6589.00    1.40916   1.55998    0.000
 6590.00    1.37215   1.56018    0.000
 6591.00    1.40315   1.56279    0.000
 6592.00    1.43542   1.56415    0.000
 6593.00    1.44933   1.56327    0.000
 6594.00    1.46335   1.56438    0.000
 6595.00    1.47980   1.56403    0.000
 6596.00    1.49626   1.56236    0.000
 6597.00    1.51306   1.56334    0.000
 6598.00    1.52813   1.56303    0.000
 6599.00    1.52842   1.56090    0.000
 6600.00    1.52166   1.56195    0.000
 6601.00    1.47005   1.56249    0.000
 6602.00    1.42383   1.56008    0.000
 6603.00    1.40444   1.56147    0.000
 6604.00    1.39865   1.56375    0.000
 6605.00    1.44770   1.56264    0.000
 6606.00    1.48825   1.56390    0.000
 6607.00    1.50031   1.56564    0.000
 6608.00    1.49961   1.56516    0.000
 6609.00    1.46281   1.56667    0.006
 6610.00    1.45270   1.56830    0.006
 6611.00    1.50709   1.56831    0.006
 6612.00    1.55263   1.56940    0.006
 6613.00    1.57968   1.57074    0.006
 6614.00    1.59646   1.57131    0.006
 6615.00    1.59461   1.57229    0.006
 6616.00    1.58902   1.57367    0.006
 6617.00    1.57748   1.57473    0.006
 6618.00    1.56973   1.57568    0.006
 6619.00    1.56725   1.57676    0.006
 6620.00    1.55011   1.57811    0.006
 6621.00    1.51502   1.57943    0.006
 6622.00    1.48474   1.57951    0.006
 6623.00    1.45965   1.57965    0.006
 6624.00    1.45668   1.58063    0.006
 6625.00    1.47478   1.57994    0.006
 6626.00    1.48250   1.57901    0.006
 6627.00    1.48150   1.57864    0.006
 6628.00    1.46623   1.57691    0.006
 6629.00    1.44040   1.57567    0.006
 6630.00    1.43578   1.57417    0.006
 6631.00    1.44493   1.57147    0.006
 6632.00    1.44568   1.57021    0.006
 6633.00    1.44166   1.56823    0.006
 6634.00    1.43449   1.56516    0.006
 6635.00    1.42575   1.56433    0.006
 6636.00    1.42509   1.56278    0.006
 6637.00    1.42789   1.56021    0.006
 6638.00    1.42061   1.55976    0.006
 6639.00    1.40962   1.55886    0.006
 6640.00    1.41614   1.55710    0.006
 6641.00    1.42808   1.55709    0.006
 6642.00    1.45743   1.55689    0.006
 6643.00    1.49128   1.55556    0.006
 6644.00    1.53767   1.55594    0.006
 6645.00    1.58672   1.55676    0.006
 6646.00    1.56491   1.55547    0.006
 6647.00    1.53129   1.55580    0.006
 6648.00    1.52648   1.55730    0.006
 6649.00    1.52530   1.55574    0.006
 6650.00    1.53829   1.55579    0.006
 6651.00    1.55252   1.55760    0.006
 6652.00    1.57820   1.55579    0.006
 6653.00    1.60446   1.55527    0.006
 6654.00    1.60507   1.55679    0.006
 6655.00    1.60430   1.55537    0.006
 6656.00    1.53802   1.55439    0.006
 6657.00    1.47151   1.55456    0.006
 6658.00    1.40023   1.55352    0.006
 6659.00    1.33481   1.55268    0.006
 6660.00    1.34013   1.55129    0.006
 6661.00    1.34914   1.54997    0.006
 6662.00    1.38862   1.54944    0.006
 6663.00    1.42158   1.54716    0.006
 6664.00    1.41425   1.54568    0.006
 6665.00    1.40659   1.54550    0.006
 6666.00    1.39736   1.54284    0.006
 6667.00    1.38768   1.54168    0.006
 6668.00    1.37620   1.54219    0.006
 6669.00    1.36711   1.53957    0.006
 6670.00    1.36584   1.53887    0.006
 6671.00    1.38154   1.54025    0.006
 6672.00    1.44435   1.53795    0.006
 6673.00    1.49020   1.53760    0.006
 6674.00    1.49577   1.53944    0.006
 6675.00    1.48902   1.53752    0.006
 6676.00    1.45696   1.53725    0.006
 6677.00    1.43323   1.53879    0.006
 6678.00    1.42437   1.53721    0.006
 6679.00    1.42608   1.53704    0.006
 6680.00    1.44431   1.53774    0.006
 6681.00    1.45310   1.53590    0.006
 6682.00    1.44893   1.53617    0.006
 6683.00    1.44476   1.53667    0.006
 6684.00    1.44062   1.53448    0.006
 6685.00    1.44178   1.53518    0.006
 6686.00    1.44860   1.53604    0.006
 6687.00    1.43997   1.53397    0.006
 6688.00    1.41685   1.53511    0.006
 6689.00    1.42199   1.53651    0.006
 6690.00    1.45052   1.53465    0.006
 6691.00    1.48141   1.53555    0.006
 6692.00    1.51402   1.53759    0.006
 6693.00    1.51576   1.53668    0.006
 6694.00    1.49776   1.53665    0.006
 6695.00    1.48561   1.53789    0.006
 6696.00    1.47672   1.53745    0.000
 6697.00    1.47488   1.53695    0.000
 6698.00    1.47648   1.53740    0.000
 6699.00    1.48547   1.53668    0.000
 6700.00    1.49758   1.53602    0.000
 6701.00    1.51321   1.53607    0.000
 6702.00    1.53012   1.53487    0.000
 6703.00    1.50622   1.53443    0.000
 6704.00    1.46990   1.53427    0.000
 6705.00    1.43952   1.53256    0.000
 6706.00    1.41064   1.53240    0.000
 6707.00    1.40883   1.53204    0.000
 6708.00    1.41258   1.52985    0.000
 6709.00    1.50227   1.52969    0.000
 6710.00    1.60588   1.52890    0.000
 6711.00    1.70358   1.52640    0.000
 6712.00    1.80057   1.52596    0.000
 6713.00    1.82063   1.52436    0.000
 6714.00    1.83431   1.52150    0.000
 6715.00    1.78066   1.52060    0.000
 6716.00    1.72382   1.51826    0.000
 6717.00    1.69723   1.51526    0.000
 6718.00    1.67053   1.51427    0.000
 6719.00    1.61301   1.51194    0.000
 6720.00    1.55543   1.50920    0.000
 6721.00    1.49681   1.50849    0.000
 6722.00    1.44428   1.50704    0.000
 6723.00    1.46168   1.50516    0.000
 6724.00    1.48563   1.50502    0.000
 6725.00    1.56178   1.50505    0.000
 6726.00    1.63557   1.50436    0.000
 6727.00    1.69524   1.50482    0.000
 6728.00    1.73842   1.50624    0.000
 6729.00    1.70343   1.50652    0.000
 6730.00    1.66580   1.50739    0.000
 6731.00    1.61796   1.50946    0.000
 6732.00    1.57505   1.51019    0.000
 6733.00    1.54802   1.51116    0.000
 6734.00    1.52415   1.51289    0.000
 6735.00    1.50892   1.51329    0.000
 6736.00    1.49649   1.51408    0.000
 6737.00    1.49059   1.51491    0.000
 6738.00    1.49220   1.51437    0.000
 6739.00    1.50900   1.51463    0.000
 6740.00    1.52377   1.51467    0.000
 6741.00    1.53498   1.51328    0.000
 6742.00    1.52822   1.51279    0.000
 6743.00    1.49377   1.51222    0.000
 6744.00    1.45898   1.51047    0.000
 6745.00    1.42372   1.50949    0.000
 6746.00    1.38081   1.50852    0.000
 6747.00    1.32879   1.50678    0.000
 6748.00    1.30596   1.50581    0.000
 6749.00    1.31377   1.50494    0.000
 6750.00    1.33271   1.50352    0.000
 6751.00    1.36197   1.50312    0.000
 6752.00    1.42997   1.50287    0.000
 6753.00    1.52961   1.50193    0.007
 6754.00    1.56634   1.50237    0.007
 6755.00    1.55789   1.50315    0.007
 6756.00    1.51175   1.50278    0.007
 6757.00    1.44185   1.50428    0.007
 6758.00    1.39057   1.50610    0.007
 6759.00    1.34956   1.50593    0.007
 6760.00    1.43489   1.50819    0.007
 6761.00    1.58076   1.51086    0.007
 6762.00    1.67719   1.51057    0.007
 6763.00    1.75316   1.51284    0.007
 6764.00    1.74720   1.51565    0.007
 6765.00    1.71226   1.51499    0.007
 6766.00    1.72777   1.51675    0.007
 6767.00    1.75835   1.51907    0.007
 6768.00    1.79624   1.51801    0.007
 6769.00    1.83594   1.51906    0.007
 6770.00    1.80157   1.52066    0.007
 6771.00    1.75235   1.51944    0.007
 6772.00    1.69372   1.52006    0.007
 6773.00    1.63362   1.52120    0.007
 6774.00    1.59579   1.52012    0.007
 6775.00    1.56057   1.52069    0.007
 6776.00    1.48414   1.52169    0.007
 6777.00    1.40446   1.52091    0.007
 6778.00    1.46160   1.52147    0.007
 6779.00    1.52469   1.52237    0.007
 6780.00    1.56251   1.52173    0.007
 6781.00    1.59805   1.52193    0.007
 6782.00    1.53996   1.52243    0.007
 6783.00    1.48456   1.52159    0.007
 6784.00    1.47784   1.52102    0.007
 6785.00    1.47129   1.52088    0.007
 6786.00    1.46649   1.51966    0.007
 6787.00    1.46755   1.51823    0.007
 6788.00    1.51363   1.51759    0.007
 6789.00    1.56066   1.51628    0.007
 6790.00    1.61329   1.51429    0.007
 6791.00    1.64583   1.51353    0.007
 6792.00    1.58546   1.51266    0.007
 6793.00    1.55235   1.51071    0.007
 6794.00    1.62232   1.51027    0.007
 6795.00    1.66976   1.51013    0.007
 6796.00    1.64608   1.50861    0.007
 6797.00    1.63043   1.50877    0.007
 6798.00    1.63627   1.50938    0.007
 6799.00    1.65955   1.50835    0.007
 6800.00    1.72289   1.50908    0.007
 6801.00    1.75362   1.51007    0.007
 6802.00    1.71949   1.50943    0.007
 6803.00    1.67610   1.51055    0.007
 6804.00    1.61667   1.51144    0.007
 6805.00    1.57849   1.51107    0.007
 6806.00    1.57253   1.51233    0.007
 6807.00    1.54683   1.51267    0.006
 6808.00    1.49482   1.51248    0.006
 6809.00    1.48012   1.51370    0.006
 6810.00    1.50923   1.51331    0.007
 6811.00    1.53238   1.51335    0.007
 6812.00    1.54936   1.51446    0.007
 6813.00    1.55139   1.51346    0.007
 6814.00    1.53977   1.51381    0.007
 6815.00    1.53934   1.51483    0.007
 6816.00    1.54792   1.51358    0.007
 6817.00    1.49831   1.51429    0.007
 6818.00    1.40748   1.51525    0.007
 6819.00    1.42304   1.51418    0.007
 6820.00    1.50468   1.51520    0.007
 6821.00    1.53798   1.51608    0.007
 6822.00    1.54506   1.51543    0.007
 6823.00    1.52524   1.51662    0.006
 6824.00    1.49273   1.51736    0.006
 6825.00    1.48089   1.51711    0.006
 6826.00    1.47747   1.51823    0.006
 6827.00    1.50169   1.51873    0.006
 6828.00    1.53550   1.51864    0.007
 6829.00    1.57180   1.51948    0.007
 6830.00    1.60882   1.51960    0.007
 6831.00    1.63093   1.51940    0.007
 6832.00    1.64942   1.51979    0.007
 6833.00    1.61609   1.51942    0.007
 6834.00    1.57263   1.51890    0.007
 6835.00    1.55048   1.51876    0.007
 6836.00    1.53157   1.51784    0.007
 6837.00    1.57576   1.51691    0.007
 6838.00    1.62702   1.51627    0.007
 6839.00    1.53992   1.51485    0.007
 6840.00    1.44247   1.51363    0.007
 6841.00    1.42757   1.51259    0.007
 6842.00    1.41594   1.51092    0.007
 6843.00    1.41463   1.50968    0.007
 6844.00    1.41670   1.50854    0.006
 6845.00    1.55057   1.50702    0.006
 6846.00    1.67132   1.50607    0.006
 6847.00    1.57045   1.50507    0.006
 6848.00    1.47627   1.50409    0.006
 6849.00    1.45214   1.50354    0.006
 6850.00    1.43262   1.50275    0.007
 6851.00    1.44743   1.50241    0.007
 6852.00    1.46568   1.50206    0.007
 6853.00    1.50350   1.50128    0.007
 6854.00    1.53627   1.50140    0.007
 6855.00    1.54624   1.50088    0.007
 6856.00    1.55210   1.49984    0.007
 6857.00    1.54273   1.50013    0.007
 6858.00    1.53113   1.49921    0.007
 6859.00    1.51263   1.49785    0.007
 6860.00    1.50880   1.49820    0.007
 6861.00    1.54353   1.49704    0.007
 6862.00    1.57171   1.49557    0.007
 6863.00    1.58510   1.49598    0.007
 6864.00    1.58033   1.49500    0.006
 6865.00    1.54003   1.49376    0.006
 6866.00    1.50286   1.49426    0.006
 6867.00    1.47103   1.49384    0.007
 6868.00    1.45326   1.49309    0.007
 6869.00    1.45651   1.49354    0.007
 6870.00    1.47234   1.49381    0.007
 6871.00    1.50468   1.49363    0.007
 6872.00    1.52719   1.49394    0.007
 6873.00    1.53832   1.49479    0.007
 6874.00    1.51816   1.49514    0.007
 6875.00    1.46606   1.49527    0.007
 6876.00    1.43833   1.49650    0.007
 6877.00    1.43252   1.49730    0.007
 6878.00    1.44409   1.49740    0.007
 6879.00    1.46945   1.49880    0.007
 6880.00    1.47970   1.49993    0.007
 6881.00    1.47942   1.50015    0.007
 6882.00    1.47359   1.50163    0.007
 6883.00    1.46438   1.50298    0.007
 6884.00    1.46872   1.50340    0.006
 6885.00    1.48030   1.50496    0.006
 6886.00    1.48606   1.50648    0.006
 6887.00    1.48913   1.50706    0.006
 6888.00    1.46638   1.50877    0.006
 6889.00    1.43331   1.51047    0.006
 6890.00    1.40497   1.51113    0.006
 6891.00    1.37825   1.51298    0.006
 6892.00    1.40665   1.51487    0.007
 6893.00    1.45086   1.51548    0.007
 6894.00    1.49290   1.51732    0.007
 6895.00    1.53442   1.51925    0.007
 6896.00    1.49720   1.51974    0.007
 6897.00    1.44497   1.52132    0.007
 6898.00    1.45101   1.52306    0.007
 6899.00    1.46565   1.52345    0.007
 6900.00    1.47503   1.52457    0.007
 6901.00    1.48384   1.52596    0.007
 6902.00    1.49849   1.52634    0.007
 6903.00    1.51356   1.52701    0.007
 6904.00    1.51283   1.52804    0.006
 6905.00    1.51154   1.52846    0.006
 6906.00    1.50522   1.52875    0.006
 6907.00    1.49871   1.52953    0.006
 6908.00    1.48628   1.52987    0.006
 6909.00    1.47503   1.52982    0.006
 6910.00    1.48243   1.53045    0.006
 6911.00    1.48794   1.53046    0.006
 6912.00    1.47452   1.52999    0.006
 6913.00    1.45854   1.53053    0.006
 6914.00    1.42412   1.52999    0.007
 6915.00    1.39336   1.52906    0.007
 6916.00    1.38280   1.52956    0.007
 6917.00    1.37748   1.52847    0.007
 6918.00    1.39527   1.52718    0.007
 6919.00    1.40285   1.52770    0.007
 6920.00    1.37345   1.52632    0.007
 6921.00    1.36903   1.52493    0.007
 6922.00    1.44055   1.52549    0.007
 6923.00    1.49112   1.52422    0.007
 6924.00    1.48755   1.52297    0.007
 6925.00    1.48450   1.52353    0.006
 6926.00    1.48260   1.52265    0.006
 6927.00    1.47910   1.52170    0.006
 6928.00    1.47249   1.52217    0.006
 6929.00    1.44299   1.52185    0.006
 6930.00    1.37502   1.52122    0.007
 6931.00    1.36219   1.52153    0.007
 6932.00    1.43060   1.52179    0.007
 6933.00    1.46181   1.52142    0.007
 6934.00    1.44487   1.52159    0.007
 6935.00    1.45749   1.52234    0.007
 6936.00    1.50385   1.52214    0.007
 6937.00    1.51448   1.52217    0.007
 6938.00    1.48918   1.52326    0.007
 6939.00    1.45376   1.52308    0.007
 6940.00    1.40937   1.52294    0.007
 6941.00    1.41502   1.52419    0.007
 6942.00    1.45980   1.52385    0.007
 6943.00    1.44632   1.52348    0.007
 6944.00    1.39278   1.52476    0.007
 6945.00    1.39371   1.52419    0.007
 6946.00    1.42749   1.52351    0.007
 6947.00    1.41736   1.52483    0.007
 6948.00    1.38415   1.52410    0.006
 6949.00    1.44890   1.52316    0.007
 6950.00    1.55837   1.52465    0.007
 6951.00    1.61962   1.52399    0.007
 6952.00    1.66192   1.52292    0.007
 6953.00    1.62802   1.52470    0.007
 6954.00    1.56864   1.52441    0.007
 6955.00    1.50512   1.52345    0.007
 6956.00    1.44044   1.52554    0.007
 6957.00    1.37978   1.52584    0.007
 6958.00    1.32005   1.52523    0.007
 6959.00    1.39955   1.52753    0.007
 6960.00    1.50489   1.52840    0.007
 6961.00    1.49035   1.52827    0.007
 6962.00    1.45864   1.53061    0.007
 6963.00    1.46676   1.53177    0.007
 6964.00    1.47899   1.53206    0.007
 6965.00    1.48348   1.53420    0.007
 6966.00    1.48745   1.53519    0.007
 6967.00    1.50952   1.53559    0.007
 6968.00    1.53215   1.53726    0.007
 6969.00    1.50458   1.53761    0.007
 6970.00    1.47710   1.53767    0.007
 6971.00    1.45229   1.53867    0.007
 6972.00    1.42638   1.53807    0.007
 6973.00    1.38413   1.53735    0.007
 6974.00    1.34647   1.53765    0.007
 6975.00    1.35285   1.53619    0.007
 6976.00    1.36091   1.53454    0.007
 6977.00    1.38067   1.53437    0.007
 6978.00    1.40247   1.53258    0.007
 6979.00    1.43520   1.53029    0.007
 6980.00    1.45927   1.53006    0.007
 6981.00    1.44607   1.52881    0.007
 6982.00    1.44750   1.52654    0.007
 6983.00    1.50088   1.52673    0.007
 6984.00    1.53562   1.52672    0.007
 6985.00    1.51476   1.52519    0.007
 6986.00    1.48733   1.52598    0.007
 6987.00    1.44319   1.52733    0.007
 6988.00    1.41514   1.52689    0.007
 6989.00    1.42224   1.52810    0.007
 6990.00    1.42675   1.53029    0.007
 6991.00    1.42635   1.53070    0.007
 6992.00    1.43988   1.53187    0.007
 6993.00    1.47648   1.53402    0.007
 6994.00    1.49093   1.53471    0.007
 6995.00    1.47324   1.53540    0.007
 6996.00    1.46442   1.53685    0.007
 6997.00    1.46693   1.53725    0.007
 6998.00    1.47213   1.53725    0.007
 6999.00    1.48035   1.53776    0.007
 7000.00    1.45157   1.53764    0.007
 7001.00    1.38606   1.53698    0.007
 7002.00    1.36059   1.53670    0.007
 7003.00    1.37015   1.53616    0.007
 7004.00    1.36946   1.53509    0.007
 7005.00    1.36086   1.53432    0.007
 7006.00    1.38808   1.53363    0.007
 7007.00    1.43956   1.53245    0.007
 7008.00    1.50217   1.53143    0.007
 7009.00    1.57139   1.53084    0.007
 7010.00    1.58169   1.52981    0.007
 7011.00    1.56149   1.52867    0.007
 7012.00    1.47751   1.52828    0.007
 7013.00    1.36490   1.52753    0.007
 7014.00    1.37899   1.52630    0.007
 7015.00    1.44197   1.52615    0.007
 7016.00    1.45270   1.52578    0.007
 7017.00    1.44629   1.52449    0.007
 7018.00    1.43509   1.52458    0.007
 7019.00    1.42257   1.52470    0.007
 7020.00    1.43874   1.52352    0.007
 7021.00    1.46141   1.52392    0.007
 7022.00    1.50160   1.52465    0.007
 7023.00    1.54496   1.52384    0.007
 7024.00    1.49871   1.52453    0.007
 7025.00    1.44004   1.52592    0.007
 7026.00    1.50751   1.52573    0.007
 7027.00    1.58751   1.52671    0.007
 7028.00    1.56228   1.52862    0.007
 7029.00    1.53047   1.52911    0.007
 7030.00    1.50007   1.53028    0.007
 7031.00    1.46973   1.53254    0.007
 7032.00    1.44230   1.53357    0.007
 7033.00    1.41635   1.53483    0.007
 7034.00    1.43123   1.53737    0.007
 7035.00    1.45024   1.53878    0.007
 7036.00    1.52735   1.53995    0.007
 7037.00    1.58056   1.54282    0.008
 7038.00    1.41336   1.54459    0.007
 7039.00    1.28335   1.54552    0.007
 7040.00    1.40397   1.54871    0.007
 7041.00    1.50379   1.55095    0.007
 7042.00    1.49487   1.55154    0.007
 7043.00    1.49912   1.55474    0.007
 7044.00    1.55884   1.55739    0.007
 7045.00    1.60368   1.55754    0.007
 7046.00    1.59677   1.56007    0.007
 7047.00    1.59326   1.56251    0.007
 7048.00    1.59972   1.56203    0.007
 7049.00    1.57903   1.56310    0.007
 7050.00    1.49057   1.56433   -2.000
 7051.00    1.43242   1.56278   -2.000
 7052.00    1.43947   1.56183   -2.000
 7053.00    1.45285   1.56090   -2.000
 7054.00    1.47807   1.55786   -2.000
 7055.00    1.52170   1.55494   -2.000
 7056.00    1.59537   1.55165   -2.000
 7057.00    1.60303   1.54706   -2.000
 7058.00    1.51626   1.54276   -2.000
 7059.00    1.51581   1.53789   -2.000
 7060.00    1.62398   1.53221   -2.000
 7061.00    1.69128   1.52747   -2.000
 7062.00    1.71328   1.52240   -2.000
 7063.00    1.73202   1.51655   -2.000
 7064.00    1.74756   1.51225   -2.000
 7065.00    1.75856   1.50833   -2.000
 7066.00    1.76563   1.50332   -2.000
 7067.00    1.70045   1.49998   -2.000
 7068.00    1.58037   1.49801   -2.000
 7069.00    1.59972   1.49450   -2.000
 7070.00    1.71219   1.49227   -2.000
 7071.00    1.77294   1.49232   -2.000
 7072.00    1.80344   1.49051   -2.000
 7073.00    1.80868   1.48916   -2.000
 7074.00    1.80104   1.49062   -2.000
 7075.00    1.76333   1.49012   -2.000
 7076.00    1.71233   1.48910   -2.000
 7077.00    1.68533   1.49097   -2.000
 7078.00    1.66743   1.49099   -2.000
 7079.00    1.66150   1.48953   -2.000
 7080.00    1.65942   1.49064   -2.000
 7081.00    1.66278   1.49021   -2.000
 7082.00    1.66760   1.48757   -2.000
 7083.00    1.60528   1.48700   -2.000
 7084.00    1.52812   1.48538   -2.000
 7085.00    1.52044   1.48111   -2.000
 7086.00    1.52496   1.47852   -2.000
 7087.00    1.57988   1.47562   -2.000
 7088.00    1.64154   1.46989   -2.000
 7089.00    1.55735   1.46567   -2.000
 7090.00    1.45930   1.46210   -2.000
 7091.00    1.44564   1.45572   -2.000
 7092.00    1.43692   1.45080   -2.000
 7093.00    1.48391   1.44761   -2.000
 7094.00    1.53200   1.44177   -2.000
 7095.00    1.54270   1.43726   -2.000
 7096.00    1.55284   1.43537   -2.000
 7097.00    1.54890   1.43117   -2.000
 7098.00    1.54228   1.42786   -2.000
 7099.00    1.50020   1.42766   -2.000
 7100.00    1.44914   1.42564   -2.000
 7101.00    1.31851   1.42384   -2.000
 7102.00    1.20813   1.42503   -2.000
 7103.00    1.22999   1.42508   -2.000
 7104.00    1.26109   1.42456   -2.000
 7105.00    1.33927   1.42643   -2.000
 7106.00    1.40761   1.42793   -2.000
 7107.00    1.43549   1.42824   -2.000
 7108.00    1.45363   1.43005   -2.000
 7109.00    1.43865   1.43219   -2.000
 7110.00    1.44413   1.43291   -2.000
 7111.00    1.50841   1.43423   -2.000
 7112.00    1.55287   1.43629   -2.000
 7113.00    1.54867   1.43713   -2.000
 7114.00    1.53816   1.43791   -2.000
 7115.00    1.51433   1.43945   -2.000
 7116.00    1.49670   1.44018   -2.000
 7117.00    1.49047   1.44054   -2.000
 7118.00    1.52529   1.44140   -2.000
 7119.00    1.62606   1.44174   -2.000
 7120.00    1.67777   1.44166   -2.000
 7121.00    1.66033   1.44180   -2.000
 7122.00    1.62424   1.44150   -2.000
 7123.00    1.56504   1.44079   -2.000
 7124.00    1.59557   1.44016   -2.000
 7125.00    1.72420   1.43914   -2.000
 7126.00    1.77244   1.43763   -2.000
 7127.00    1.74315   1.43625   -2.000
 7128.00    1.61817   1.43470   -2.000
 7129.00    1.41183   1.43260   -2.000
 7130.00    1.33644   1.43068   -2.000
 7131.00    1.35913   1.42901   -2.000
 7132.00    1.45001   1.42698   -2.000
 7133.00    1.58575   1.42502   -2.000
 7134.00    1.53754   1.42361   -2.000
 7135.00    1.38336   1.42246   -2.000
 7136.00    1.41466   1.42112   -2.000
 7137.00    1.53905   1.42021   -2.000
 7138.00    1.50595   1.42043   -2.000
 7139.00    1.40446   1.42015   -2.000
 7140.00    1.45723   1.41971   -2.000
 7141.00    1.56746   1.42129   -2.000
 7142.00    1.58404   1.42211   -2.000
 7143.00    1.57104   1.42189   -2.000
 7144.00    1.46454   1.42446   -2.000
 7145.00    1.33338   1.42611   -2.000
 7146.00    1.30025   1.42580   -2.000
 7147.00    1.28824   1.42896   -2.000
 7148.00    1.32265   1.43119   -2.000
 7149.00    1.36499   1.43060   -2.000
 7150.00    1.35558   1.43404   -2.000
 7151.00    1.33948   1.43680   -2.000
 7152.00    1.58293   1.43597   -2.000
 7153.00    1.84996   1.43943   -2.000
 7154.00    1.68414   1.44266   -2.000
 7155.00    1.49463   1.44170   -2.000
 7156.00    1.46891   1.44481   -2.000
 7157.00    1.44543   1.44818   -2.000
 7158.00    1.31383   1.44707   -2.000
 7159.00    1.20741   1.44929   -2.000
 7160.00    1.67262   1.45215   -2.000
 7161.00    2.09716   1.45064   -2.000
 7162.00    2.00944   1.45151   -2.000
 7163.00    1.92616   1.45318   -2.000
 7164.00    1.88080   1.45091   -2.000
 7165.00    1.78990   1.45036   -2.000
 7166.00    1.41037   1.45076   -2.000
 7167.00    1.13861   1.44756   -2.000
 7168.00    1.40194   1.44594   -2.000
 7169.00    1.61694   1.44557   -2.000
 7170.00    1.63741   1.44192   -2.000
 7171.00    1.63503   1.43984   -2.000
 7172.00    1.55637   1.43931   -2.000
 7173.00    1.47852   1.43580   -2.000
 7174.00    1.40297   1.43384   -2.000
 7175.00    1.39073   1.43355   -2.000
 7176.00    1.53118   1.43069   -2.000
 7177.00    1.61549   1.42908   -2.000
 7178.00    1.58291   1.42894   -2.000
 7179.00    1.57313   1.42687   -2.000
 7180.00    1.60466   1.42543   -2.000
 7181.00    1.58196   1.42499   -2.000
 7182.00    1.47341   1.42364   -2.000
 7183.00    1.43581   1.42227   -2.000
 7184.00    1.49678   1.42132   -2.000
 7185.00    1.51336   1.42023   -2.000
 7186.00    1.47567   1.41888   -2.000
 7187.00    1.47514   1.41771   -2.000
 7188.00    1.51467   1.41650   -2.000
 7189.00    1.55353   1.41532   -2.000
 7190.00    1.59175   1.41438   -2.000
 7191.00    1.58690   1.41298   -2.000
 7192.00    1.54593   1.41216   -2.000
 7193.00    1.49195   1.41188   -2.000
 7194.00    1.42835   1.41040   -2.000
 7195.00    1.45792   1.41005   -2.000
 7196.00    1.54790   1.41057   -2.000
 7197.00    1.52077   1.40907   -2.000
 7198.00    1.42721   1.40896   -2.000
 7199.00    1.44543   1.41028   -2.000
 7200.00    1.51886   1.40911   -2.000
 7201.00    1.58605   1.40892   -2.000
 7202.00    1.65057   1.41042   -2.000
 7203.00    1.64971   1.40961   -2.000
 7204.00    1.62493   1.40917   -2.000
 7205.00    1.43650   1.41056   -2.000
 7206.00    1.19736   1.41038   -2.000
 7207.00    1.15659   1.40974   -2.000
 7208.00    1.16703   1.41078   -2.000
 7209.00    1.23897   1.41127   -2.000
 7210.00    1.32384   1.41064   -2.000
 7211.00    1.38936   1.41124   -2.000
 7212.00    1.45167   1.41271   -2.000
 7213.00    1.50201   1.41283   -2.000
 7214.00    1.55085   1.41295   -2.000
 7215.00    1.60187   1.41527   -2.000
 7216.00    1.65309   1.41663   -2.000
 7217.00    1.42633   1.41659   -2.000
 7218.00    1.18546   1.41963   -2.000
