###################################################################
## OUTPUT of StarlightChains_v04.for    [Cid@UFSC - 01/Apr/2007] ##
###################################################################

## Some input info
KUG0210-078._31_23.txt                   [arq_obs]
Base.CB07.vall.4m                        [arq_base]
Masks.EmLines.NEW.gm                     [arq_masks]
StCv04.C11.config                        [arq_config]
   66                                    [N_base]
    0                                    [N_YAV_components = # of components with extra extinction!]
    0                                    [i_FitPowerLaw (1/0 = Yes/No)]
-9.99                                    [alpha_PowerLaw]
CCM                                      [red_law_option]
 1.458241                                [q_norm = A(l_norm)/A(V)]

## (Re)Sampling Parameters
 3741.00                                 [l_ini (A)]
 7218.00                                 [l_fin (A)]
    1.00                                 [dl    (A)]     (OBS: dl_cushion =    50.00 A)

## Normalization info
 4020.00                                 [l_norm (A) - for base]
 4010.00                                 [llow_norm (A) - window for f_obs]
 4060.00                                 [lupp_norm (A) - window for f_obs]
8.721363E-18                             [fobs_norm (in input units)]

## S/N
 3691.00                                 [llow_SN (A) - window for S/N]
 7268.00                                 [lupp_SN (A) - window for S/N]
   3.775                                 [S/N in S/N window]
   3.695                                 [S/N in norm. window]
   0.011                                 [S/N_err in S/N window]
   0.011                                 [S/N_err in norm. window]
  1.0000                                 [fscale_chi2]

## etc...
    -2007448                             [idum_orig]
  2404                                   [NOl_eff]
  2260                                   [Nl_eff]
   144    NSIGMA                         [Ntot_cliped & clip_method]
 10441200                                [Nglobal_steps]
   7                                     [N_chains]
  32                                     [NEX0s_base = N_base in EX0s-fits]
 0   0   1      144   2.0   4.589E+03    [Clip-Bug, RC-Crash & Burn-In warning-flags, n_censored_weights, wei_nsig_threshold & wei_limit]
    79     78.327     77.467      0.860  [idt_all, wdt_TotTime, wdt_UsrTime & wdt_SysTime (sec)]

## Synthesis Results - Best model ##

 1.49212E-05                             [chi2/Nl_eff]
    22.85382                             [adev (%)]

   119.65053                             [sum-of-x (%)]
 1.63233E-17                             [Flux_tot (units of input spectrum!)]
 3.41282E-13                             [Mini_tot (???)]
 1.73684E-13                             [Mcor_tot (???)]

 282.43                                  [v0_min  (km/s)]
 242.34                                  [vd_min  (km/s)]
 0.3331                                  [AV_min  (mag)]
 0.0000                                  [YAV_min (mag)]

# j     x_j(%)      Mini_j(%)     Mcor_j(%)     age_j(yr)     Z_j      (L/M)_j    YAV?  Mstars   component_j        a/Fe...       SSP_chi2r SSP_adev(%)   SSP_AV   SSP_x(%)
  1      0.0000     0.0000E+00    0.0000E+00    1.000000E+06  0.00400  1.094E-02    0   1.0000   age020_m42            0.0000     1.6114E-05    25.0717   2.6319   107.6946
  2      0.0000     0.0000E+00    0.0000E+00    3.160000E+06  0.00400  4.007E-02    0   0.9999   age045_m42            0.0000     1.6082E-05    24.5598   1.9823   111.6017
  3      1.6758     2.6383E-03    4.9188E-03    5.010000E+06  0.00400  2.539E-02    0   0.9488   age055_m42            0.0000     1.5995E-05    24.5659   2.2742   110.2092
  4      0.0000     0.0000E+00    0.0000E+00    6.610000E+06  0.00400  2.620E-02    0   0.9220   age061_m42            0.0000     1.5935E-05    24.2699   1.9194   111.5116
  5      0.0000     0.0000E+00    0.0000E+00    1.000000E+07  0.00400  1.322E-02    0   0.8862   age070_m42            0.0000     1.5545E-05    23.2910   1.6672   113.2304
  6      0.0000     0.0000E+00    0.0000E+00    1.445000E+07  0.00400  7.883E-03    0   0.8571   age078_m42            0.0000     1.5582E-05    23.4502   1.9691   111.4117
  7      0.0000     0.0000E+00    0.0000E+00    2.512000E+07  0.00400  5.251E-03    0   0.8174   age090_m42            0.0000     1.5471E-05    23.0738   1.5498   113.4629
  8      0.0000     0.0000E+00    0.0000E+00    4.000000E+07  0.00400  3.649E-03    0   0.7851   age104_m42            0.0000     1.5455E-05    23.0822   1.3288   114.0731
  9      0.0000     0.0000E+00    0.0000E+00    5.500000E+07  0.00400  3.098E-03    0   0.7629   age110_m42            0.0000     1.5698E-05    23.3782   1.4832   113.6811
 10      0.0000     0.0000E+00    0.0000E+00    1.015200E+08  0.00400  2.228E-03    0   0.7207   age116_m42            0.0000     1.5851E-05    23.5890   1.5069   113.5245
 11      0.6807     2.4897E-02    3.2523E-02    2.861200E+08  0.00400  1.093E-03    0   0.6648   age125_m42            0.0000     1.5681E-05    23.3156   0.9623   115.8481
 12      0.0000     0.0000E+00    0.0000E+00    5.088000E+08  0.00400  6.597E-04    0   0.6365   age130_m42            0.0000     1.5888E-05    23.5404   0.9519   116.5585
 13      1.3659     2.5610E-01    2.9177E-01    1.434000E+09  0.00400  2.132E-04    0   0.5798   age139_m42            0.0000     1.5763E-05    23.4383  -0.0251   119.1668
 14      0.0000     0.0000E+00    0.0000E+00    4.250000E+09  0.00400  5.895E-05    0   0.5377   age158_m42            0.0000     1.6051E-05    24.5067  -0.5412   117.6153
 15      0.0000     0.0000E+00    0.0000E+00    7.500000E+09  0.00400  3.510E-05    0   0.5212   age171_m42            0.0000     1.6322E-05    24.8305  -0.7426   117.2716
 16      0.0000     0.0000E+00    0.0000E+00    1.300000E+10  0.00400  2.005E-05    0   0.5034   age193_m42            0.0000     1.6589E-05    25.0741  -0.9211   117.0120
 17     10.4595     2.7417E+01    2.6759E+01    1.800000E+10  0.00400  1.525E-05    0   0.4967   age213_m42            0.0000     1.6590E-05    25.0695  -0.9455   116.6118
 18      0.0000     0.0000E+00    0.0000E+00    1.000000E+06  0.00800  1.238E-02    0   1.0000   age020_m52            0.0000     1.6102E-05    25.1055   2.6260   107.9770
 19      5.8628     7.6240E-03    1.4930E-02    3.160000E+06  0.00800  3.074E-02    0   0.9966   age045_m52            0.0000     1.6063E-05    25.0649   2.5529   108.7846
 20      0.0000     0.0000E+00    0.0000E+00    5.010000E+06  0.00800  2.668E-02    0   0.9443   age055_m52            0.0000     1.5901E-05    24.5827   2.3437   109.8162
 21     13.7302     2.5695E-02    4.6335E-02    6.610000E+06  0.00800  2.136E-02    0   0.9177   age061_m52            0.0000     1.5268E-05    23.5063   1.1405   115.7734
 22      0.0000     0.0000E+00    0.0000E+00    1.000000E+07  0.00800  1.215E-02    0   0.8827   age070_m52            0.0000     1.5431E-05    23.1276   1.8403   113.3895
 23      0.0000     0.0000E+00    0.0000E+00    1.445000E+07  0.00800  8.717E-03    0   0.8552   age078_m52            0.0000     1.5532E-05    23.3552   1.9431   112.6189
 24      0.0000     0.0000E+00    0.0000E+00    2.512000E+07  0.00800  5.592E-03    0   0.8162   age090_m52            0.0000     1.5439E-05    22.9950   1.6179   114.6102
 25      0.0000     0.0000E+00    0.0000E+00    4.000000E+07  0.00800  3.896E-03    0   0.7841   age104_m52            0.0000     1.5489E-05    23.0734   1.5374   114.9988
 26      0.0000     0.0000E+00    0.0000E+00    1.015200E+08  0.00800  2.148E-03    0   0.7226   age116_m52            0.0000     1.5595E-05    23.4424   1.4744   114.5989
 27      0.0000     0.0000E+00    0.0000E+00    2.861200E+08  0.00800  9.925E-04    0   0.6683   age125_m52            0.0000     1.5777E-05    23.4975   1.0185   117.6134
 28      0.0000     0.0000E+00    0.0000E+00    9.047900E+08  0.00800  3.141E-04    0   0.6138   age135_m52            0.0000     1.6159E-05    23.9247   0.2032   122.8384
 29      0.0000     0.0000E+00    0.0000E+00    1.434000E+09  0.00800  1.719E-04    0   0.5853   age139_m52            0.0000     1.5905E-05    23.9416  -0.4083   121.8380
 30      0.0000     0.0000E+00    0.0000E+00    2.500000E+09  0.00800  7.872E-05    0   0.5600   age150_m52            0.0000     1.6423E-05    24.7585  -0.7214   120.2851
 31      2.8682     2.6443E+00    2.8193E+00    4.250000E+09  0.00800  4.336E-05    0   0.5426   age158_m52            0.0000     1.6588E-05    24.9355  -0.7453   119.5481
 32      0.0000     0.0000E+00    0.0000E+00    6.250000E+09  0.00800  3.159E-05    0   0.5319   age166_m52            0.0000     1.7018E-05    25.3142  -0.9605   119.8279
 33     13.6085     3.9970E+01    3.9843E+01    1.300000E+10  0.00800  1.361E-05    0   0.5073   age193_m52            0.0000     1.8753E-05    23.7478  -1.0000   107.2328
 34      0.0000     0.0000E+00    0.0000E+00    1.800000E+10  0.00800  9.886E-06    0   0.4990   age213_m52            0.0000     1.9968E-05    24.2538  -1.0000   103.4770
 35      0.0000     0.0000E+00    0.0000E+00    1.000000E+06  0.02000  1.544E-02    0   1.0000   age020_m62            0.0000     1.6098E-05    25.1240   2.6223   108.2828
 36     20.7135     2.2010E-02    4.2634E-02    3.160000E+06  0.02000  3.762E-02    0   0.9858   age045_m62            0.0000     1.6038E-05    25.0879   2.5565   109.3608
 37      6.4738     7.8514E-03    1.4413E-02    5.010000E+06  0.02000  3.296E-02    0   0.9342   age055_m62            0.0000     1.5955E-05    24.6093   2.2418   111.1502
 38      0.0000     0.0000E+00    0.0000E+00    8.710000E+06  0.02000  1.154E-02    0   0.8861   age067_m62            0.0000     1.5100E-05    22.4256   1.3186   116.7157
 39      3.7595     1.9611E-02    3.2647E-02    1.445000E+07  0.02000  7.663E-03    0   0.8472   age078_m62            0.0000     1.5217E-05    22.7324   1.4990   115.8048
 40      0.0000     0.0000E+00    0.0000E+00    2.512000E+07  0.02000  4.532E-03    0   0.8099   age090_m62            0.0000     1.5214E-05    22.6139   1.5004   115.0619
 41      0.0000     0.0000E+00    0.0000E+00    5.500000E+07  0.02000  2.733E-03    0   0.7595   age110_m62            0.0000     1.5425E-05    23.0486   1.5114   114.5886
 42      0.0000     0.0000E+00    0.0000E+00    1.609000E+08  0.02000  1.369E-03    0   0.6985   age120_m62            0.0000     1.5717E-05    23.3572   1.3748   116.1969
 43      0.0000     0.0000E+00    0.0000E+00    2.861200E+08  0.02000  9.013E-04    0   0.6714   age125_m62            0.0000     1.5917E-05    23.4278   1.1405   118.5990
 44      0.0000     0.0000E+00    0.0000E+00    5.088000E+08  0.02000  5.028E-04    0   0.6449   age130_m62            0.0000     1.6309E-05    23.9412   0.7481   121.9137
 45      0.0000     0.0000E+00    0.0000E+00    9.047900E+08  0.02000  2.428E-04    0   0.6179   age135_m62            0.0000     1.6377E-05    24.3978   0.1165   123.1592
 46      0.0000     0.0000E+00    0.0000E+00    1.434000E+09  0.02000  1.263E-04    0   0.5908   age139_m62            0.0000     1.6485E-05    24.6976  -0.3588   122.7712
 47      0.0000     0.0000E+00    0.0000E+00    2.500000E+09  0.02000  5.985E-05    0   0.5673   age150_m62            0.0000     1.6992E-05    25.2999  -0.7582   122.3081
 48      0.0000     0.0000E+00    0.0000E+00    4.250000E+09  0.02000  3.271E-05    0   0.5468   age158_m62            0.0000     1.7607E-05    25.0321  -1.0000   119.5662
 49     10.0282     2.9476E+01    2.9927E+01    1.000000E+10  0.02000  1.360E-05    0   0.5167   age181_m62            0.0000     1.9675E-05    23.8399  -1.0000   109.1296
 50      0.0000     0.0000E+00    0.0000E+00    1.800000E+10  0.02000  7.124E-06    0   0.5013   age213_m62            0.0000     2.1896E-05    24.5648  -1.0000   101.9453
 51      0.0000     0.0000E+00    0.0000E+00    1.000000E+06  0.05000  2.592E-02    0   0.9998   age020_m72            0.0000     1.6089E-05    25.2516   2.6023   108.7755
 52      1.1989     9.8914E-04    1.8614E-03    3.160000E+06  0.05000  4.845E-02    0   0.9577   age045_m72            0.0000     1.5996E-05    24.9026   2.4620   109.8270
 53     26.3855     3.4334E-02    6.1710E-02    5.010000E+06  0.05000  3.072E-02    0   0.9147   age055_m72            0.0000     1.5460E-05    23.4494   2.0326   113.0633
 54      0.0000     0.0000E+00    0.0000E+00    6.610000E+06  0.05000  1.455E-02    0   0.8877   age061_m72            0.0000     1.5419E-05    23.7763   1.3579   117.7373
 55      0.0000     0.0000E+00    0.0000E+00    1.000000E+07  0.05000  9.074E-03    0   0.8524   age070_m72            0.0000     1.5629E-05    23.9822   2.2085   112.5975
 56      0.0000     0.0000E+00    0.0000E+00    2.512000E+07  0.05000  4.250E-03    0   0.7902   age090_m72            0.0000     1.5512E-05    23.3117   1.9527   113.0475
 57      0.6565     8.5005E-03    1.2725E-02    4.000000E+07  0.05000  3.087E-03    0   0.7618   age104_m72            0.0000     1.5504E-05    23.1930   1.7489   114.0019
 58      0.0000     0.0000E+00    0.0000E+00    1.015200E+08  0.05000  1.700E-03    0   0.7096   age116_m72            0.0000     1.5633E-05    23.2420   1.5188   115.7733
 59      0.0000     0.0000E+00    0.0000E+00    2.861200E+08  0.05000  7.384E-04    0   0.6633   age125_m72            0.0000     1.6080E-05    23.6799   0.9993   120.4021
 60      0.0000     0.0000E+00    0.0000E+00    5.088000E+08  0.05000  3.819E-04    0   0.6372   age130_m72            0.0000     1.6342E-05    24.2852   0.4705   123.7467
 61      0.0000     0.0000E+00    0.0000E+00    9.047900E+08  0.05000  1.676E-04    0   0.6110   age135_m72            0.0000     1.6952E-05    25.3497  -0.2921   124.3101
 62      0.1831     8.2826E-02    9.5599E-02    1.434000E+09  0.05000  8.837E-05    0   0.5874   age139_m72            0.0000     1.7224E-05    25.4372  -0.7644   124.2753
 63      0.0000     0.0000E+00    0.0000E+00    2.500000E+09  0.05000  4.233E-05    0   0.5598   age150_m72            0.0000     1.7907E-05    25.1613  -1.0000   120.6544
 64      0.0000     0.0000E+00    0.0000E+00    6.250000E+09  0.05000  1.435E-05    0   0.5249   age166_m72            0.0000     2.0516E-05    24.1800  -1.0000   105.8835
 65      0.0000     0.0000E+00    0.0000E+00    1.300000E+10  0.05000  6.513E-06    0   0.5036   age193_m72            0.0000     2.3847E-05    25.6878  -1.0000    98.1384
 66      0.0000     0.0000E+00    0.0000E+00    1.800000E+10  0.05000  4.527E-06    0   0.4945   age213_m72            0.0000     2.6333E-05    26.8203  -1.0000    92.8024


## Synthesis Results - Average & Chains ##

# j      x_j: min, <> & last-chain-values for 1 ...  7 chains
  1      0.0000      0.2491      0.0270      0.0339      0.0000      0.1070      0.0176      0.0643      0.7131
  2      0.0000      0.3078      0.2907      0.1109      0.0971      1.8803      0.0669      0.0774      0.3886
  3      1.6758      0.2735      0.3073      0.0477      0.0000      1.4084      0.0000      0.7229      0.2599
  4      0.0000      0.2096      0.0689      0.1183      0.7036      0.0000      0.0000      0.2909      0.6962
  5      0.0000      0.2872      0.0000      0.0464      0.5897      0.0000      0.1062      0.2882      0.2258
  6      0.0000      0.4465      0.6695      0.1778      0.0000      0.0000      0.0959      0.2593      0.8009
  7      0.0000      0.3017      0.0000      0.4529      0.2562      1.2927      0.0089      0.0710      0.7542
  8      0.0000      0.2209      0.3703      0.0084      0.4206      0.0000      0.0000      0.2081      0.0000
  9      0.0000      0.2421      0.3502      0.1589      1.4946      1.0668      0.1421      0.0000      0.0841
 10      0.0000      0.3162      0.0000      0.0442      1.0327      0.4872      0.0077      0.3358      0.0000
 11      0.6807      0.3905      0.4961      0.2691      1.7326      0.1164      0.0088      0.3383      0.9407
 12      0.0000      0.2716      0.6327      0.2251      0.9253      0.0113      0.0667      0.2097      0.0000
 13      1.3659      0.2811      0.4881      0.0881      1.4713      0.3181      0.0675      0.2193      0.4972
 14      0.0000      0.3045      0.0000      0.0727      0.0000      1.4062      0.0273      0.1626      0.0000
 15      0.0000      0.3076      0.0000      0.0000      0.0000      1.0477      0.0733      0.1437      0.3738
 16      0.0000      0.3867      0.1276      0.0000      0.0028      1.1197      0.2674      0.0000      0.2209
 17     10.4595      0.3487      1.5141      0.0631      0.2287      0.2990      0.0600      0.6429      0.0000
 18      0.0000      0.3070      0.1765      0.1373      1.1461      1.1130      0.0191      0.0000      0.2141
 19      5.8628      0.3083      0.6723      0.1434      0.3388      0.0000      0.2438      0.0000      0.0000
 20      0.0000      0.3865      0.0000      0.0390      0.6392      2.9532      0.1906      0.0304      1.2592
 21     13.7302      0.3490      0.3176      0.0913      1.3848      0.0000      0.1454      0.5352      0.2328
 22      0.0000      0.3361      0.0000      0.1812      0.5396      0.4534      0.0000      0.7538      1.2793
 23      0.0000      0.2282      0.0000      0.0407      1.2801      0.2688      0.0704      0.3934      0.3580
 24      0.0000      0.3020      0.3303      0.4232      1.3681      0.0000      0.0000      0.0585      0.8195
 25      0.0000      0.3343      0.1259      0.1011      0.0000      0.8900      0.0000      0.3509      0.0000
 26      0.0000      0.2550      0.0000      0.0267      0.0000      0.3661      0.0189      0.1891      0.4894
 27      0.0000      0.2062      0.0000      0.0036      0.0000      0.2373      0.0000      0.1846      0.5439
 28      0.0000      0.3300      0.0000      0.0988      0.8021      0.0000      0.0437      0.1687      0.7177
 29      0.0000      0.2566      0.1084      0.1762      0.0000      2.0527      0.1035      0.3694      0.5145
 30      0.0000      0.2272      0.0000      0.0307      0.6313      0.0446      0.0275      0.0000      0.1207
 31      2.8682      0.3411      0.6547      0.0000      1.4148      0.1577      0.0000      0.0000      0.8181
 32      0.0000      0.2257      0.5998      0.0647      0.0000      0.6814      0.0000      0.1931      0.0000
 33     13.6085     17.8931     17.8627     13.7621     16.8908     13.1373     18.3911     18.7656     16.8577
 34      0.0000     21.2848     20.6309     31.8042     20.3973     20.0239     24.1440     15.3141     21.0787
 35      0.0000      0.3712      0.6453      0.1231      1.8314      0.0000      0.0798      0.6915      0.4335
 36     20.7135      0.2215      0.3909      0.1590      0.0000      0.0000      0.0678      0.3647      0.5304
 37      6.4738      0.3310      0.3415      0.1721      0.6405      0.3182      0.0308      0.1189      0.0000
 38      0.0000      0.2737      0.0000      0.0560      0.0000      0.3925      0.1046      0.4289      0.0947
 39      3.7595      0.3139      1.4502      0.1217      1.0277      0.3625      0.1648      0.3828      0.2055
 40      0.0000      0.2601      0.0000      0.0000      0.0000      0.1352      0.0468      0.0000      0.2268
 41      0.0000      0.2752      0.6138      0.0273      0.0961      0.4270      0.0315      0.4569      0.0000
 42      0.0000      0.2468      0.0000      0.1624      0.1771      1.9830      0.0526      0.2755      0.9812
 43      0.0000      0.2948      0.1556      0.1565      0.1303      0.6152      0.0000      0.1417      0.9637
 44      0.0000      0.2888      0.3008      0.0369      0.2638      1.2374      0.1124      0.2131      0.7168
 45      0.0000      0.2172      0.0000      0.0599      0.0000      0.3298      0.0000      0.0966      0.4490
 46      0.0000      0.3085      0.0000      0.2199      0.7861      0.9620      0.0000      0.1453      1.0024
 47      0.0000      0.3968      0.0000      0.1729      0.0000      1.5723      0.0000      0.0629      0.0000
 48      0.0000      0.3671      0.7312      0.0000      1.5460      0.1403      0.0000      0.3931      0.2039
 49     10.0282      2.1793      3.0105      1.0277      3.5714      2.2625      3.0416      4.4648      2.0208
 50      0.0000      0.9664      0.6305      0.3961      0.7583      1.0926      0.7032      1.6737      1.2888
 51      0.0000     67.3817     65.8365     74.9260     52.9134     55.6545     77.1874     69.5622     62.0880
 52      1.1989      0.2362      0.6464      0.0579      0.2324      0.7976      0.2297      0.2215      0.0000
 53     26.3855      0.3492      0.8574      0.0652      1.3763      0.5732      0.0973      0.6584      1.2578
 54      0.0000      0.2524      0.3000      0.0000      1.1775      0.0000      0.0360      0.0193      0.0607
 55      0.0000      0.1903      0.1779      0.0717      0.4315      0.5386      0.0289      0.1559      0.2612
 56      0.0000      0.3660      0.0000      0.2030      0.0000      0.2742      0.1681      0.3801      0.2162
 57      0.6565      0.2244      0.6216      0.1194      0.0000      0.7224      0.0000      0.0674      0.9868
 58      0.0000      0.2523      0.1780      0.0000      1.3696      0.0000      0.0025      0.0000      0.3568
 59      0.0000      0.3246      0.0000      0.0701      1.0240      0.6197      0.0000      0.6618      0.0216
 60      0.0000      0.2435      0.0845      0.1778      1.2181      0.0000      0.0396      0.6945      0.0000
 61      0.0000      0.3610      0.2001      0.1119      0.2067      0.2115      0.0374      0.3273      0.1846
 62      0.1831      0.3037      0.4239      0.1460      0.0000      0.0000      0.0337      0.1072      0.3823
 63      0.0000      0.3135      0.4420      0.1949      0.3243      0.0000      0.4095      0.0000      1.2344
 64      0.0000      0.2635      0.7168      0.4932      0.3246      1.7520      0.1949      0.1039      0.0000
 65      0.0000      0.8189      1.1306      0.3543      0.9444      1.4201      0.5035      1.2500      0.7988
 66      0.0000      1.9238      2.4145      0.9364      0.7635      1.8629      1.9960      4.2714      1.1773

# j      m_j: min, <> & last-chain-values for 1 ...  7 chains
  1  0.0000E+00  1.0163E-03  1.0544E-04  1.3187E-04  0.0000E+00  4.5304E-04  6.8344E-05  2.4778E-04  3.0854E-03
  2  0.0000E+00  3.4279E-04  3.0968E-04  1.1776E-04  1.1561E-04  2.1726E-03  7.0895E-05  8.1413E-05  4.5900E-04
  3  4.9188E-03  4.5609E-04  4.9014E-04  7.5928E-05  0.0000E+00  2.4370E-03  0.0000E+00  1.1382E-03  4.5966E-04
  4  0.0000E+00  3.2921E-04  1.0355E-04  1.7719E-04  1.1812E-03  0.0000E+00  0.0000E+00  4.3133E-04  1.1597E-03
  5  0.0000E+00  8.5930E-04  0.0000E+00  1.3249E-04  1.8857E-03  0.0000E+00  3.0261E-04  8.1418E-04  7.1664E-04
  6  0.0000E+00  2.1667E-03  3.1076E-03  8.2286E-04  0.0000E+00  0.0000E+00  4.4314E-04  1.1879E-03  4.1222E-03
  7  0.0000E+00  2.0958E-03  0.0000E+00  3.0015E-03  1.9024E-03  9.3180E-03  5.8586E-05  4.6579E-04  5.5573E-03
  8  0.0000E+00  2.1211E-03  3.4014E-03  7.6500E-05  4.3171E-03  0.0000E+00  0.0000E+00  1.8867E-03  0.0000E+00
  9  0.0000E+00  2.6601E-03  3.6815E-03  1.6654E-03  1.7557E-02  1.2164E-02  1.4872E-03  0.0000E+00  9.8042E-04
 10  0.0000E+00  4.5650E-03  0.0000E+00  6.0853E-04  1.5935E-02  7.2975E-03  1.0633E-04  4.5771E-03  0.0000E+00
 11  3.2523E-02  1.0599E-02  1.2881E-02  6.9666E-03  5.0272E-02  3.2774E-03  2.2826E-04  8.6712E-03  2.7084E-02
 12  0.0000E+00  1.1694E-02  2.6059E-02  9.2459E-03  4.2588E-02  5.0311E-04  2.7351E-03  8.5240E-03  0.0000E+00
 13  2.9177E-01  3.4118E-02  5.6662E-02  1.0197E-02  1.9088E-01  4.0058E-02  7.8039E-03  2.5125E-02  6.4009E-02
 14  0.0000E+00  1.2395E-01  0.0000E+00  2.8215E-02  0.0000E+00  5.9389E-01  1.0578E-02  6.2507E-02  0.0000E+00
 15  0.0000E+00  2.0382E-01  0.0000E+00  0.0000E+00  0.0000E+00  7.2035E-01  4.6244E-02  8.9890E-02  2.6275E-01
 16  0.0000E+00  4.3331E-01  1.3673E-01  0.0000E+00  3.3767E-03  1.3017E+00  2.8532E-01  0.0000E+00  2.6255E-01
 17  2.6759E+01  5.0689E-01  2.1051E+00  8.7429E-02  3.5527E-01  4.5097E-01  8.3023E-02  8.8232E-01  0.0000E+00
 18  0.0000E+00  1.1066E-03  6.0859E-04  4.7220E-04  4.4162E-03  4.1629E-03  6.5707E-05  0.0000E+00  8.1849E-04
 19  1.4930E-02  4.4613E-04  9.3040E-04  1.9791E-04  5.2396E-04  0.0000E+00  3.3580E-04  0.0000E+00  0.0000E+00
 20  0.0000E+00  6.1053E-04  0.0000E+00  5.8701E-05  1.0793E-03  4.8398E-03  2.8669E-04  4.5405E-05  2.1097E-03
 21  4.6335E-02  6.6910E-04  5.8253E-04  1.6707E-04  2.8381E-03  0.0000E+00  2.6538E-04  9.6896E-04  4.7342E-04
 22  0.0000E+00  1.0897E-03  0.0000E+00  5.6044E-04  1.8700E-03  1.5253E-03  0.0000E+00  2.3074E-03  4.3996E-03
 23  0.0000E+00  9.9892E-04  0.0000E+00  1.7009E-04  5.9909E-03  1.2209E-03  2.9329E-04  1.6264E-03  1.6624E-03
 24  0.0000E+00  1.9672E-03  2.0582E-03  2.6293E-03  9.5259E-03  0.0000E+00  0.0000E+00  3.5994E-04  5.6617E-03
 25  0.0000E+00  3.0022E-03  1.0814E-03  8.6613E-04  0.0000E+00  8.2936E-03  0.0000E+00  2.9756E-03  0.0000E+00
 26  0.0000E+00  3.8276E-03  0.0000E+00  3.8285E-04  0.0000E+00  5.7020E-03  2.7076E-04  2.6800E-03  7.7927E-03
 27  0.0000E+00  6.1953E-03  0.0000E+00  1.0201E-04  0.0000E+00  7.3985E-03  0.0000E+00  5.2376E-03  1.7335E-02
 28  0.0000E+00  2.8781E-02  0.0000E+00  8.2181E-03  7.4775E-02  0.0000E+00  3.6312E-03  1.3888E-02  6.6387E-02
 29  0.0000E+00  3.8988E-02  1.5762E-02  2.5542E-02  0.0000E+00  3.2362E-01  1.4981E-02  5.2995E-02  8.2923E-02
 30  0.0000E+00  7.2118E-02  0.0000E+00  9.2958E-03  2.1425E-01  1.4698E-02  8.3215E-03  0.0000E+00  4.0639E-02
 31  2.8193E+00  1.9048E-01  3.4975E-01  0.0000E+00  8.4456E-01  9.1349E-02  0.0000E+00  0.0000E+00  4.8461E-01
 32  0.0000E+00  1.6957E-01  4.3113E-01  4.6370E-02  0.0000E+00  5.3127E-01  0.0000E+00  1.3697E-01  0.0000E+00
 33  3.9843E+01  2.9764E+01  2.8422E+01  2.1837E+01  3.0034E+01  2.2674E+01  2.9129E+01  2.9473E+01  2.9744E+01
 34  0.0000E+00  4.7946E+01  4.4453E+01  6.8339E+01  4.9114E+01  4.6800E+01  5.1784E+01  3.2571E+01  5.0363E+01
 35  0.0000E+00  1.0728E-03  1.7842E-03  3.3930E-04  5.6584E-03  0.0000E+00  2.1950E-04  1.8871E-03  1.3289E-03
 36  4.2634E-02  2.5897E-04  4.3727E-04  1.7734E-04  0.0000E+00  0.0000E+00  7.5448E-05  4.0272E-04  6.5787E-04
 37  1.4413E-02  4.1870E-04  4.1314E-04  2.0763E-04  8.6601E-04  4.1760E-04  3.7144E-05  1.4202E-04  0.0000E+00
 38  0.0000E+00  9.3800E-04  0.0000E+00  1.8294E-04  0.0000E+00  1.3956E-03  3.4116E-04  1.3877E-03  3.4436E-04
 39  3.2647E-02  1.5488E-03  6.8442E-03  5.7289E-04  5.4203E-03  1.8555E-03  7.7428E-04  1.7832E-03  1.0755E-03
 40  0.0000E+00  2.0745E-03  0.0000E+00  0.0000E+00  0.0000E+00  1.1186E-03  3.5548E-04  0.0000E+00  1.9186E-03
 41  0.0000E+00  3.4129E-03  7.2817E-03  3.2302E-04  1.2744E-03  5.4945E-03  3.7163E-04  5.3505E-03  0.0000E+00
 42  0.0000E+00  5.6208E-03  0.0000E+00  3.5284E-03  4.3099E-03  4.6848E-02  1.1414E-03  5.9236E-03  2.3697E-02
 43  0.0000E+00  9.7988E-03  4.9480E-03  4.9629E-03  4.6294E-03  2.1219E-02  0.0000E+00  4.4486E-03  3.3983E-02
 44  0.0000E+00  1.6530E-02  1.6472E-02  2.0129E-03  1.6140E-02  7.3489E-02  6.1283E-03  1.1518E-02  4.3522E-02
 45  0.0000E+00  2.4666E-02  0.0000E+00  6.4900E-03  0.0000E+00  3.8864E-02  0.0000E+00  1.0359E-02  5.4085E-02
 46  0.0000E+00  6.4392E-02  0.0000E+00  4.3791E-02  1.7542E-01  2.0836E-01  0.0000E+00  2.8645E-02  2.2196E-01
 47  0.0000E+00  1.6787E-01  0.0000E+00  6.9786E-02  0.0000E+00  6.9007E-01  0.0000E+00  2.5141E-02  0.0000E+00
 48  0.0000E+00  2.7384E-01  5.2177E-01  0.0000E+00  1.2329E+00  1.0860E-01  0.0000E+00  2.7688E-01  1.6138E-01
 49  2.9927E+01  3.6949E+00  4.8825E+00  1.6621E+00  6.4728E+00  3.9802E+00  4.9102E+00  7.1475E+00  3.6342E+00
 50  0.0000E+00  3.0347E+00  1.8938E+00  1.1864E+00  2.5455E+00  3.5599E+00  2.1026E+00  4.9624E+00  4.2930E+00
 51  0.0000E+00  1.1599E-01  1.0840E-01  1.2303E-01  9.7364E-02  9.9402E-02  1.2651E-01  1.1306E-01  1.1336E-01
 52  1.8614E-03  2.0839E-04  5.4547E-04  4.8680E-05  2.1910E-04  7.3000E-04  1.9297E-04  1.8453E-04  0.0000E+00
 53  6.1710E-02  4.6408E-04  1.0898E-03  8.2655E-05  1.9549E-03  7.9030E-04  1.2309E-04  8.2605E-04  1.7729E-03
 54  0.0000E+00  6.8710E-04  7.8134E-04  0.0000E+00  3.4271E-03  0.0000E+00  9.3201E-05  4.9579E-05  1.7543E-04
 55  0.0000E+00  7.9799E-04  7.1328E-04  2.8679E-04  1.9336E-03  2.3427E-03  1.1527E-04  6.1710E-04  1.1614E-03
 56  0.0000E+00  3.0373E-03  0.0000E+00  1.6067E-03  0.0000E+00  2.3603E-03  1.3279E-03  2.9777E-03  1.9032E-03
 57  1.2725E-02  2.4714E-03  6.5477E-03  1.2541E-03  0.0000E+00  8.2543E-03  0.0000E+00  7.0120E-04  1.1528E-02
 58  0.0000E+00  4.7006E-03  3.1724E-03  0.0000E+00  2.7272E-02  0.0000E+00  4.5182E-05  0.0000E+00  7.0495E-03
 59  0.0000E+00  1.3013E-02  0.0000E+00  2.6800E-03  4.3883E-02  2.5776E-02  0.0000E+00  2.5051E-02  9.2051E-04
 60  0.0000E+00  1.8134E-02  6.0197E-03  1.2629E-02  9.6956E-02  0.0000E+00  2.8075E-03  4.8825E-02  0.0000E+00
 61  0.0000E+00  5.8724E-02  3.1142E-02  1.7364E-02  3.5950E-02  3.5708E-02  5.7999E-03  5.0270E-02  3.1854E-02
 62  9.5599E-02  9.0103E-02  1.2029E-01  4.1305E-02  0.0000E+00  0.0000E+00  9.5265E-03  3.0023E-02  1.2030E-01
 63  0.0000E+00  1.8501E-01  2.4954E-01  1.0975E-01  2.0459E-01  0.0000E+00  2.3010E-01  0.0000E+00  7.7273E-01
 64  0.0000E+00  4.3014E-01  1.1193E+00  7.6798E-01  5.6642E-01  2.9674E+00  3.0287E-01  1.6008E-01  0.0000E+00
 65  0.0000E+00  2.8258E+00  3.7319E+00  1.1664E+00  3.4834E+00  5.0845E+00  1.6544E+00  4.0725E+00  2.9238E+00
 66  0.0000E+00  9.3781E+00  1.1259E+01  4.3544E+00  3.9783E+00  9.4226E+00  9.2645E+00  1.9660E+01  6.0872E+00

# AV, chi2 & Mass for <> & i_chain = 1 ...  7 solutions
AV       0.3331     -0.1470     -0.1926     -0.1757     -0.1653     -0.1537     -0.1656     -0.1442     -0.1185
chi2 1.4921E-05  1.5457E-05  1.5376E-05  1.5450E-05  1.5395E-05  1.5419E-05  1.5434E-05  1.5422E-05  1.5422E-05
Mass 1.7368E-13  1.6041E-13  1.5774E-13  1.6180E-13  1.4643E-13  1.5322E-13  1.6433E-13  1.7053E-13  1.5714E-13
 282.43                                  [v0_min (km/s) before EX0s...]
 242.34                                  [vd_min (km/s) before EX0s...]


## Synthetic spectrum (Best Model) ##l_obs f_obs f_syn wei
 3478    [Nl_obs]
 3741.00    0.91241   0.91166    0.000
 3742.00    1.59308   0.94088    0.000
 3743.00    1.93606   0.96731    0.000
 3744.00    1.99441   0.98663    0.000
 3745.00    1.88691   0.99597   -1.000
 3746.00    1.87348   0.99392   -1.000
 3747.00    1.90781   0.98117   -1.000
 3748.00    0.76263   0.95945   -1.000
 3749.00   -0.90122   0.93159    0.000
 3750.00   -0.74074   0.90259    0.000
 3751.00    0.10849   0.87836   -1.000
 3752.00    1.33383   0.86356   -1.000
 3753.00    2.67970   0.86008   -1.000
 3754.00    2.07030   0.86763   -1.000
 3755.00    0.93692   0.88593   -1.000
 3756.00    1.07047   0.91324   -1.000
 3757.00    1.48210   0.94432   -1.000
 3758.00    1.19290   0.97263   -1.000
 3759.00    0.78135   0.99511   -1.000
 3760.00    0.35748   1.01190   -1.000
 3761.00   -0.06804   1.02350    0.000
 3762.00   -0.73261   1.03013    0.000
 3763.00   -1.41966   1.03256    0.000
 3764.00    0.04594   1.03278   -1.000
 3765.00    1.63571   1.03175   -1.000
 3766.00    1.50507   1.02764   -1.000
 3767.00    1.32679   1.01810   -1.000
 3768.00    0.32085   1.00280   -1.000
 3769.00   -0.62868   0.98294    0.000
 3770.00   -0.20814   0.96013    0.000
 3771.00    0.20703   0.93698   -1.000
 3772.00    0.55205   0.91768   -1.000
 3773.00    0.90592   0.90666   -1.000
 3774.00    1.33758   0.90577   -1.000
 3775.00    1.67390   0.91432   -1.000
 3776.00    1.39202   0.93190   -1.000
 3777.00    0.86434   0.95834   -1.000
 3778.00   -0.90744   0.99021    0.000
 3779.00   -2.25416   1.02225    0.000
 3780.00   -1.86100   1.05195    0.000
 3781.00   -1.09298   1.07863    0.000
 3782.00    0.94648   1.10127   -1.000
 3783.00    2.66060   1.11926   -1.000
 3784.00    3.44424   1.13258   -1.000
 3785.00    3.42102   1.14112   -1.000
 3786.00    1.42647   1.14396   -1.000
 3787.00    0.31654   1.14089   -1.000
 3788.00    1.07111   1.13334   -1.000
 3789.00    1.79139   1.12256   -1.000
 3790.00    2.44886   1.10879   -1.000
 3791.00    2.60109   1.09238   -1.000
 3792.00    1.94457   1.07430   -1.000
 3793.00    1.29917   1.05481   -1.000
 3794.00    0.66939   1.03252   -1.000
 3795.00    0.59938   1.00644   -1.000
 3796.00    1.22125   0.97684   -1.000
 3797.00    1.49292   0.94432   -1.000
 3798.00    1.38306   0.91076   -1.000
 3799.00    1.44502   0.88077   -1.000
 3800.00    1.67210   0.85995   -1.000
 3801.00    1.22916   0.85150   -1.000
 3802.00    0.21845   0.85580   -1.000
 3803.00   -0.48664   0.87258    0.000
 3804.00   -0.96366   0.90121    0.000
 3805.00   -0.24469   0.93772    0.000
 3806.00    1.25832   0.97514   -1.000
 3807.00    1.64543   1.00849   -1.000
 3808.00    1.39220   1.03709   -1.000
 3809.00    0.62001   1.06127   -1.000
 3810.00   -0.41157   1.08034    0.000
 3811.00   -0.20658   1.09427    0.000
 3812.00    0.53314   1.10423   -1.000
 3813.00    1.14784   1.11119   -1.000
 3814.00    1.71618   1.11447   -1.000
 3815.00    1.69140   1.11274   -1.000
 3816.00    1.48018   1.10610   -1.000
 3817.00    1.36389   1.09589   -1.000
 3818.00    1.27251   1.08283   -1.000
 3819.00    0.49637   1.06668   -1.000
 3820.00   -0.42649   1.04885    0.000
 3821.00    0.17614   1.03320   -1.000
 3822.00    1.03767   1.02235   -1.000
 3823.00    0.70903   1.01486   -1.000
 3824.00    0.22767   1.00809   -1.000
 3825.00    0.85570   1.00285   -1.000
 3826.00    1.58332   1.00175   -1.000
 3827.00    0.56893   1.00278   -1.000
 3828.00   -0.53909   1.00065    0.000
 3829.00   -0.08660   0.99291    0.000
 3830.00    0.40723   0.98044   -1.000
 3831.00    1.75071   0.96428   -1.000
 3832.00    3.02955   0.94358   -1.000
 3833.00    2.87259   0.91750   -1.000
 3834.00    2.67264   0.88704   -1.000
 3835.00    1.93804   0.85460   -1.000
 3836.00    1.21932   0.82363   -1.000
 3837.00    0.63479   0.79787   -1.000
 3838.00    0.18935   0.78049   -1.000
 3839.00    0.61901   0.77408   -1.000
 3840.00    1.03219   0.78032   -1.000
 3841.00    1.36412   0.79938   -1.000
 3842.00    1.53855   0.82914   -1.000
 3843.00    1.08248   0.86513   -1.000
 3844.00    0.81976   0.90345   -1.000
 3845.00    1.19984   0.94125   -1.000
 3846.00    1.45582   0.97610   -1.000
 3847.00    1.36331   1.00663    0.000
 3848.00    1.17677   1.03172    0.000
 3849.00    0.76437   1.05037    0.000
 3850.00    0.57099   1.06297    0.000
 3851.00    0.83183   1.07134    0.000
 3852.00    0.66148   1.07735    0.000
 3853.00   -0.28660   1.08116    0.000
 3854.00   -0.50766   1.08222    0.000
 3855.00    0.41785   1.08128    0.000
 3856.00    1.15081   1.07969    0.000
 3857.00    1.61721   1.07783    0.000
 3858.00    1.65961   1.07480    0.000
 3859.00    1.18538   1.07003    0.000
 3860.00    1.21965   1.06459    0.000
 3861.00    1.80014   1.06050    0.000
 3862.00    1.64868   1.05926    0.000
 3863.00    0.80373   1.06004    0.000
 3864.00    0.38011   1.06135    0.000
 3865.00    0.30850   1.06358    0.000
 3866.00    0.63511   1.06732    0.000
 3867.00    1.25464   1.07100    0.000
 3868.00    1.44186   1.07258    0.000
 3869.00    1.34985   1.07192    0.000
 3870.00    1.13560   1.06955    0.000
 3871.00    0.85227   1.06522    0.000
 3872.00    0.78407   1.05906    0.000
 3873.00    0.82169   1.05312    0.000
 3874.00    0.67535   1.04903    0.000
 3875.00    0.45078   1.04567    0.000
 3876.00    0.96337   1.04183    0.000
 3877.00    1.74448   1.03827    0.000
 3878.00    1.80210   1.03606    0.000
 3879.00    1.63669   1.03440    0.000
 3880.00    0.91032   1.03120    0.000
 3881.00    0.03993   1.02483   -1.000
 3882.00    0.32207   1.01517   -1.000
 3883.00    0.84516   1.00341   -1.000
 3884.00    0.84860   0.99047   -1.000
 3885.00    0.76636   0.97442   -1.000
 3886.00    0.61762   0.95247   -1.000
 3887.00    0.46065   0.92569   -1.000
 3888.00    1.38189   0.89724   -1.000
 3889.00    2.39540   0.86877   -1.000
 3890.00    2.42105   0.84245   -1.000
 3891.00    2.39746   0.82318   -1.000
 3892.00    1.57405   0.81502   -1.000
 3893.00    0.74663   0.81849   -1.000
 3894.00    0.50617   0.83335   -1.000
 3895.00    0.32442   0.85935   -1.000
 3896.00    1.34382   0.89263   -1.000
 3897.00    2.31034   0.92754   -1.000
 3898.00    2.65154   0.95972   -1.000
 3899.00    2.83499   0.98715   -1.000
 3900.00    1.73328   1.01016   -1.000
 3901.00    0.69311   1.02985   -1.000
 3902.00    0.02887   1.04585   -1.000
 3903.00   -0.38211   1.05705    0.000
 3904.00    0.42567   1.06504   -1.000
 3905.00    1.09815   1.07197   -1.000
 3906.00    1.24078   1.07793   -1.000
 3907.00    1.23005   1.08256   -1.000
 3908.00    0.71941   1.08710   -1.000
 3909.00    0.52925   1.09274   -1.000
 3910.00    1.22284   1.09857   -1.000
 3911.00    1.50283   1.10483   -1.000
 3912.00    0.80613   1.11240   -1.000
 3913.00    0.38772   1.11996   -1.000
 3914.00    0.53724   1.12557   -1.000
 3915.00    0.55407   1.12852   -1.000
 3916.00    0.33521   1.12912   -1.000
 3917.00    0.45155   1.12742   -1.000
 3918.00    1.08875   1.12288   -1.000
 3919.00    1.34963   1.11524   -1.000
 3920.00    1.09705   1.10508   -1.000
 3921.00    0.89008   1.09353   -1.000
 3922.00    0.73790   1.08212   -1.000
 3923.00    0.70235   1.07104   -1.000
 3924.00    0.79032   1.06009   -1.000
 3925.00    0.75260   1.05014   -1.000
 3926.00    0.59745   1.04145   -1.000
 3927.00    0.71334   1.03302   -1.000
 3928.00    1.05246   1.02296   -1.000
 3929.00    1.17394   1.01063   -1.000
 3930.00    1.13764   0.99595   -1.000
 3931.00    1.05967   0.97911   -1.000
 3932.00    0.95519   0.96138   -1.000
 3933.00    0.74565   0.94354   -1.000
 3934.00    0.47764   0.92684   -1.000
 3935.00    0.08037   0.91340   -1.000
 3936.00   -0.37949   0.90455    0.000
 3937.00   -0.60354   0.90099    0.000
 3938.00   -0.72901   0.90329    0.000
 3939.00   -0.38191   0.91235    0.000
 3940.00    0.13423   0.92735   -1.000
 3941.00    0.62178   0.94556    0.065
 3942.00    1.10068   0.96477    0.028
 3943.00    1.00908   0.98329    0.025
 3944.00    0.77418   0.99991    0.025
 3945.00    0.79975   1.01437    0.025
 3946.00    0.87843   1.02713    0.025
 3947.00    1.24046   1.03833    0.025
 3948.00    1.64786   1.04743    0.026
 3949.00    1.23085   1.05563    0.026
 3950.00    0.71541   1.06528    0.026
 3951.00    0.79118   1.07515    0.026
 3952.00    0.91509   1.08180    0.026
 3953.00    0.96769   1.08572    0.026
 3954.00    1.01701   1.08959    0.026
 3955.00    2.20736   1.09284    0.026
 3956.00    3.36693   1.09262    0.027
 3957.00    2.15940   1.08863    0.026
 3958.00    1.03577   1.08379    0.025
 3959.00    1.50167   1.07863    0.025
 3960.00    1.92576   1.06968    0.000
 3961.00    1.87852   1.05503    0.000
 3962.00    1.81461   1.03641    0.000
 3963.00    1.61955   1.01488    0.000
 3964.00    1.48837   0.98826    0.000
 3965.00    1.73618   0.95450    0.000
 3966.00    1.85676   0.91525    0.000
 3967.00    1.37990   0.87419    0.000
 3968.00    0.95441   0.83202    0.000
 3969.00    0.72578   0.78837    0.000
 3970.00    0.48334   0.74739    0.000
 3971.00    0.19674   0.71467    0.000
 3972.00    0.08366   0.69283    0.000
 3973.00    0.44049   0.68332    0.000
 3974.00    0.85385   0.68821    0.000
 3975.00    1.39848   0.70932    0.000
 3976.00    1.70577   0.74485    0.000
 3977.00    1.53636   0.78883    0.000
 3978.00    1.49314   0.83623    0.000
 3979.00    1.67065   0.88458    0.000
 3980.00    1.65695   0.93090    0.000
 3981.00    1.35055   0.97155    0.024
 3982.00    0.84741   1.00519    0.024
 3983.00    0.07968   1.03261    0.024
 3984.00   -0.32281   1.05486    0.000
 3985.00   -0.29278   1.07248    0.000
 3986.00    0.03276   1.08564    0.025
 3987.00    0.66685   1.09586    0.024
 3988.00    1.24222   1.10575    0.024
 3989.00    1.76348   1.11563    0.025
 3990.00    1.79798   1.12398    0.025
 3991.00    1.43728   1.13079    0.024
 3992.00    1.40946   1.13748    0.024
 3993.00    1.61948   1.14353    0.024
 3994.00    1.63807   1.14675    0.024
 3995.00    1.53663   1.14784    0.024
 3996.00    1.28833   1.14871    0.024
 3997.00    0.95955   1.14888    0.023
 3998.00    1.07047   1.14752    0.023
 3999.00    1.39085   1.14600    0.024
 4000.00    1.54706   1.14625    0.024
 4001.00    1.63578   1.14755    0.024
 4002.00    1.26096   1.14891    0.024
 4003.00    0.72333   1.15123    0.024
 4004.00    0.95526   1.15390    0.024
 4005.00    1.41520   1.15373    0.024
 4006.00    1.93027   1.15061    0.024
 4007.00    2.45889   1.14742    0.024
 4008.00    1.48523   1.14397    0.023
 4009.00    0.21288   1.13831    0.023
 4010.00    0.58752   1.13309    0.023
 4011.00    1.21808   1.13267    0.023
 4012.00    1.51999   1.13590    0.023
 4013.00    1.78411   1.13947    0.023
 4014.00    1.31351   1.14412    0.023
 4015.00    0.78611   1.15173    0.023
 4016.00    1.01917   1.16029    0.023
 4017.00    1.28426   1.16672    0.023
 4018.00    1.77962   1.17138    0.023
 4019.00    2.25068   1.17570    0.023
 4020.00    1.56481   1.17886    0.022
 4021.00    0.91416   1.17879    0.022
 4022.00    0.88446   1.17591    0.022
 4023.00    0.85955   1.17211    0.022
 4024.00    0.88603   1.16653    0.022
 4025.00    0.89274   1.15718    0.022
 4026.00    0.74928   1.14559    0.022
 4027.00    0.62477   1.13544    0.022
 4028.00    0.60954   1.12769    0.022
 4029.00    0.63970   1.12077    0.022
 4030.00    0.87784   1.11502    0.022
 4031.00    1.09831   1.11300    0.022
 4032.00    1.25251   1.11533    0.022
 4033.00    1.24217   1.11842    0.022
 4034.00    0.71593   1.11985    0.022
 4035.00    0.46160   1.12149    0.021
 4036.00    0.93061   1.12611    0.022
 4037.00    1.28576   1.13329    0.022
 4038.00    1.38089   1.14131    0.022
 4039.00    1.31102   1.14995    0.022
 4040.00    0.91498   1.15902    0.022
 4041.00    0.67779   1.16722    0.023
 4042.00    0.71427   1.17280    0.023
 4043.00    0.95442   1.17450    0.023
 4044.00    1.50182   1.17123    0.024
 4045.00    1.86090   1.16358    0.024
 4046.00    1.97035   1.15476    0.024
 4047.00    2.07159   1.14746    0.024
 4048.00    2.16321   1.14110    0.024
 4049.00    1.92251   1.13548    0.024
 4050.00    1.33965   1.13390    0.023
 4051.00    0.84893   1.13858    0.023
 4052.00    0.44187   1.14610    0.023
 4053.00    0.52355   1.15200    0.023
 4054.00    0.99640   1.15615    0.023
 4055.00    1.19690   1.15927    0.023
 4056.00    1.20563   1.16008    0.023
 4057.00    1.12913   1.15758    0.023
 4058.00    1.00000   1.15288    0.023
 4059.00    0.94735   1.14788    0.023
 4060.00    0.93597   1.14380    0.023
 4061.00    0.75383   1.14029    0.022
 4062.00    0.49167   1.13617    0.022
 4063.00    0.43000   1.13149    0.022
 4064.00    0.44934   1.12764    0.022
 4065.00    0.70828   1.12517    0.022
 4066.00    1.04984   1.12216    0.022
 4067.00    1.11099   1.11743    0.022
 4068.00    1.09070   1.11410    0.022
 4069.00    0.92874   1.11490    0.022
 4070.00    0.73276   1.11651    0.022
 4071.00    0.88822   1.11516    0.022
 4072.00    1.11178   1.11313    0.021
 4073.00    1.12882   1.11343    0.021
 4074.00    1.11473   1.11344    0.021
 4075.00    1.09053   1.10962    0.021
 4076.00    1.06521   1.10426    0.021
 4077.00    1.08833   1.10156    0.021
 4078.00    1.11499   1.10061    0.020
 4079.00    0.90002   1.09860    0.021
 4080.00    0.67580   1.09718    0.021
 4081.00    0.86574   1.09936    0.021
 4082.00    1.05059   1.10458    0.021
 4083.00    0.95695   1.11075    0.021
 4084.00    0.85129   1.11730    0.021
 4085.00    0.54740   1.12392    0.021
 4086.00    0.29028   1.12942    0.021
 4087.00    0.51457   1.13313    0.021
 4088.00    0.74674   1.13539    0.021
 4089.00    1.03675   1.13671    0.021
 4090.00    1.34082   1.13781    0.021
 4091.00    1.72384   1.13865    0.021
 4092.00    1.94589   1.13754    0.000
 4093.00    1.44769   1.13377    0.000
 4094.00    1.04235   1.12815    0.000
 4095.00    0.97811   1.11916    0.000
 4096.00    1.05779   1.10419    0.000
 4097.00    1.58006   1.08418    0.000
 4098.00    1.83439   1.06092    0.000
 4099.00    1.38841   1.03312    0.000
 4100.00    1.05621   1.00007    0.000
 4101.00    0.97951   0.96463    0.000
 4102.00    1.10304   0.93133    0.000
 4103.00    1.61619   0.90361    0.000
 4104.00    1.87803   0.88236    0.000
 4105.00    1.71346   0.86908    0.000
 4106.00    1.45351   0.86845    0.000
 4107.00    1.05176   0.88232    0.000
 4108.00    0.99808   0.90558    0.000
 4109.00    1.39920   0.93321    0.000
 4110.00    1.54078   0.96359    0.000
 4111.00    1.38361   0.99412    0.000
 4112.00    1.42432   1.02131    0.000
 4113.00    1.66591   1.04405    0.022
 4114.00    1.66827   1.06268    0.021
 4115.00    1.45644   1.07734    0.021
 4116.00    1.51902   1.08885    0.021
 4117.00    1.79810   1.09824    0.021
 4118.00    1.65302   1.10477    0.021
 4119.00    1.21358   1.10752    0.021
 4120.00    1.02020   1.10812    0.021
 4121.00    0.97654   1.10818    0.021
 4122.00    0.96907   1.10690    0.021
 4123.00    0.98084   1.10475    0.021
 4124.00    1.07939   1.10440    0.021
 4125.00    1.21797   1.10656    0.021
 4126.00    1.28258   1.10971    0.021
 4127.00    1.31783   1.11280    0.020
 4128.00    1.33723   1.11567    0.020
 4129.00    1.35126   1.11783    0.020
 4130.00    1.09113   1.11789    0.020
 4131.00    0.75298   1.11502    0.020
 4132.00    0.66226   1.11035    0.020
 4133.00    0.62962   1.10600    0.020
 4134.00    0.92317   1.10246    0.020
 4135.00    1.27828   1.09989    0.020
 4136.00    1.21190   1.09945    0.020
 4137.00    1.08397   1.10194    0.019
 4138.00    0.91828   1.10667    0.019
 4139.00    0.74857   1.11262    0.019
 4140.00    1.26662   1.11813    0.020
 4141.00    1.83224   1.12120    0.020
 4142.00    1.56734   1.12093    0.020
 4143.00    1.27379   1.11655    0.019
 4144.00    0.62068   1.10892    0.020
 4145.00   -0.01411   1.10073    0.000
 4146.00   -0.02034   1.09238    0.000
 4147.00    0.00692   1.08383    0.020
 4148.00    0.55198   1.07961    0.020
 4149.00    1.05045   1.08196    0.020
 4150.00    1.08972   1.08625    0.020
 4151.00    1.09644   1.09025    0.020
 4152.00    0.87207   1.09528    0.020
 4153.00    0.68312   1.09974    0.020
 4154.00    0.68754   1.10182    0.019
 4155.00    0.71107   1.10299    0.019
 4156.00    0.81810   1.10345    0.019
 4157.00    0.95846   1.10294    0.019
 4158.00    1.21866   1.10358    0.019
 4159.00    1.37578   1.10664    0.019
 4160.00    1.22185   1.11026    0.019
 4161.00    1.09129   1.11417    0.020
 4162.00    1.02073   1.11973    0.020
 4163.00    1.02655   1.12580    0.020
 4164.00    1.20106   1.12992    0.019
 4165.00    1.39215   1.13224    0.020
 4166.00    1.61500   1.13410    0.020
 4167.00    1.67266   1.13416    0.021
 4168.00    1.45423   1.13124    0.020
 4169.00    1.16752   1.12724    0.020
 4170.00    0.78080   1.12330    0.020
 4171.00    0.76715   1.11767    0.020
 4172.00    1.23401   1.11032    0.020
 4173.00    1.12300   1.10367    0.020
 4174.00    0.35623   1.09812    0.020
 4175.00    0.26142   1.09208    0.020
 4176.00    0.83913   1.08584    0.020
 4177.00    1.35542   1.08185    0.020
 4178.00    1.81750   1.08065    0.020
 4179.00    1.66324   1.08109    0.020
 4180.00    1.02964   1.08260    0.020
 4181.00    0.82027   1.08499    0.020
 4182.00    0.90102   1.08800    0.019
 4183.00    1.04437   1.09188    0.019
 4184.00    1.22524   1.09567    0.019
 4185.00    1.24928   1.09782    0.020
 4186.00    1.19129   1.09868    0.020
 4187.00    1.04724   1.09919    0.020
 4188.00    0.86415   1.09942    0.020
 4189.00    1.07050   1.09959    0.020
 4190.00    1.42881   1.09899    0.020
 4191.00    1.72009   1.09756    0.020
 4192.00    1.98911   1.09812    0.020
 4193.00    1.77793   1.10109    0.019
 4194.00    1.43292   1.10303    0.019
 4195.00    1.24363   1.10271    0.019
 4196.00    1.09006   1.10275    0.019
 4197.00    0.83843   1.10297    0.019
 4198.00    0.56877   1.09943    0.019
 4199.00    0.55061   1.09221    0.019
 4200.00    0.56802   1.08552    0.019
 4201.00    1.22007   1.07996    0.019
 4202.00    1.93683   1.07348    0.018
 4203.00    2.02877   1.06885    0.018
 4204.00    2.08000   1.06865    0.018
 4205.00    2.01101   1.07042    0.018
 4206.00    1.93742   1.07361    0.018
 4207.00    1.27545   1.08036    0.018
 4208.00    0.63371   1.08886    0.018
 4209.00    0.58599   1.09638    0.018
 4210.00    0.56336   1.10351    0.018
 4211.00    0.90599   1.11050    0.018
 4212.00    1.22749   1.11583    0.018
 4213.00    1.34930   1.11839    0.018
 4214.00    1.43942   1.11889    0.018
 4215.00    1.31179   1.11818    0.018
 4216.00    1.18001   1.11647    0.018
 4217.00    1.02620   1.11470    0.018
 4218.00    0.92654   1.11330    0.018
 4219.00    1.05814   1.11154    0.018
 4220.00    1.25017   1.11142    0.018
 4221.00    1.65507   1.11417    0.018
 4222.00    1.98298   1.11554    0.017
 4223.00    2.08289   1.11317    0.018
 4224.00    2.02737   1.10926    0.018
 4225.00    1.57961   1.10314    0.018
 4226.00    1.21481   1.09150    0.017
 4227.00    1.03029   1.07694    0.017
 4228.00    0.96985   1.06473    0.017
 4229.00    1.14344   1.05498    0.017
 4230.00    1.26085   1.04665    0.017
 4231.00    1.28578   1.04436    0.017
 4232.00    1.19549   1.05048    0.017
 4233.00    0.93889   1.05871    0.017
 4234.00    0.78302   1.06625    0.017
 4235.00    0.75503   1.07509    0.016
 4236.00    0.76198   1.08175    0.016
 4237.00    0.80801   1.08425    0.017
 4238.00    0.85175   1.08643    0.017
 4239.00    0.89323   1.08749    0.017
 4240.00    1.08539   1.08603    0.016
 4241.00    1.40870   1.08697    0.017
 4242.00    1.53636   1.09060    0.017
 4243.00    1.51403   1.09350    0.017
 4244.00    1.44587   1.09754    0.017
 4245.00    1.34681   1.10386    0.018
 4246.00    1.24154   1.10791    0.018
 4247.00    1.13261   1.10920    0.018
 4248.00    1.28476   1.11084    0.018
 4249.00    1.57133   1.11035    0.018
 4250.00    1.25570   1.10500    0.019
 4251.00    0.67139   1.09815    0.019
 4252.00    0.42027   1.09320    0.019
 4253.00    0.29690   1.08791    0.018
 4254.00    0.68429   1.08092    0.018
 4255.00    1.23814   1.07686    0.018
 4256.00    1.38149   1.07703    0.018
 4257.00    1.41278   1.07646    0.018
 4258.00    0.98982   1.07472    0.018
 4259.00    0.46506   1.07540    0.018
 4260.00    0.39868   1.07778    0.018
 4261.00    0.41427   1.07898    0.018
 4262.00    0.76540   1.07926    0.019
 4263.00    1.16245   1.08069    0.019
 4264.00    0.86391   1.08266    0.019
 4265.00    0.49742   1.08548    0.019
 4266.00    0.32563   1.08998    0.018
 4267.00    0.16576   1.09301    0.018
 4268.00    0.63547   1.09327    0.018
 4269.00    1.11963   1.09298    0.018
 4270.00    1.10646   1.08957    0.018
 4271.00    1.08259   1.08022    0.018
 4272.00    0.77591   1.07018    0.018
 4273.00    0.51591   1.06201    0.018
 4274.00    0.89754   1.05191    0.018
 4275.00    1.23326   1.04131    0.018
 4276.00    1.15198   1.03671    0.018
 4277.00    1.09931   1.03779    0.018
 4278.00    1.23723   1.03952    0.018
 4279.00    1.30549   1.04345    0.018
 4280.00    1.01308   1.05149    0.018
 4281.00    0.78014   1.05998    0.017
 4282.00    0.79545   1.06652   -2.000
 4283.00    0.92470   1.07087   -2.000
 4284.00    1.44736   1.07293   -2.000
 4285.00    1.79610   1.07323   -2.000
 4286.00    1.63934   1.07112   -2.000
 4287.00    1.47125   1.06745   -2.000
 4288.00    1.27510   1.06318   -2.000
 4289.00    0.99252   1.05682   -2.000
 4290.00    0.52515   1.05009   -2.000
 4291.00    0.28942   1.04535   -2.000
 4292.00    0.48378   1.04100   -2.000
 4293.00    0.73594   1.03624   -2.000
 4294.00    1.08185   1.03317   -2.000
 4295.00    1.29222   1.03263   -2.000
 4296.00    1.30980   1.03280   -2.000
 4297.00    1.21443   1.03144   -2.000
 4298.00    0.97771   1.02757    0.017
 4299.00    0.94346   1.02232    0.017
 4300.00    1.13254   1.01501    0.017
 4301.00    1.29297   1.00499    0.017
 4302.00    1.42550   0.99369    0.017
 4303.00    1.28035   0.98149    0.016
 4304.00    0.89694   0.97083    0.016
 4305.00    0.75961   0.96312    0.016
 4306.00    0.80823   0.95593    0.016
 4307.00    0.83599   0.94975    0.016
 4308.00    0.84991   0.94656    0.016
 4309.00    0.81673   0.94478    0.016
 4310.00    0.75617   0.94380    0.016
 4311.00    0.92816   0.94454    0.016
 4312.00    1.21801   0.94776    0.016
 4313.00    1.26462   0.95506    0.015
 4314.00    1.20450   0.96602    0.015
 4315.00    1.11358   0.98009    0.015
 4316.00    1.01107   0.99839    0.015
 4317.00    1.17339   1.01944    0.015
 4318.00    1.42039   1.04022    0.015
 4319.00    1.49755   1.06087    0.016
 4320.00    1.52932   1.08027    0.016
 4321.00    1.44242   1.09391    0.016
 4322.00    1.32955   1.10145    0.016
 4323.00    1.17297   1.10397    0.016
 4324.00    1.00878   1.10004    0.016
 4325.00    0.85015   1.09055    0.016
 4326.00    0.69226   1.07885    0.016
 4327.00    0.87202   1.06662    0.016
 4328.00    1.08333   1.05583    0.016
 4329.00    1.21259   1.04834    0.016
 4330.00    1.33716   1.04524    0.000
 4331.00    1.18724   1.04754    0.000
 4332.00    1.03552   1.05267    0.000
 4333.00    1.41052   1.05718    0.000
 4334.00    1.76586   1.05984    0.000
 4335.00    1.64929   1.05989    0.000
 4336.00    1.53550   1.05427    0.000
 4337.00    1.45812   1.03987    0.000
 4338.00    1.34871   1.01935    0.000
 4339.00    0.95943   0.99493    0.000
 4340.00    0.62638   0.96415    0.000
 4341.00    0.65646   0.93068    0.000
 4342.00    0.68295   0.90353    0.000
 4343.00    0.69129   0.88270    0.000
 4344.00    0.74235   0.86743    0.000
 4345.00    0.96781   0.86664    0.000
 4346.00    1.10795   0.87999    0.000
 4347.00    0.95944   0.89795    0.000
 4348.00    0.95372   0.92107    0.000
 4349.00    1.35550   0.95058    0.000
 4350.00    1.53486   0.97759    0.000
 4351.00    1.17197   0.99773    0.017
 4352.00    0.95500   1.01503    0.016
 4353.00    1.04498   1.02996    0.016
 4354.00    1.07246   1.03909    0.016
 4355.00    0.98569   1.04372    0.017
 4356.00    0.99524   1.04980    0.017
 4357.00    1.15871   1.05828    0.017
 4358.00    1.26958   1.06506    0.017
 4359.00    1.30671   1.07151    0.017
 4360.00    1.23855   1.08136    0.017
 4361.00    1.04049   1.09173    0.017
 4362.00    1.06945   1.09910    0.017
 4363.00    1.34532   1.10553    0.017
 4364.00    1.36064   1.11314    0.017
 4365.00    1.12603   1.11981    0.017
 4366.00    1.01557   1.12350    0.017
 4367.00    1.01012   1.12548    0.016
 4368.00    1.08454   1.12730    0.016
 4369.00    1.21847   1.12738    0.017
 4370.00    1.23737   1.12361    0.017
 4371.00    1.18100   1.11819    0.017
 4372.00    1.08387   1.11372    0.017
 4373.00    0.96338   1.10830    0.017
 4374.00    1.04550   1.10108    0.017
 4375.00    1.22868   1.09508    0.017
 4376.00    1.12018   1.09114    0.017
 4377.00    0.88580   1.08743    0.016
 4378.00    0.78309   1.08424    0.017
 4379.00    0.72909   1.08267    0.017
 4380.00    0.80019   1.08195    0.016
 4381.00    0.91052   1.08075    0.016
 4382.00    0.90823   1.07776    0.016
 4383.00    0.87647   1.07164    0.016
 4384.00    0.94860   1.06295    0.016
 4385.00    1.04292   1.05306    0.016
 4386.00    0.88492   1.04129    0.016
 4387.00    0.68425   1.02832    0.016
 4388.00    0.81410   1.01913    0.016
 4389.00    0.98618   1.01581    0.016
 4390.00    1.11320   1.01499    0.016
 4391.00    1.23621   1.01643    0.016
 4392.00    1.20575   1.02371    0.016
 4393.00    1.16712   1.03482    0.016
 4394.00    0.92229   1.04392    0.016
 4395.00    0.67854   1.05265    0.016
 4396.00    0.85106   1.06383    0.016
 4397.00    1.02006   1.07344    0.016
 4398.00    1.11172   1.07995    0.016
 4399.00    1.19118   1.08633    0.016
 4400.00    1.11972   1.09199    0.016
 4401.00    1.03317   1.09429    0.016
 4402.00    0.81967   1.09447    0.016
 4403.00    0.64125   1.09402    0.016
 4404.00    0.68272   1.09030    0.016
 4405.00    0.70910   1.08472    0.016
 4406.00    0.66132   1.08084    0.016
 4407.00    0.62103   1.07539    0.016
 4408.00    0.61064   1.06886    0.016
 4409.00    0.65101   1.06802    0.016
 4410.00    0.85969   1.07079    0.016
 4411.00    1.00100   1.07159    0.016
 4412.00    0.95354   1.07494    0.016
 4413.00    0.93576   1.08377    0.016
 4414.00    0.98915   1.09039    0.016
 4415.00    0.97680   1.09266    0.016
 4416.00    0.82840   1.09640    0.016
 4417.00    0.74015   1.09942    0.016
 4418.00    0.76019   1.09765    0.016
 4419.00    0.83787   1.09667    0.016
 4420.00    1.00632   1.09895    0.016
 4421.00    1.06052   1.09989    0.016
 4422.00    0.95687   1.10112    0.016
 4423.00    0.92898   1.10568    0.016
 4424.00    0.99322   1.10992    0.016
 4425.00    1.12087   1.11215    0.016
 4426.00    1.31650   1.11388    0.016
 4427.00    1.29488   1.11488    0.016
 4428.00    1.06780   1.11490    0.015
 4429.00    0.94910   1.11385    0.015
 4430.00    0.92076   1.11206    0.015
 4431.00    0.82207   1.11062    0.015
 4432.00    0.67173   1.10950    0.016
 4433.00    0.56176   1.10695    0.016
 4434.00    0.47783   1.10327    0.016
 4435.00    0.60129   1.10118    0.016
 4436.00    0.84173   1.09956    0.016
 4437.00    0.92152   1.09672    0.016
 4438.00    0.92244   1.09571    0.016
 4439.00    0.86931   1.09726    0.016
 4440.00    0.79325   1.09932    0.015
 4441.00    0.70137   1.10178    0.015
 4442.00    0.60373   1.10498    0.015
 4443.00    0.71522   1.10810    0.015
 4444.00    0.89102   1.11000    0.015
 4445.00    1.05123   1.11147    0.015
 4446.00    1.20745   1.11289    0.015
 4447.00    1.00395   1.11345    0.015
 4448.00    0.72547   1.11516    0.015
 4449.00    0.49409   1.11842    0.015
 4450.00    0.27044   1.12026    0.015
 4451.00    0.50667   1.12169    0.015
 4452.00    0.79960   1.12401    0.015
 4453.00    0.81990   1.12351    0.015
 4454.00    0.81702   1.11957    0.015
 4455.00    0.77628   1.11524    0.015
 4456.00    0.73368   1.10973    0.015
 4457.00    0.97326   1.10195    0.015
 4458.00    1.21216   1.09370    0.015
 4459.00    1.12674   1.08641    0.015
 4460.00    1.03135   1.08085    0.015
 4461.00    0.73420   1.07589    0.000
 4462.00    0.48132   1.07167    0.000
 4463.00    0.74877   1.07110    0.000
 4464.00    0.98881   1.07241    0.000
 4465.00    1.00650   1.07279    0.000
 4466.00    0.97579   1.07507    0.000
 4467.00    0.65049   1.07927    0.000
 4468.00    0.38131   1.08103    0.000
 4469.00    0.38130   1.08150    0.000
 4470.00    0.44263   1.08305    0.000
 4471.00    0.74351   1.08266    0.000
 4472.00    0.99269   1.08084    0.000
 4473.00    1.07377   1.08153    0.000
 4474.00    1.15204   1.08392    0.000
 4475.00    1.22260   1.08717    0.000
 4476.00    1.22204   1.09393    0.000
 4477.00    1.05393   1.10342    0.000
 4478.00    0.90886   1.11205    0.000
 4479.00    0.81072   1.12001    0.000
 4480.00    0.86523   1.12724    0.000
 4481.00    1.19034   1.13085    0.000
 4482.00    1.36932   1.13107    0.015
 4483.00    1.32168   1.13014    0.015
 4484.00    1.27946   1.12829    0.015
 4485.00    1.24462   1.12625    0.015
 4486.00    1.15996   1.12600    0.014
 4487.00    1.01556   1.12759    0.014
 4488.00    0.91755   1.12985    0.014
 4489.00    0.86859   1.13262    0.014
 4490.00    0.85037   1.13530    0.014
 4491.00    0.86083   1.13632    0.014
 4492.00    0.88049   1.13583    0.014
 4493.00    0.90771   1.13462    0.014
 4494.00    0.98577   1.13253    0.014
 4495.00    1.10062   1.13026    0.014
 4496.00    1.05224   1.12868    0.014
 4497.00    0.90016   1.12759    0.015
 4498.00    0.81208   1.12747    0.015
 4499.00    0.75953   1.12912    0.014
 4500.00    0.84127   1.13191    0.014
 4501.00    0.98787   1.13545    0.015
 4502.00    1.06971   1.14069    0.015
 4503.00    1.12453   1.14739    0.014
 4504.00    1.11341   1.15388    0.015
 4505.00    1.07875   1.16034    0.015
 4506.00    1.09095   1.16768    0.015
 4507.00    1.11728   1.17408    0.015
 4508.00    1.18558   1.17836    0.015
 4509.00    1.26440   1.18198    0.015
 4510.00    1.38431   1.18441    0.015
 4511.00    1.51258   1.18421    0.014
 4512.00    1.49261   1.18244    0.014
 4513.00    1.44900   1.18005    0.014
 4514.00    1.23129   1.17622    0.014
 4515.00    0.99289   1.17115    0.014
 4516.00    1.08320   1.16644    0.014
 4517.00    1.20012   1.16190    0.015
 4518.00    1.28060   1.15705    0.015
 4519.00    1.35942   1.15349    0.014
 4520.00    1.11749   1.15117    0.014
 4521.00    0.88025   1.14891    0.014
 4522.00    1.08322   1.14718    0.014
 4523.00    1.27260   1.14562    0.014
 4524.00    1.20708   1.14330    0.014
 4525.00    1.13634   1.13946    0.014
 4526.00    1.00714   1.13364    0.014
 4527.00    0.89424   1.12687    0.014
 4528.00    0.90888   1.11873    0.014
 4529.00    0.95326   1.10891    0.014
 4530.00    1.17347   1.09977    0.014
 4531.00    1.35860   1.09172    0.014
 4532.00    1.37951   1.08455    0.014
 4533.00    1.32395   1.07980    0.015
 4534.00    0.97617   1.07737    0.014
 4535.00    0.76860   1.07692    0.014
 4536.00    1.00810   1.07888    0.014
 4537.00    1.14486   1.08267    0.014
 4538.00    1.00399   1.08759    0.014
 4539.00    0.88936   1.09372    0.014
 4540.00    0.83553   1.10091    0.014
 4541.00    0.90777   1.10760    0.014
 4542.00    1.23271   1.11332    0.015
 4543.00    1.43271   1.11881    0.014
 4544.00    1.41458   1.12243    0.014
 4545.00    1.32372   1.12382    0.014
 4546.00    1.12171   1.12480    0.014
 4547.00    1.06595   1.12442    0.014
 4548.00    1.20652   1.12242    0.014
 4549.00    1.25434   1.12022    0.014
 4550.00    1.19255   1.11783    0.000
 4551.00    1.12788   1.11515    0.000
 4552.00    1.06020   1.11174    0.000
 4553.00    1.04844   1.10876    0.000
 4554.00    1.08809   1.10762    0.000
 4555.00    1.13632   1.10611    0.000
 4556.00    1.19150   1.10532    0.000
 4557.00    1.23041   1.10797    0.000
 4558.00    1.25773   1.11141    0.000
 4559.00    1.25147   1.11544    0.000
 4560.00    1.22421   1.12208    0.000
 4561.00    1.33571   1.12892    0.000
 4562.00    1.52310   1.13479    0.000
 4563.00    1.47742   1.14022    0.000
 4564.00    1.32093   1.14397    0.000
 4565.00    1.20453   1.14579    0.000
 4566.00    1.10456   1.14603    0.000
 4567.00    1.05113   1.14517    0.000
 4568.00    1.01400   1.14380    0.000
 4569.00    1.08866   1.14252    0.000
 4570.00    1.19636   1.14225    0.000
 4571.00    1.33635   1.14198    0.000
 4572.00    1.48425   1.14192    0.000
 4573.00    1.23988   1.14372    0.000
 4574.00    0.91777   1.14450    0.000
 4575.00    0.96353   1.14412    0.000
 4576.00    1.06625   1.14583    0.000
 4577.00    0.94169   1.14645    0.000
 4578.00    0.79112   1.14483    0.000
 4579.00    0.89236   1.14435    0.000
 4580.00    1.01294   1.14285    0.000
 4581.00    0.70345   1.13892    0.000
 4582.00    0.37606   1.13520    0.000
 4583.00    0.97414   1.13104    0.000
 4584.00    1.56573   1.12627    0.000
 4585.00    1.53365   1.12291    0.000
 4586.00    1.49042   1.12037    0.000
 4587.00    1.25207   1.11885    0.000
 4588.00    1.04051   1.11952    0.000
 4589.00    1.11549   1.12092    0.000
 4590.00    1.19749   1.12273    0.000
 4591.00    1.33256   1.12529    0.000
 4592.00    1.41682   1.12710    0.000
 4593.00    1.20902   1.12805    0.000
 4594.00    0.99879   1.12819    0.000
 4595.00    0.77751   1.12695    0.000
 4596.00    0.63399   1.12531    0.000
 4597.00    0.78134   1.12339    0.000
 4598.00    0.93041   1.12097    0.000
 4599.00    1.08489   1.11955    0.000
 4600.00    1.19505   1.11870    0.000
 4601.00    1.18755   1.11775    0.000
 4602.00    1.15905   1.11819    0.000
 4603.00    1.08269   1.11892    0.000
 4604.00    1.02645   1.11943    0.000
 4605.00    1.00990   1.12136    0.000
 4606.00    0.99588   1.12363    0.000
 4607.00    0.98622   1.12608    0.000
 4608.00    0.91128   1.12992    0.000
 4609.00    0.73806   1.13438    0.000
 4610.00    0.76756   1.13886    0.000
 4611.00    1.06533   1.14371    0.000
 4612.00    1.29632   1.14861    0.000
 4613.00    1.44948   1.15215    0.000
 4614.00    1.53583   1.15482    0.000
 4615.00    1.55351   1.15733    0.000
 4616.00    1.43186   1.15772    0.000
 4617.00    1.18389   1.15751    0.000
 4618.00    1.01352   1.15819    0.000
 4619.00    0.90513   1.15694    0.000
 4620.00    1.06087   1.15604    0.000
 4621.00    1.40227   1.15698    0.000
 4622.00    1.38701   1.15601    0.000
 4623.00    1.15186   1.15573    0.000
 4624.00    0.99899   1.15753    0.000
 4625.00    0.89044   1.15741    0.000
 4626.00    1.06461   1.15731    0.000
 4627.00    1.37103   1.15877    0.000
 4628.00    1.44410   1.15851    0.000
 4629.00    1.42311   1.15721    0.000
 4630.00    1.42638   1.15667    0.000
 4631.00    1.43800   1.15545    0.000
 4632.00    1.46278   1.15295    0.000
 4633.00    1.49138   1.15052    0.000
 4634.00    1.38896   1.14860    0.000
 4635.00    1.25515   1.14573    0.000
 4636.00    1.30295   1.14211    0.000
 4637.00    1.38583   1.13905    0.000
 4638.00    1.33958   1.13559    0.000
 4639.00    1.27394   1.13137    0.000
 4640.00    1.19635   1.12735    0.000
 4641.00    1.11745   1.12374    0.000
 4642.00    1.30286   1.12049    0.000
 4643.00    1.50750   1.11711    0.000
 4644.00    1.41306   1.11434    0.000
 4645.00    1.30732   1.11223    0.000
 4646.00    1.15532   1.10890    0.000
 4647.00    1.01092   1.10536    0.000
 4648.00    1.15634   1.10221    0.000
 4649.00    1.29080   1.09768    0.000
 4650.00    1.24603   1.09347    0.000
 4651.00    1.22308   1.09092    0.000
 4652.00    1.42353   1.08899    0.000
 4653.00    1.57124   1.08886    0.000
 4654.00    1.33348   1.09067    0.000
 4655.00    1.12816   1.09385    0.000
 4656.00    1.10422   1.09864    0.000
 4657.00    1.09803   1.10341    0.000
 4658.00    1.17107   1.10885    0.000
 4659.00    1.25172   1.11534    0.000
 4660.00    1.36021   1.12055    0.000
 4661.00    1.47178   1.12566    0.000
 4662.00    1.59280   1.13069    0.000
 4663.00    1.61610   1.13326    0.000
 4664.00    1.38456   1.13385    0.000
 4665.00    1.23532   1.13260    0.000
 4666.00    1.27055   1.12831    0.000
 4667.00    1.33631   1.12160    0.000
 4668.00    1.46136   1.11428    0.000
 4669.00    1.45661   1.10638    0.000
 4670.00    1.23203   1.09853    0.000
 4671.00    1.10046   1.09349    0.000
 4672.00    1.10689   1.09091    0.000
 4673.00    1.18584   1.08992    0.000
 4674.00    1.35938   1.09235    0.000
 4675.00    1.40657   1.09674    0.000
 4676.00    1.30860   1.10113    0.000
 4677.00    1.18661   1.10629    0.000
 4678.00    1.04028   1.11076    0.000
 4679.00    1.00946   1.11364    0.000
 4680.00    1.08188   1.11562    0.000
 4681.00    1.19282   1.11592    0.000
 4682.00    1.33409   1.11501    0.000
 4683.00    1.33627   1.11398    0.000
 4684.00    1.24211   1.11217    0.000
 4685.00    1.16067   1.11015    0.000
 4686.00    1.08696   1.10951    0.000
 4687.00    1.08372   1.10911    0.000
 4688.00    1.11784   1.10843    0.000
 4689.00    1.23931   1.10949    0.000
 4690.00    1.40096   1.11088    0.000
 4691.00    1.33420   1.11135    0.000
 4692.00    1.17694   1.11324    0.000
 4693.00    1.26935   1.11545    0.000
 4694.00    1.44606   1.11653    0.000
 4695.00    1.33224   1.11870    0.000
 4696.00    1.13597   1.12090    0.000
 4697.00    0.97288   1.12159    0.000
 4698.00    0.81757   1.12218    0.000
 4699.00    0.83932   1.12187    0.000
 4700.00    0.89438   1.11985    0.000
 4701.00    0.93469   1.11651    0.000
 4702.00    0.97287   1.11223    0.000
 4703.00    1.01304   1.10775    0.000
 4704.00    1.05343   1.10268    0.000
 4705.00    0.99043   1.09781    0.000
 4706.00    0.92034   1.09440    0.000
 4707.00    0.90410   1.09167    0.000
 4708.00    0.88970   1.08971    0.000
 4709.00    0.96859   1.08874    0.000
 4710.00    1.04487   1.08853    0.000
 4711.00    1.03180   1.08928    0.000
 4712.00    1.02618   1.08984    0.000
 4713.00    1.13494   1.09066    0.000
 4714.00    1.23509   1.09313    0.000
 4715.00    1.25084   1.09514    0.000
 4716.00    1.25356   1.09726    0.000
 4717.00    1.16414   1.10163    0.000
 4718.00    1.09241   1.10604    0.000
 4719.00    1.11688   1.11086    0.000
 4720.00    1.15095   1.11740    0.000
 4721.00    1.22684   1.12383    0.000
 4722.00    1.28751   1.13009    0.000
 4723.00    1.29364   1.13612    0.000
 4724.00    1.27338   1.14062    0.000
 4725.00    1.17367   1.14358    0.000
 4726.00    1.09654   1.14487    0.000
 4727.00    1.07727   1.14393    0.000
 4728.00    1.14511   1.14090    0.000
 4729.00    1.40497   1.13663    0.000
 4730.00    1.52076   1.13096    0.000
 4731.00    1.36114   1.12454    0.000
 4732.00    1.21170   1.11921    0.000
 4733.00    1.07925   1.11406    0.000
 4734.00    1.00700   1.10982    0.000
 4735.00    1.02277   1.10887    0.000
 4736.00    1.10286   1.10870    0.000
 4737.00    1.26567   1.10880    0.000
 4738.00    1.27727   1.11197    0.000
 4739.00    1.11761   1.11453    0.000
 4740.00    0.99325   1.11600    0.000
 4741.00    0.90418   1.11993    0.000
 4742.00    0.94624   1.12240    0.000
 4743.00    1.10385   1.12353    0.000
 4744.00    1.26159   1.12679    0.000
 4745.00    1.41943   1.12928    0.000
 4746.00    1.37388   1.13108    0.000
 4747.00    1.18952   1.13370    0.000
 4748.00    1.13605   1.13578    0.000
 4749.00    1.16089   1.13816    0.000
 4750.00    1.11348   1.14028    0.000
 4751.00    1.02834   1.14079    0.000
 4752.00    1.03763   1.14139    0.000
 4753.00    1.08968   1.14159    0.000
 4754.00    1.11461   1.13985    0.000
 4755.00    1.12898   1.13756    0.000
 4756.00    1.18146   1.13531    0.000
 4757.00    1.24656   1.13213    0.000
 4758.00    1.22421   1.12875    0.000
 4759.00    1.17754   1.12579    0.000
 4760.00    1.28185   1.12283    0.000
 4761.00    1.42071   1.11994    0.013
 4762.00    1.41489   1.11679    0.013
 4763.00    1.38257   1.11380    0.013
 4764.00    1.27456   1.11024    0.013
 4765.00    1.15589   1.10569    0.013
 4766.00    1.13592   1.10197    0.013
 4767.00    1.12597   1.09855    0.013
 4768.00    1.24837   1.09487    0.013
 4769.00    1.37934   1.09315    0.013
 4770.00    1.24331   1.09364    0.013
 4771.00    1.09938   1.09460    0.013
 4772.00    1.04364   1.09717    0.013
 4773.00    0.99878   1.10173    0.013
 4774.00    1.26950   1.10589    0.013
 4775.00    1.51190   1.11039    0.013
 4776.00    1.34501   1.11540    0.013
 4777.00    1.18376   1.11967    0.013
 4778.00    1.07564   1.12320    0.013
 4779.00    1.00815   1.12574    0.013
 4780.00    1.21885   1.12804    0.013
 4781.00    1.37378   1.12917    0.012
 4782.00    1.23335   1.12817    0.012
 4783.00    1.13245   1.12672    0.012
 4784.00    1.19994   1.12482    0.012
 4785.00    1.27108   1.12159    0.012
 4786.00    1.35500   1.11723    0.013
 4787.00    1.39757   1.11397    0.013
 4788.00    1.31798   1.11153    0.013
 4789.00    1.30447   1.10730    0.012
 4790.00    1.45735   1.10547    0.013
 4791.00    1.49202   1.10613    0.013
 4792.00    1.27034   1.10515    0.013
 4793.00    1.11960   1.10687    0.013
 4794.00    1.10238   1.11101    0.013
 4795.00    1.10674   1.11385    0.013
 4796.00    1.14654   1.11821    0.012
 4797.00    1.13244   1.12327    0.012
 4798.00    1.04068   1.12654    0.012
 4799.00    1.03883   1.12913    0.013
 4800.00    1.15092   1.13098    0.013
 4801.00    1.29287   1.13117    0.013
 4802.00    1.46818   1.13021    0.013
 4803.00    1.47577   1.12893    0.013
 4804.00    1.31815   1.12745    0.013
 4805.00    1.18809   1.12561    0.013
 4806.00    1.08198   1.12405    0.013
 4807.00    1.11399   1.12251    0.013
 4808.00    1.25171   1.12048    0.013
 4809.00    1.25444   1.11930    0.013
 4810.00    1.16637   1.11791    0.013
 4811.00    1.05377   1.11599    0.013
 4812.00    0.92671   1.11569    0.013
 4813.00    0.90228   1.11566    0.013
 4814.00    0.93058   1.11572    0.013
 4815.00    1.08185   1.11710    0.013
 4816.00    1.28785   1.11889    0.013
 4817.00    1.27430   1.12104    0.013
 4818.00    1.17676   1.12347    0.013
 4819.00    1.16197   1.12584    0.013
 4820.00    1.17409   1.12800    0.013
 4821.00    1.05027   1.12933    0.013
 4822.00    0.88943   1.13003    0.013
 4823.00    1.02316   1.12932    0.013
 4824.00    1.22270   1.12771    0.013
 4825.00    1.19559   1.12595    0.013
 4826.00    1.12808   1.12204    0.013
 4827.00    1.08138   1.11844    0.013
 4828.00    1.03751   1.11628    0.013
 4829.00    0.92736   1.11297    0.013
 4830.00    0.81078   1.11051    0.013
 4831.00    0.82067   1.10892    0.013
 4832.00    0.83823   1.10697    0.013
 4833.00    0.82131   1.10660    0.013
 4834.00    0.80441   1.10588    0.013
 4835.00    0.95532   1.10439    0.013
 4836.00    1.10181   1.10477    0.013
 4837.00    1.13278   1.10501    0.013
 4838.00    1.15761   1.10419    0.013
 4839.00    1.09869   1.10373    0.013
 4840.00    1.04649   1.10332    0.013
 4841.00    1.05512   1.10220    0.013
 4842.00    1.06547   1.10026    0.013
 4843.00    1.08721   1.09812    0.013
 4844.00    1.08247   1.09662    0.013
 4845.00    0.94109   1.09514    0.013
 4846.00    0.89616   1.09283    0.013
 4847.00    1.25276   1.09169    0.013
 4848.00    1.47586   1.09114    0.000
 4849.00    1.23932   1.08942    0.000
 4850.00    1.11667   1.08783    0.000
 4851.00    1.32434   1.08493    0.000
 4852.00    1.39875   1.08079    0.000
 4853.00    1.14337   1.07660    0.000
 4854.00    0.89248   1.06938    0.000
 4855.00    0.65119   1.05959    0.000
 4856.00    0.61301   1.04912    0.000
 4857.00    0.95125   1.03518    0.000
 4858.00    1.14093   1.01721    0.000
 4859.00    1.09014   0.99807    0.000
 4860.00    1.04474   0.97740    0.000
 4861.00    1.00702   0.95399    0.000
 4862.00    1.02070   0.93181    0.000
 4863.00    1.09861   0.91177    0.000
 4864.00    1.16504   0.89353    0.000
 4865.00    1.21885   0.88384    0.000
 4866.00    1.15334   0.88209    0.000
 4867.00    0.97196   0.88415    0.000
 4868.00    0.80478   0.89424    0.000
 4869.00    0.64977   0.91011    0.000
 4870.00    0.63301   0.92711    0.000
 4871.00    0.72054   0.94533    0.000
 4872.00    0.83846   0.96339    0.000
 4873.00    0.97651   0.97908    0.000
 4874.00    0.95410   0.99162    0.000
 4875.00    0.83855   1.00285    0.012
 4876.00    0.93544   1.01355    0.012
 4877.00    1.13978   1.02260    0.012
 4878.00    1.16308   1.03068    0.012
 4879.00    1.10709   1.03954    0.012
 4880.00    0.99324   1.04825    0.012
 4881.00    0.85763   1.05513    0.012
 4882.00    0.81421   1.06233    0.012
 4883.00    0.80019   1.06831    0.012
 4884.00    0.89161   1.07082    0.012
 4885.00    1.01113   1.07274    0.012
 4886.00    1.05099   1.07345    0.012
 4887.00    1.07348   1.07179    0.012
 4888.00    1.17059   1.06917    0.012
 4889.00    1.28064   1.06599    0.012
 4890.00    1.15084   1.06332    0.012
 4891.00    0.98945   1.06099    0.012
 4892.00    1.10745   1.05997    0.012
 4893.00    1.25141   1.06078    0.012
 4894.00    1.21314   1.06241    0.012
 4895.00    1.16455   1.06821    0.012
 4896.00    1.01932   1.07606    0.012
 4897.00    0.87401   1.08369    0.012
 4898.00    0.96244   1.09365    0.012
 4899.00    1.05295   1.10255    0.012
 4900.00    1.19293   1.10985    0.012
 4901.00    1.31158   1.11670    0.012
 4902.00    1.15463   1.11983    0.012
 4903.00    1.01913   1.12074    0.012
 4904.00    1.07024   1.12164    0.012
 4905.00    1.12802   1.12037    0.012
 4906.00    1.22872   1.11780    0.012
 4907.00    1.29253   1.11573    0.012
 4908.00    1.17086   1.11376    0.012
 4909.00    1.06849   1.11190    0.012
 4910.00    1.04474   1.10951    0.012
 4911.00    1.02852   1.10699    0.012
 4912.00    1.03769   1.10492    0.012
 4913.00    1.06845   1.10218    0.012
 4914.00    1.16065   1.09980    0.012
 4915.00    1.18932   1.09800    0.012
 4916.00    1.06343   1.09551    0.012
 4917.00    0.96680   1.09274    0.012
 4918.00    0.93157   1.08925    0.012
 4919.00    0.96415   1.08410    0.012
 4920.00    1.12045   1.07754    0.012
 4921.00    1.17123   1.06894    0.012
 4922.00    1.05373   1.05978    0.012
 4923.00    0.96182   1.05132    0.012
 4924.00    0.90570   1.04355    0.012
 4925.00    0.94287   1.03931    0.012
 4926.00    1.09493   1.03871    0.012
 4927.00    1.12502   1.04084    0.012
 4928.00    1.02271   1.04662    0.012
 4929.00    1.05442   1.05627    0.012
 4930.00    1.21447   1.06659    0.012
 4931.00    1.26294   1.07688    0.012
 4932.00    1.21719   1.08727    0.012
 4933.00    1.11548   1.09449    0.012
 4934.00    0.97215   1.09977    0.012
 4935.00    0.96761   1.10295    0.012
 4936.00    1.05373   1.10134    0.012
 4937.00    1.13107   1.09866    0.012
 4938.00    1.20340   1.09578    0.012
 4939.00    1.10419   1.09100    0.012
 4940.00    0.91958   1.08692    0.000
 4941.00    0.89508   1.08371    0.000
 4942.00    0.93955   1.08148    0.000
 4943.00    0.93907   1.08280    0.000
 4944.00    0.92199   1.08582    0.000
 4945.00    1.10810   1.08889    0.000
 4946.00    1.35776   1.09445    0.000
 4947.00    1.33496   1.10119    0.000
 4948.00    1.24107   1.10703    0.000
 4949.00    1.18612   1.11277    0.000
 4950.00    1.13947   1.11796    0.000
 4951.00    1.23159   1.12211    0.000
 4952.00    1.34708   1.12489    0.000
 4953.00    1.30288   1.12579    0.000
 4954.00    1.23837   1.12528    0.000
 4955.00    1.19746   1.12287    0.000
 4956.00    1.15864   1.11857    0.000
 4957.00    1.06993   1.11229    0.000
 4958.00    0.97858   1.10538    0.000
 4959.00    0.96917   1.09890    0.000
 4960.00    0.96270   1.09053    0.000
 4961.00    1.06369   1.08432    0.000
 4962.00    1.16324   1.08166    0.000
 4963.00    1.23174   1.07945    0.000
 4964.00    1.28835   1.07923    0.000
 4965.00    1.19890   1.07951    0.000
 4966.00    1.11738   1.08092    0.000
 4967.00    1.10223   1.08354    0.000
 4968.00    1.06922   1.08379    0.000
 4969.00    0.92474   1.08386    0.000
 4970.00    0.83016   1.08423    0.000
 4971.00    0.98021   1.08389    0.000
 4972.00    1.11800   1.08442    0.000
 4973.00    1.20698   1.08464    0.000
 4974.00    1.30190   1.08590    0.000
 4975.00    1.41644   1.08837    0.000
 4976.00    1.40650   1.08974    0.000
 4977.00    1.04856   1.09145    0.000
 4978.00    0.83284   1.09189    0.000
 4979.00    0.95726   1.09053    0.000
 4980.00    0.99331   1.08824    0.000
 4981.00    0.84681   1.08309    0.000
 4982.00    0.81643   1.07667    0.000
 4983.00    0.99468   1.06970    0.000
 4984.00    1.08636   1.06177    0.000
 4985.00    1.04199   1.05415    0.000
 4986.00    1.01869   1.04766    0.000
 4987.00    1.02444   1.04367    0.000
 4988.00    1.04175   1.04174    0.000
 4989.00    1.07308   1.04169    0.000
 4990.00    1.05830   1.04404    0.000
 4991.00    0.99415   1.04727    0.000
 4992.00    0.93320   1.05190    0.000
 4993.00    0.87528   1.05657    0.000
 4994.00    0.93707   1.05979    0.000
 4995.00    1.09850   1.06415    0.000
 4996.00    1.09252   1.06669    0.000
 4997.00    0.96387   1.06726    0.000
 4998.00    0.90201   1.06844    0.000
 4999.00    0.88315   1.06726    0.000
 5000.00    0.83996   1.06540    0.000
 5001.00    0.78308   1.06304    0.000
 5002.00    0.82980   1.05808    0.000
 5003.00    0.92729   1.05351    0.000
 5004.00    1.00149   1.04844    0.000
 5005.00    1.06584   1.04228    0.000
 5006.00    1.12070   1.03750    0.000
 5007.00    1.17212   1.03278    0.000
 5008.00    1.10353   1.02875    0.000
 5009.00    0.99813   1.02576    0.000
 5010.00    0.99904   1.02363    0.000
 5011.00    1.02709   1.02303    0.000
 5012.00    1.03786   1.02178    0.000
 5013.00    1.04505   1.02004    0.000
 5014.00    0.93448   1.01801    0.000
 5015.00    0.80463   1.01509    0.000
 5016.00    0.89514   1.01278    0.000
 5017.00    1.01269   1.00938    0.000
 5018.00    0.96897   1.00586    0.000
 5019.00    0.91161   1.00456    0.000
 5020.00    0.82309   1.00347    0.000
 5021.00    0.73305   1.00395    0.000
 5022.00    0.80977   1.00605    0.000
 5023.00    0.88858   1.00940    0.000
 5024.00    0.93685   1.01435    0.000
 5025.00    0.98661   1.01862    0.000
 5026.00    1.06635   1.02336    0.000
 5027.00    1.13260   1.02848    0.000
 5028.00    1.04118   1.03319    0.000
 5029.00    0.96796   1.03828    0.011
 5030.00    1.04175   1.04154    0.012
 5031.00    1.11506   1.04545    0.012
 5032.00    1.18555   1.05057    0.012
 5033.00    1.22166   1.05374    0.012
 5034.00    1.09338   1.05696    0.012
 5035.00    0.97531   1.05874    0.012
 5036.00    0.89699   1.05895    0.012
 5037.00    0.88183   1.05926    0.012
 5038.00    1.07157   1.05606    0.012
 5039.00    1.16437   1.05043    0.012
 5040.00    0.99109   1.04505    0.012
 5041.00    0.90015   1.03806    0.012
 5042.00    1.00285   1.03162    0.012
 5043.00    1.07335   1.02567    0.012
 5044.00    1.07840   1.01998    0.012
 5045.00    1.08223   1.01949    0.012
 5046.00    1.08391   1.02125    0.012
 5047.00    1.04357   1.02355    0.012
 5048.00    0.93820   1.02826    0.012
 5049.00    0.91999   1.03263    0.012
 5050.00    1.02028   1.03800    0.012
 5051.00    1.02242   1.04308    0.012
 5052.00    0.90709   1.04551    0.012
 5053.00    0.89539   1.04796    0.012
 5054.00    0.99304   1.04989    0.011
 5055.00    1.02959   1.05149    0.011
 5056.00    1.00927   1.05357    0.011
 5057.00    1.06274   1.05639    0.011
 5058.00    1.17677   1.06059    0.011
 5059.00    1.17390   1.06483    0.011
 5060.00    1.08659   1.06898    0.011
 5061.00    1.09625   1.07363    0.012
 5062.00    1.16739   1.07691    0.012
 5063.00    1.14102   1.07902    0.012
 5064.00    1.06059   1.07961    0.012
 5065.00    1.02102   1.07835    0.012
 5066.00    1.00116   1.07669    0.012
 5067.00    0.94996   1.07254    0.012
 5068.00    0.88573   1.06752    0.011
 5069.00    0.80515   1.06334    0.011
 5070.00    0.71874   1.05873    0.011
 5071.00    0.77257   1.05487    0.011
 5072.00    0.86858   1.05119    0.011
 5073.00    1.01300   1.04856    0.011
 5074.00    1.16951   1.04755    0.012
 5075.00    1.14733   1.04612    0.012
 5076.00    1.08895   1.04483    0.012
 5077.00    0.98598   1.04336    0.011
 5078.00    0.87592   1.04165    0.011
 5079.00    0.98879   1.03907    0.011
 5080.00    1.12803   1.03542    0.011
 5081.00    1.09141   1.03214    0.011
 5082.00    1.04064   1.02819    0.011
 5083.00    1.06822   1.02433    0.011
 5084.00    1.09933   1.02154    0.011
 5085.00    1.08751   1.02028    0.011
 5086.00    1.07185   1.02068    0.011
 5087.00    0.88977   1.02198    0.011
 5088.00    0.72951   1.02495    0.011
 5089.00    0.97512   1.02984    0.011
 5090.00    1.19883   1.03541    0.011
 5091.00    1.17873   1.04074    0.011
 5092.00    1.15914   1.04607    0.011
 5093.00    1.14352   1.05095    0.011
 5094.00    1.12044   1.05495    0.011
 5095.00    1.05340   1.05761    0.011
 5096.00    1.01902   1.05882    0.011
 5097.00    1.13708   1.05875    0.011
 5098.00    1.21561   1.05711    0.011
 5099.00    1.14348   1.05399    0.011
 5100.00    1.07884   1.05023    0.011
 5101.00    1.03802   1.04614    0.011
 5102.00    1.03494   1.04159    0.011
 5103.00    1.13364   1.03793    0.011
 5104.00    1.16470   1.03495    0.011
 5105.00    1.03937   1.03289    0.011
 5106.00    0.93912   1.03178    0.011
 5107.00    0.88905   1.03032    0.011
 5108.00    0.87349   1.02965    0.011
 5109.00    0.91805   1.02950    0.011
 5110.00    0.90218   1.02849    0.011
 5111.00    0.79412   1.02815    0.011
 5112.00    0.76828   1.02817    0.011
 5113.00    0.85262   1.02830    0.011
 5114.00    0.89839   1.03045    0.011
 5115.00    0.89863   1.03274    0.011
 5116.00    0.87861   1.03588    0.012
 5117.00    0.83750   1.04051    0.012
 5118.00    0.93255   1.04408    0.012
 5119.00    1.15257   1.04788    0.012
 5120.00    1.18297   1.05111    0.012
 5121.00    1.05996   1.05218    0.012
 5122.00    1.00894   1.05220    0.011
 5123.00    1.00918   1.04996    0.011
 5124.00    0.99467   1.04570    0.011
 5125.00    0.97097   1.04076    0.011
 5126.00    0.91804   1.03415    0.011
 5127.00    0.84917   1.02729    0.011
 5128.00    0.78706   1.02095    0.011
 5129.00    0.72817   1.01516    0.011
 5130.00    0.85836   1.01120    0.011
 5131.00    1.06593   1.00851    0.011
 5132.00    1.00862   1.00716    0.011
 5133.00    0.85870   1.00770    0.011
 5134.00    0.88484   1.00935    0.011
 5135.00    0.96288   1.01187    0.011
 5136.00    0.96679   1.01467    0.011
 5137.00    0.95260   1.01673    0.011
 5138.00    0.96361   1.01906    0.011
 5139.00    0.97961   1.01997    0.011
 5140.00    1.02945   1.02002    0.011
 5141.00    1.08450   1.01936    0.011
 5142.00    1.04614   1.01632    0.011
 5143.00    0.99714   1.01431    0.011
 5144.00    0.93501   1.01179    0.011
 5145.00    0.87189   1.00835    0.011
 5146.00    0.80543   1.00635    0.011
 5147.00    0.73884   1.00366    0.011
 5148.00    0.80028   1.00186    0.011
 5149.00    0.86139   1.00160    0.011
 5150.00    0.86455   1.00033    0.011
 5151.00    0.87098   0.99962    0.011
 5152.00    0.93395   0.99996    0.011
 5153.00    0.99213   0.99993    0.011
 5154.00    0.99934   1.00084    0.011
 5155.00    0.99210   1.00210    0.011
 5156.00    0.87606   1.00358    0.011
 5157.00    0.78885   1.00647    0.011
 5158.00    0.86687   1.01008    0.011
 5159.00    0.92709   1.01390    0.011
 5160.00    0.90624   1.01823    0.011
 5161.00    0.90686   1.02220    0.011
 5162.00    0.98763   1.02453    0.011
 5163.00    1.03978   1.02563    0.011
 5164.00    1.00264   1.02369    0.011
 5165.00    0.95115   1.01840    0.011
 5166.00    0.86168   1.01033    0.011
 5167.00    0.78004   0.99832    0.011
 5168.00    0.71622   0.98432    0.011
 5169.00    0.66747   0.96882    0.011
 5170.00    0.64840   0.95166    0.011
 5171.00    0.63942   0.93543    0.011
 5172.00    0.64773   0.92080    0.011
 5173.00    0.64431   0.91003    0.011
 5174.00    0.62327   0.90369    0.011
 5175.00    0.63979   0.90035    0.011
 5176.00    0.70593   0.90071    0.011
 5177.00    0.78710   0.90458    0.011
 5178.00    0.88575   0.91223    0.011
 5179.00    0.85834   0.92247    0.011
 5180.00    0.70160   0.93216    0.011
 5181.00    0.61262   0.93986    0.011
 5182.00    0.58495   0.94559    0.011
 5183.00    0.63756   0.94900    0.011
 5184.00    0.75418   0.95018    0.011
 5185.00    0.82524   0.94957    0.011
 5186.00    0.86432   0.94653    0.011
 5187.00    0.88289   0.94383    0.011
 5188.00    0.88884   0.94247    0.011
 5189.00    0.94853   0.94334    0.011
 5190.00    1.03712   0.94823    0.000
 5191.00    1.07113   0.95339    0.000
 5192.00    1.07966   0.95947    0.000
 5193.00    1.07499   0.96632    0.000
 5194.00    1.06500   0.97257    0.000
 5195.00    1.03184   0.97911    0.000
 5196.00    0.99073   0.98373    0.000
 5197.00    1.07733   0.98706    0.000
 5198.00    1.20083   0.99060    0.000
 5199.00    1.04197   0.99444    0.000
 5200.00    0.81568   0.99763    0.000
 5201.00    0.91577   1.00073    0.000
 5202.00    1.07869   1.00345    0.000
 5203.00    1.05174   1.00522    0.000
 5204.00    0.99640   1.00626    0.000
 5205.00    0.97708   1.00480    0.000
 5206.00    0.96171   1.00186    0.000
 5207.00    0.81882   0.99763    0.000
 5208.00    0.66672   0.99210    0.000
 5209.00    0.88792   0.98655    0.000
 5210.00    1.12305   0.98147    0.000
 5211.00    1.08432   0.97784    0.011
 5212.00    1.04393   0.97710    0.011
 5213.00    0.98958   0.97773    0.011
 5214.00    0.93517   0.98086    0.011
 5215.00    0.87985   0.98633    0.011
 5216.00    0.83170   0.99282    0.011
 5217.00    0.85662   1.00089    0.011
 5218.00    0.89177   1.00810    0.011
 5219.00    1.00128   1.01487    0.011
 5220.00    1.09208   1.02069    0.011
 5221.00    1.07864   1.02536    0.011
 5222.00    1.05708   1.02926    0.011
 5223.00    0.99936   1.03145    0.011
 5224.00    0.94543   1.03190    0.011
 5225.00    0.90533   1.03011    0.011
 5226.00    0.87584   1.02711    0.011
 5227.00    0.87887   1.02286    0.011
 5228.00    0.88909   1.01810    0.011
 5229.00    0.91804   1.01309    0.011
 5230.00    0.93108   1.00798    0.011
 5231.00    0.90853   1.00488    0.011
 5232.00    0.87642   1.00304    0.011
 5233.00    0.82578   1.00399    0.011
 5234.00    0.82165   1.00714    0.011
 5235.00    0.89615   1.01012    0.011
 5236.00    0.97189   1.01494    0.011
 5237.00    1.04948   1.01980    0.011
 5238.00    1.15625   1.02497    0.011
 5239.00    1.30103   1.03145    0.011
 5240.00    1.29124   1.03668    0.011
 5241.00    1.10418   1.04236    0.011
 5242.00    1.03909   1.04736    0.011
 5243.00    1.09739   1.05102    0.011
 5244.00    1.10454   1.05448    0.011
 5245.00    1.06607   1.05658    0.011
 5246.00    1.05300   1.05761    0.011
 5247.00    1.05989   1.05700    0.011
 5248.00    1.11817   1.05482    0.011
 5249.00    1.21197   1.05188    0.011
 5250.00    1.21600   1.04787    0.011
 5251.00    1.16560   1.04315    0.011
 5252.00    1.04754   1.03812    0.011
 5253.00    0.89367   1.03404    0.011
 5254.00    0.90175   1.03162    0.011
 5255.00    0.98420   1.02915    0.011
 5256.00    0.98138   1.02847    0.011
 5257.00    0.94486   1.02933    0.011
 5258.00    1.02013   1.03088    0.011
 5259.00    1.13307   1.03317    0.011
 5260.00    1.05881   1.03392    0.011
 5261.00    0.93156   1.03484    0.011
 5262.00    1.01450   1.03454    0.011
 5263.00    1.14651   1.03130    0.011
 5264.00    0.96843   1.02556    0.011
 5265.00    0.73221   1.01716    0.011
 5266.00    0.67168   1.00703    0.011
 5267.00    0.63659   0.99579    0.011
 5268.00    0.67359   0.98398    0.011
 5269.00    0.71818   0.97257    0.011
 5270.00    0.89071   0.96308    0.011
 5271.00    1.07197   0.95597    0.011
 5272.00    0.90403   0.95236    0.011
 5273.00    0.72437   0.95134    0.011
 5274.00    0.80351   0.95174    0.011
 5275.00    0.88428   0.95550    0.011
 5276.00    1.00797   0.96360    0.011
 5277.00    1.12565   0.97385    0.011
 5278.00    1.15182   0.98359    0.011
 5279.00    1.15981   0.99353    0.011
 5280.00    0.99047   1.00311    0.011
 5281.00    0.84274   1.01254    0.011
 5282.00    0.84722   1.02203    0.011
 5283.00    0.88232   1.02911    0.011
 5284.00    1.08346   1.03453    0.011
 5285.00    1.24124   1.03883    0.011
 5286.00    1.21061   1.04230    0.011
 5287.00    1.18718   1.04624    0.011
 5288.00    1.18954   1.05012    0.011
 5289.00    1.17677   1.05409    0.011
 5290.00    1.11859   1.05946    0.011
 5291.00    1.07999   1.06463    0.011
 5292.00    1.09144   1.06898    0.011
 5293.00    1.08123   1.07216    0.011
 5294.00    1.02338   1.07415    0.011
 5295.00    0.96090   1.07503    0.011
 5296.00    0.88957   1.07370    0.011
 5297.00    0.86232   1.07040    0.011
 5298.00    0.90847   1.06530    0.011
 5299.00    0.90430   1.05992    0.011
 5300.00    0.82671   1.05424    0.011
 5301.00    0.83415   1.04833    0.011
 5302.00    0.95073   1.04343    0.011
 5303.00    1.01638   1.04033    0.011
 5304.00    1.02445   1.04056    0.011
 5305.00    1.07308   1.04265    0.011
 5306.00    1.16216   1.04535    0.011
 5307.00    1.16338   1.04974    0.011
 5308.00    1.08732   1.05540    0.011
 5309.00    1.04959   1.06197    0.011
 5310.00    1.04157   1.06791    0.011
 5311.00    1.13680   1.07260    0.011
 5312.00    1.30238   1.07628    0.011
 5313.00    1.29300   1.07910    0.011
 5314.00    1.17916   1.08123    0.011
 5315.00    1.13557   1.08196    0.011
 5316.00    1.12858   1.08128    0.011
 5317.00    1.09915   1.07975    0.011
 5318.00    1.05959   1.07743    0.011
 5319.00    1.04546   1.07474    0.011
 5320.00    1.04121   1.07162    0.011
 5321.00    1.06765   1.06760    0.011
 5322.00    1.10424   1.06335    0.011
 5323.00    0.99631   1.05927    0.011
 5324.00    0.84832   1.05428    0.011
 5325.00    0.84837   1.04854    0.011
 5326.00    0.88220   1.04210    0.010
 5327.00    0.95334   1.03494    0.011
 5328.00    1.03129   1.02737    0.011
 5329.00    0.97143   1.01961    0.011
 5330.00    0.89224   1.01356    0.011
 5331.00    0.92906   1.00869    0.011
 5332.00    0.97758   1.00473    0.011
 5333.00    0.95716   1.00171    0.011
 5334.00    0.93231   1.00311    0.011
 5335.00    1.07588   1.00760    0.011
 5336.00    1.22377   1.01312    0.011
 5337.00    1.08976   1.01894    0.011
 5338.00    0.96106   1.02425    0.011
 5339.00    0.98401   1.03004    0.011
 5340.00    1.00837   1.03442    0.011
 5341.00    1.05280   1.03741    0.010
 5342.00    1.09554   1.03933    0.010
 5343.00    1.12241   1.03987    0.010
 5344.00    1.13462   1.03959    0.010
 5345.00    1.04692   1.03820    0.010
 5346.00    0.97400   1.03736    0.010
 5347.00    0.97911   1.03802    0.010
 5348.00    0.96804   1.03829    0.010
 5349.00    0.88825   1.03940    0.010
 5350.00    0.85636   1.04061    0.010
 5351.00    0.99238   1.04243    0.010
 5352.00    1.09581   1.04565    0.010
 5353.00    1.10319   1.04894    0.010
 5354.00    1.09826   1.05307    0.010
 5355.00    1.06241   1.05823    0.010
 5356.00    1.04807   1.06391    0.011
 5357.00    1.08028   1.06977    0.011
 5358.00    1.09087   1.07505    0.011
 5359.00    1.06086   1.08016    0.011
 5360.00    1.07804   1.08447    0.011
 5361.00    1.17261   1.08703    0.011
 5362.00    1.22697   1.08826    0.011
 5363.00    1.22347   1.08783    0.011
 5364.00    1.17374   1.08575    0.011
 5365.00    1.06552   1.08197    0.011
 5366.00    1.00317   1.07697    0.011
 5367.00    0.99196   1.07088    0.011
 5368.00    0.99605   1.06436   -2.000
 5369.00    1.01518   1.05752   -2.000
 5370.00    1.00730   1.05049   -2.000
 5371.00    0.97598   1.04459   -2.000
 5372.00    0.90968   1.03929   -2.000
 5373.00    0.81666   1.03560   -2.000
 5374.00    0.90015   1.03300   -2.000
 5375.00    1.10215   1.03182   -2.000
 5376.00    1.14190   1.03260   -2.000
 5377.00    1.08620   1.03524   -2.000
 5378.00    1.09266   1.04016   -2.000
 5379.00    1.13101   1.04516   -2.000
 5380.00    1.07189   1.05056   -2.000
 5381.00    0.96948   1.05507   -2.000
 5382.00    1.05384   1.05863   -2.000
 5383.00    1.20949   1.06155    0.011
 5384.00    1.17201   1.06338    0.011
 5385.00    1.07190   1.06441    0.011
 5386.00    1.10360   1.06413    0.011
 5387.00    1.17108   1.06334    0.010
 5388.00    1.13886   1.06168    0.010
 5389.00    1.08443   1.05988    0.010
 5390.00    1.03371   1.05791    0.010
 5391.00    0.98365   1.05525    0.011
 5392.00    0.97907   1.05217    0.010
 5393.00    0.98065   1.04847    0.010
 5394.00    1.01230   1.04417    0.010
 5395.00    1.04684   1.03941    0.010
 5396.00    1.11549   1.03476    0.010
 5397.00    1.18619   1.03003    0.010
 5398.00    1.00595   1.02581    0.010
 5399.00    0.82053   1.02196    0.010
 5400.00    0.86259   1.01883    0.010
 5401.00    0.90427   1.01600    0.011
 5402.00    0.93618   1.01330    0.010
 5403.00    0.97041   1.01181    0.010
 5404.00    1.03600   1.01029    0.010
 5405.00    1.07988   1.00869    0.010
 5406.00    0.92855   1.00691    0.010
 5407.00    0.79848   1.00498    0.010
 5408.00    0.80898   1.00241    0.010
 5409.00    0.83488   0.99977    0.010
 5410.00    0.94001   0.99777    0.010
 5411.00    1.01665   0.99695    0.010
 5412.00    0.97504   0.99778    0.010
 5413.00    0.94628   0.99986    0.010
 5414.00    0.96163   1.00336    0.010
 5415.00    0.99949   1.00772    0.010
 5416.00    1.10244   1.01348    0.010
 5417.00    1.18873   1.01987    0.010
 5418.00    1.23384   1.02653    0.010
 5419.00    1.26505   1.03298    0.010
 5420.00    1.26664   1.03848    0.010
 5421.00    1.21302   1.04321    0.010
 5422.00    1.05727   1.04668    0.010
 5423.00    0.99847   1.04919    0.010
 5424.00    1.09632   1.05047    0.010
 5425.00    1.13068   1.05077    0.010
 5426.00    1.07507   1.05015    0.010
 5427.00    1.04564   1.04888    0.010
 5428.00    1.04887   1.04696    0.010
 5429.00    1.02886   1.04425    0.010
 5430.00    0.98330   1.04147    0.010
 5431.00    0.99540   1.03843    0.010
 5432.00    1.06340   1.03503    0.010
 5433.00    1.08845   1.03168    0.010
 5434.00    1.07677   1.02763    0.010
 5435.00    1.03713   1.02449    0.010
 5436.00    0.97644   1.02255    0.010
 5437.00    0.92148   1.02140    0.010
 5438.00    0.87031   1.02252    0.010
 5439.00    0.97487   1.02425    0.010
 5440.00    1.16965   1.02755    0.010
 5441.00    1.13572   1.03196    0.010
 5442.00    0.98634   1.03700    0.010
 5443.00    0.96576   1.04254    0.010
 5444.00    1.00146   1.04688    0.010
 5445.00    1.01300   1.05018    0.010
 5446.00    1.01547   1.05177    0.010
 5447.00    1.05602   1.05148    0.010
 5448.00    1.10870   1.05008    0.010
 5449.00    1.08422   1.04706    0.010
 5450.00    1.03923   1.04348    0.010
 5451.00    1.06155   1.03922    0.010
 5452.00    1.09851   1.03513    0.010
 5453.00    1.04896   1.03192    0.010
 5454.00    0.98448   1.02921    0.010
 5455.00    0.91253   1.02762    0.010
 5456.00    0.83961   1.02624    0.010
 5457.00    0.89320   1.02515    0.010
 5458.00    0.95847   1.02403    0.010
 5459.00    0.90186   1.02336    0.010
 5460.00    0.83840   1.02255    0.010
 5461.00    0.95735   1.02255    0.010
 5462.00    1.07886   1.02298    0.010
 5463.00    1.04240   1.02388    0.010
 5464.00    1.00993   1.02527    0.010
 5465.00    1.07092   1.02632    0.010
 5466.00    1.12359   1.02713    0.010
 5467.00    1.06936   1.02768    0.010
 5468.00    1.01819   1.02798    0.010
 5469.00    0.99354   1.02853    0.010
 5470.00    0.96649   1.02876    0.010
 5471.00    0.92402   1.02881    0.010
 5472.00    0.88277   1.02876    0.010
 5473.00    0.84761   1.02763    0.010
 5474.00    0.82175   1.02587    0.010
 5475.00    0.83359   1.02352    0.010
 5476.00    0.84629   1.02060    0.010
 5477.00    0.86194   1.01721    0.010
 5478.00    0.88342   1.01377   -2.000
 5479.00    0.92147   1.01055   -2.000
 5480.00    0.93700   1.00773   -2.000
 5481.00    0.89785   1.00522   -2.000
 5482.00    0.84273   1.00436   -2.000
 5483.00    0.75419   1.00431   -2.000
 5484.00    0.63633   1.00520   -2.000
 5485.00    0.46510   1.00773   -2.000
 5486.00    0.23601   1.01036   -2.000
 5487.00   -0.08520   1.01344   -2.000
 5488.00   -0.69000   1.01612   -2.000
 5489.00   -1.69096   1.01956   -2.000
 5490.00   -1.49092   1.02268   -2.000
 5491.00    0.18562   1.02526   -2.000
 5492.00    1.24234   1.02755   -2.000
 5493.00    1.62736   1.02905   -2.000
 5494.00    1.63882   1.03011   -2.000
 5495.00    1.29318   1.03064   -2.000
 5496.00    1.08085   1.03154   -2.000
 5497.00    0.98087   1.03188   -2.000
 5498.00    0.95619   1.03180   -2.000
 5499.00    0.98738   1.03177   -2.000
 5500.00    0.96972   1.03103   -2.000
 5501.00    0.92021   1.03022   -2.000
 5502.00    0.94551   1.02925    0.030
 5503.00    1.01350   1.02821    0.012
 5504.00    0.94897   1.02649    0.010
 5505.00    0.81861   1.02492    0.010
 5506.00    0.87980   1.02356    0.015
 5507.00    1.02330   1.02166    0.071
 5508.00    1.04645   1.01967   -1.000
 5509.00    1.02528   1.01783   -1.000
 5510.00    1.05576   1.01640   -1.000
 5511.00    1.10237   1.01488   -1.000
 5512.00    1.11800   1.01356   -1.000
 5513.00    1.12558   1.01238   -1.000
 5514.00    1.13520   1.01153    0.024
 5515.00    1.14526   1.01170    0.011
 5516.00    1.08258   1.01192    0.010
 5517.00    1.00769   1.01259    0.010
 5518.00    1.03025   1.01421    0.010
 5519.00    1.06514   1.01613    0.010
 5520.00    1.00324   1.01906    0.010
 5521.00    0.93281   1.02257    0.010
 5522.00    0.90558   1.02623    0.010
 5523.00    0.88061   1.02977    0.010
 5524.00    0.93388   1.03248    0.010
 5525.00    0.98813   1.03457    0.010
 5526.00    1.00560   1.03534    0.010
 5527.00    1.02485   1.03500    0.010
 5528.00    1.08239   1.03371    0.010
 5529.00    1.12855   1.03181    0.010
 5530.00    1.03596   1.02948    0.010
 5531.00    0.94910   1.02707    0.010
 5532.00    0.91007   1.02478    0.010
 5533.00    0.88936   1.02285    0.010
 5534.00    0.98268   1.02184    0.010
 5535.00    1.06385   1.02125    0.010
 5536.00    1.08563   1.02197    0.010
 5537.00    1.09228   1.02355    0.010
 5538.00    1.03886   1.02507    0.010
 5539.00    1.00525   1.02681    0.010
 5540.00    1.03702   1.02857    0.010
 5541.00    1.08527   1.03057    0.010
 5542.00    1.17947   1.03232    0.010
 5543.00    1.22281   1.03437    0.010
 5544.00    1.14473   1.03640    0.010
 5545.00    1.08456   1.03786    0.010
 5546.00    1.06127   1.03946    0.010
 5547.00    1.02113   1.04083    0.010
 5548.00    0.95073   1.04204    0.010
 5549.00    0.97972   1.04300    0.010
 5550.00    1.16458   1.04375    0.010
 5551.00    1.21368   1.04468    0.010
 5552.00    1.07585   1.04563    0.010
 5553.00    0.97957   1.04629    0.010
 5554.00    0.93364   1.04683    0.010
 5555.00    0.91533   1.04715    0.010
 5556.00    0.92653   1.04694    0.010
 5557.00    0.90045   1.04623    0.010
 5558.00    0.83923   1.04514    0.010
 5559.00    0.90033   1.04373    0.010
 5560.00    1.06305   1.04194    0.010
 5561.00    1.07701   1.04005    0.010
 5562.00    0.98214   1.03816    0.010
 5563.00    0.91025   1.03627    0.010
 5564.00    0.85312   1.03417    0.009
 5565.00    0.90816   1.03190    0.009
 5566.00    1.02622   1.02974    0.009
 5567.00    1.07780   1.02730    0.009
 5568.00    1.09686   1.02499    0.009
 5569.00    1.01283   1.02284    0.009
 5570.00    0.88524   1.02057    0.009
 5571.00    0.86288   1.01907    0.009
 5572.00    0.87860   1.01778    0.009
 5573.00    0.88554   1.01687    0.009
 5574.00    0.88979   1.01657    0.009
 5575.00    0.87286   1.01675    0.009
 5576.00    0.85054   1.01723    0.009
 5577.00    0.93841   1.01808    0.009
 5578.00    1.04911   1.01961    0.009
 5579.00    1.05616   1.02076    0.009
 5580.00    1.04631   1.02193    0.009
 5581.00    1.00991   1.02342    0.010
 5582.00    0.97027   1.02426    0.010
 5583.00    0.96475   1.02439    0.010
 5584.00    0.96211   1.02394    0.010
 5585.00    0.89981   1.02233    0.010
 5586.00    0.83463   1.01973    0.009
 5587.00    0.89780   1.01634    0.010
 5588.00    0.96194   1.01206    0.010
 5589.00    0.96939   1.00711    0.010
 5590.00    0.97225   1.00223    0.010
 5591.00    0.88392   0.99736    0.010
 5592.00    0.79635   0.99297    0.010
 5593.00    0.71773   0.98957    0.010
 5594.00    0.66233   0.98716    0.010
 5595.00    0.79364   0.98617    0.010
 5596.00    0.89729   0.98622    0.010
 5597.00    0.83387   0.98736    0.010
 5598.00    0.78657   0.98912    0.010
 5599.00    0.81606   0.99087    0.010
 5600.00    0.85529   0.99271    0.010
 5601.00    0.93238   0.99407    0.010
 5602.00    0.99255   0.99556    0.010
 5603.00    0.99794   0.99691    0.010
 5604.00    0.99885   0.99831    0.009
 5605.00    0.98752   0.99974    0.010
 5606.00    0.97975   1.00189    0.010
 5607.00    0.98034   1.00474    0.010
 5608.00    1.00515   1.00814    0.009
 5609.00    1.07910   1.01253    0.009
 5610.00    1.12421   1.01681    0.009
 5611.00    1.11839   1.02158    0.009
 5612.00    1.12065   1.02538    0.009
 5613.00    1.13538   1.02827    0.009
 5614.00    1.14242   1.02985    0.009
 5615.00    1.13902   1.02994    0.009
 5616.00    1.11741   1.02873    0.009
 5617.00    1.07402   1.02627    0.009
 5618.00    1.00494   1.02307    0.009
 5619.00    0.90878   1.01955    0.009
 5620.00    0.84163   1.01596    0.009
 5621.00    0.80142   1.01278    0.009
 5622.00    0.85576   1.00970    0.009
 5623.00    0.98755   1.00778    0.009
 5624.00    1.02159   1.00666    0.009
 5625.00    0.98515   1.00624    0.009
 5626.00    0.94728   1.00661    0.009
 5627.00    0.90851   1.00714    0.009
 5628.00    0.97322   1.00802    0.009
 5629.00    1.09518   1.00921    0.009
 5630.00    1.14584   1.01075    0.009
 5631.00    1.16219   1.01242    0.009
 5632.00    1.16724   1.01432    0.009
 5633.00    1.16759   1.01632    0.009
 5634.00    1.04141   1.01825    0.009
 5635.00    0.87029   1.01997    0.009
 5636.00    0.91262   1.02116    0.009
 5637.00    1.01899   1.02144    0.009
 5638.00    0.94854   1.02112    0.009
 5639.00    0.83405   1.01991    0.009
 5640.00    0.86676   1.01827    0.009
 5641.00    0.92920   1.01618    0.009
 5642.00    0.94388   1.01407    0.009
 5643.00    0.95101   1.01209    0.009
 5644.00    0.92910   1.01045    0.009
 5645.00    0.90377   1.00946    0.009
 5646.00    0.96934   1.00885    0.009
 5647.00    1.04218   1.00909    0.009
 5648.00    1.07449   1.00958    0.009
 5649.00    1.10499   1.01078    0.009
 5650.00    1.03669   1.01194    0.009
 5651.00    0.96819   1.01344    0.009
 5652.00    0.94489   1.01482    0.009
 5653.00    0.92582   1.01574    0.009
 5654.00    0.98500   1.01643    0.009
 5655.00    1.04598   1.01633    0.009
 5656.00    1.12685   1.01544    0.009
 5657.00    1.18499   1.01389    0.009
 5658.00    1.06688   1.01170    0.009
 5659.00    0.96545   1.00886    0.009
 5660.00    0.96194   1.00560    0.009
 5661.00    0.94798   1.00225    0.009
 5662.00    0.88540   0.99904    0.009
 5663.00    0.84485   0.99621    0.009
 5664.00    0.88807   0.99404    0.009
 5665.00    0.92489   0.99284    0.009
 5666.00    0.94139   0.99255    0.009
 5667.00    0.98286   0.99284    0.009
 5668.00    1.09150   0.99419    0.009
 5669.00    1.16186   0.99666    0.009
 5670.00    1.14391   0.99913    0.009
 5671.00    1.10339   1.00181    0.009
 5672.00    1.01782   1.00472    0.009
 5673.00    0.97955   1.00803    0.009
 5674.00    1.02357   1.01121    0.009
 5675.00    1.06028   1.01434    0.009
 5676.00    1.08585   1.01716    0.009
 5677.00    1.07596   1.01989    0.009
 5678.00    1.01866   1.02234    0.010
 5679.00    0.96155   1.02430    0.009
 5680.00    0.90465   1.02544    0.009
 5681.00    0.90957   1.02595    0.009
 5682.00    0.97869   1.02574    0.009
 5683.00    0.99680   1.02470    0.009
 5684.00    0.96819   1.02298    0.009
 5685.00    0.96937   1.02073    0.009
 5686.00    0.99460   1.01853    0.009
 5687.00    1.02174   1.01600    0.009
 5688.00    1.05023   1.01388    0.009
 5689.00    0.99668   1.01205    0.009
 5690.00    0.89198   1.01101    0.009
 5691.00    0.92771   1.01037    0.009
 5692.00    1.03995   1.01049    0.009
 5693.00    1.05424   1.01141    0.009
 5694.00    1.02215   1.01271    0.009
 5695.00    0.99398   1.01435    0.009
 5696.00    0.96740   1.01572    0.009
 5697.00    0.93563   1.01720    0.009
 5698.00    0.90204   1.01804    0.009
 5699.00    0.92539   1.01846    0.009
 5700.00    0.96548   1.01790    0.009
 5701.00    0.91557   1.01676    0.009
 5702.00    0.84374   1.01485    0.009
 5703.00    0.88067   1.01224    0.009
 5704.00    0.93902   1.00924    0.009
 5705.00    0.94318   1.00590    0.009
 5706.00    0.93901   1.00250    0.009
 5707.00    1.00593   0.99881    0.009
 5708.00    1.08091   0.99542    0.009
 5709.00    1.00409   0.99209    0.009
 5710.00    0.91576   0.98895    0.009
 5711.00    0.94008   0.98646    0.009
 5712.00    0.96898   0.98452    0.009
 5713.00    0.96378   0.98347    0.009
 5714.00    0.95869   0.98330    0.009
 5715.00    0.96925   0.98429    0.009
 5716.00    0.98528   0.98637    0.009
 5717.00    1.09540   0.98973    0.009
 5718.00    1.18523   0.99393    0.009
 5719.00    1.06033   0.99902    0.009
 5720.00    0.95506   1.00456    0.009
 5721.00    0.99686   1.01004    0.009
 5722.00    1.03346   1.01561    0.009
 5723.00    1.04050   1.02046    0.009
 5724.00    1.04933   1.02473    0.009
 5725.00    1.06632   1.02813    0.009
 5726.00    1.08048   1.03074    0.009
 5727.00    1.08406   1.03249    0.009
 5728.00    1.07453   1.03356    0.009
 5729.00    1.02421   1.03381    0.009
 5730.00    0.97276   1.03362    0.009
 5731.00    0.91833   1.03312    0.009
 5732.00    0.88825   1.03234    0.009
 5733.00    0.91339   1.03162    0.009
 5734.00    0.97307   1.03089    0.009
 5735.00    1.10063   1.03047    0.009
 5736.00    1.16032   1.03018    0.009
 5737.00    1.10377   1.03027    0.009
 5738.00    1.05238   1.03050    0.009
 5739.00    1.00871   1.03085    0.009
 5740.00    0.97653   1.03131    0.000
 5741.00    0.95949   1.03151    0.000
 5742.00    0.94755   1.03187    0.000
 5743.00    0.94153   1.03187    0.000
 5744.00    0.93326   1.03210    0.000
 5745.00    0.92269   1.03191    0.000
 5746.00    0.97162   1.03173    0.000
 5747.00    1.07427   1.03150    0.000
 5748.00    1.11428   1.03115    0.000
 5749.00    1.10441   1.03082    0.000
 5750.00    1.04730   1.03010    0.000
 5751.00    0.95712   1.02942    0.000
 5752.00    0.94590   1.02830    0.000
 5753.00    0.98318   1.02729    0.000
 5754.00    1.05537   1.02598    0.000
 5755.00    1.14630   1.02473    0.000
 5756.00    1.18472   1.02355    0.000
 5757.00    1.19869   1.02238    0.000
 5758.00    1.16141   1.02148    0.000
 5759.00    1.10357   1.02067    0.000
 5760.00    1.06675   1.02032    0.000
 5761.00    1.03714   1.02009    0.000
 5762.00    1.00304   1.02009    0.000
 5763.00    0.96765   1.02003    0.000
 5764.00    1.05001   1.02012    0.000
 5765.00    1.16041   1.02036    0.000
 5766.00    1.11427   1.02087    0.000
 5767.00    1.03809   1.02162    0.000
 5768.00    1.01443   1.02246    0.000
 5769.00    0.99860   1.02361    0.000
 5770.00    0.99969   1.02477    0.000
 5771.00    1.00263   1.02617    0.000
 5772.00    1.03126   1.02731    0.000
 5773.00    1.06172   1.02841    0.000
 5774.00    0.99358   1.02898    0.000
 5775.00    0.92181   1.02930    0.000
 5776.00    0.98018   1.02890    0.000
 5777.00    1.03883   1.02785    0.000
 5778.00    1.08779   1.02619    0.000
 5779.00    1.13073   1.02387    0.000
 5780.00    1.07694   1.02110    0.000
 5781.00    1.02453   1.01775    0.000
 5782.00    0.98621   1.01407    0.000
 5783.00    0.95450   1.00995    0.000
 5784.00    0.97069   1.00587    0.000
 5785.00    0.98581   1.00192    0.000
 5786.00    0.99498   0.99829    0.000
 5787.00    0.99939   0.99548    0.000
 5788.00    0.98268   0.99337    0.000
 5789.00    0.96879   0.99243    0.000
 5790.00    0.96523   0.99247    0.000
 5791.00    0.95032   0.99365   -2.000
 5792.00    0.90074   0.99564   -2.000
 5793.00    0.90436   0.99842   -2.000
 5794.00    1.04614   1.00173   -2.000
 5795.00    1.09774   1.00514   -2.000
 5796.00    0.94806   1.00868   -2.000
 5797.00    0.87104   1.01206   -2.000
 5798.00    0.93456   1.01534   -2.000
 5799.00    0.98732   1.01825   -2.000
 5800.00    1.02195   1.02092   -2.000
 5801.00    1.05402   1.02329   -2.000
 5802.00    1.08230   1.02527   -2.000
 5803.00    1.07816   1.02711   -2.000
 5804.00    1.03189   1.02858   -2.000
 5805.00    1.03421   1.02981   -2.000
 5806.00    1.09215   1.03074   -2.000
 5807.00    1.10983   1.03129   -2.000
 5808.00    1.08684   1.03160   -2.000
 5809.00    1.05090   1.03158   -2.000
 5810.00    1.00343   1.03150   -2.000
 5811.00    0.99355   1.03118    0.000
 5812.00    1.01316   1.03092    0.000
 5813.00    1.01205   1.03052    0.000
 5814.00    0.99665   1.03017    0.000
 5815.00    1.00752   1.02979    0.000
 5816.00    1.03427   1.02954    0.000
 5817.00    1.03095   1.02931    0.000
 5818.00    1.01175   1.02919    0.000
 5819.00    1.01354   1.02927    0.000
 5820.00    1.02493   1.02948    0.000
 5821.00    1.04424   1.02997    0.000
 5822.00    1.06665   1.03065    0.000
 5823.00    1.09380   1.03164    0.000
 5824.00    1.12253   1.03276    0.000
 5825.00    1.12127   1.03407    0.000
 5826.00    1.11153   1.03536    0.000
 5827.00    1.05647   1.03666    0.000
 5828.00    0.99086   1.03780    0.000
 5829.00    0.98097   1.03878    0.000
 5830.00    0.98148   1.03961    0.000
 5831.00    1.07426   1.04022    0.000
 5832.00    1.18034   1.04063    0.000
 5833.00    1.17588   1.04076    0.000
 5834.00    1.15985   1.04080    0.000
 5835.00    1.12092   1.04061    0.000
 5836.00    1.08044   1.04032    0.000
 5837.00    0.98431   1.03995    0.000
 5838.00    0.88633   1.03953    0.000
 5839.00    0.85408   1.03916    0.000
 5840.00    0.82565   1.03877    0.000
 5841.00    0.91673   1.03855    0.000
 5842.00    1.00576   1.03833    0.000
 5843.00    1.06391   1.03824    0.000
 5844.00    1.11553   1.03806    0.000
 5845.00    1.10372   1.03784    0.000
 5846.00    1.09342   1.03739    0.000
 5847.00    1.09368   1.03663    0.000
 5848.00    1.07785   1.03548    0.000
 5849.00    0.97515   1.03383    0.000
 5850.00    0.90308   1.03173    0.000
 5851.00    0.96373   1.02904    0.000
 5852.00    1.01951   1.02599    0.000
 5853.00    1.05797   1.02251    0.000
 5854.00    1.06623   1.01876    0.000
 5855.00    0.98400   1.01481    0.000
 5856.00    0.91394   1.01079    0.000
 5857.00    0.87491   1.00693    0.000
 5858.00    0.84844   1.00319    0.000
 5859.00    0.84951   0.99998    0.000
 5860.00    0.86076   0.99710    0.000
 5861.00    0.89140   0.99505    0.000
 5862.00    0.94049   0.99351    0.000
 5863.00    1.02028   0.99288    0.000
 5864.00    1.08339   0.99280    0.000
 5865.00    1.12221   0.99345    0.000
 5866.00    1.13891   0.99461    0.000
 5867.00    1.12729   0.99614    0.000
 5868.00    1.09999   0.99797    0.000
 5869.00    1.05501   0.99980    0.000
 5870.00    1.03544   1.00170    0.000
 5871.00    1.04114   1.00331    0.000
 5872.00    1.04753   1.00475    0.000
 5873.00    1.05452   1.00574    0.000
 5874.00    1.06730   1.00642    0.000
 5875.00    1.08456   1.00648    0.000
 5876.00    1.11276   1.00618    0.000
 5877.00    1.14839   1.00520    0.000
 5878.00    1.14128   1.00402    0.000
 5879.00    1.10868   1.00223    0.000
 5880.00    1.04716   1.00047    0.000
 5881.00    0.97059   0.99820    0.000
 5882.00    0.98941   0.99603    0.000
 5883.00    1.05124   0.99344    0.000
 5884.00    1.05726   0.99066    0.000
 5885.00    1.04165   0.98719    0.000
 5886.00    1.03708   0.98287    0.000
 5887.00    1.03616   0.97762    0.000
 5888.00    1.02491   0.97090    0.000
 5889.00    1.01082   0.96307    0.000
 5890.00    1.00777   0.95367    0.000
 5891.00    1.00723   0.94332    0.000
 5892.00    1.00027   0.93209    0.000
 5893.00    0.99214   0.92091    0.000
 5894.00    0.96357   0.91019    0.000
 5895.00    0.93214   0.90077    0.000
 5896.00    0.92153   0.89321    0.000
 5897.00    0.91300   0.88797    0.000
 5898.00    0.97886   0.88537    0.000
 5899.00    1.04945   0.88550    0.000
 5900.00    1.01358   0.88830    0.000
 5901.00    0.97464   0.89351    0.008
 5902.00    0.95019   0.90071    0.008
 5903.00    0.92666   0.90952    0.008
 5904.00    0.92883   0.91933    0.008
 5905.00    0.92945   0.92963    0.008
 5906.00    0.90775   0.93992    0.008
 5907.00    0.89544   0.94969    0.008
 5908.00    0.97046   0.95858    0.008
 5909.00    1.02677   0.96632    0.008
 5910.00    0.95599   0.97274    0.008
 5911.00    0.89949   0.97787    0.008
 5912.00    0.91812   0.98168    0.008
 5913.00    0.93458   0.98441    0.008
 5914.00    0.94190   0.98606    0.008
 5915.00    0.93098   0.98700    0.008
 5916.00    0.85635   0.98719    0.008
 5917.00    0.80421   0.98705    0.008
 5918.00    0.81819   0.98662    0.008
 5919.00    0.85544   0.98619    0.008
 5920.00    0.95101   0.98589    0.008
 5921.00    1.01858   0.98577    0.008
 5922.00    1.02567   0.98603    0.008
 5923.00    1.04174   0.98648    0.008
 5924.00    1.07464   0.98730    0.008
 5925.00    1.09472   0.98817    0.008
 5926.00    1.09383   0.98918    0.008
 5927.00    1.08551   0.99008    0.008
 5928.00    1.06653   0.99089    0.008
 5929.00    1.06165   0.99146    0.008
 5930.00    1.07457   0.99176    0.008
 5931.00    1.05243   0.99187    0.008
 5932.00    0.99128   0.99176    0.008
 5933.00    0.98242   0.99156    0.008
 5934.00    1.02490   0.99128    0.008
 5935.00    1.09035   0.99105    0.008
 5936.00    1.17570   0.99091    0.008
 5937.00    1.19386   0.99085    0.008
 5938.00    1.16079   0.99102    0.008
 5939.00    1.11878   0.99123    0.008
 5940.00    1.07077   0.99162    0.008
 5941.00    1.02851   0.99196    0.008
 5942.00    0.98964   0.99238    0.008
 5943.00    0.93914   0.99267    0.008
 5944.00    0.88269   0.99291    0.008
 5945.00    0.85822   0.99301    0.008
 5946.00    0.84794   0.99302    0.008
 5947.00    0.87074   0.99290    0.008
 5948.00    0.90615   0.99264    0.008
 5949.00    0.93752   0.99226    0.008
 5950.00    0.96759   0.99176    0.008
 5951.00    0.97188   0.99113    0.008
 5952.00    0.96919   0.99039    0.008
 5953.00    1.00779   0.98954    0.008
 5954.00    1.05557   0.98870    0.008
 5955.00    1.05067   0.98783    0.008
 5956.00    1.03645   0.98713    0.008
 5957.00    1.02239   0.98653    0.008
 5958.00    1.00835   0.98627    0.008
 5959.00    1.00397   0.98622    0.008
 5960.00    1.00052   0.98663    0.008
 5961.00    1.02979   0.98728    0.008
 5962.00    1.06100   0.98838    0.008
 5963.00    1.11875   0.98968    0.008
 5964.00    1.17650   0.99130    0.008
 5965.00    1.13097   0.99298    0.008
 5966.00    1.08695   0.99477    0.008
 5967.00    1.08132   0.99649    0.008
 5968.00    1.07781   0.99811    0.008
 5969.00    1.10294   0.99959    0.008
 5970.00    1.12517   1.00081    0.008
 5971.00    1.12149   1.00187    0.008
 5972.00    1.11600   1.00260    0.008
 5973.00    1.09860   1.00311    0.008
 5974.00    1.08450   1.00326    0.008
 5975.00    1.08734   1.00309    0.008
 5976.00    1.08854   1.00253    0.008
 5977.00    1.08291   1.00160    0.008
 5978.00    1.07510   1.00031    0.008
 5979.00    1.05977   0.99872    0.008
 5980.00    1.04035   0.99691    0.008
 5981.00    1.00912   0.99500    0.008
 5982.00    0.98669   0.99307    0.008
 5983.00    0.98594   0.99123    0.008
 5984.00    0.97078   0.98955    0.008
 5985.00    0.92501   0.98809    0.008
 5986.00    0.88860   0.98689    0.008
 5987.00    0.86945   0.98599    0.008
 5988.00    0.87422   0.98541    0.008
 5989.00    0.91753   0.98517    0.008
 5990.00    0.96751   0.98529    0.008
 5991.00    1.02693   0.98577    0.008
 5992.00    1.07310   0.98658    0.008
 5993.00    1.10278   0.98767    0.008
 5994.00    1.10527   0.98894    0.008
 5995.00    1.07796   0.99032    0.008
 5996.00    1.06073   0.99164    0.008
 5997.00    1.05326   0.99282    0.008
 5998.00    1.05147   0.99374    0.008
 5999.00    1.05452   0.99434    0.008
 6000.00    1.05205   0.99455    0.008
 6001.00    1.04542   0.99440    0.008
 6002.00    1.03705   0.99387    0.008
 6003.00    1.02752   0.99305    0.008
 6004.00    1.03219   0.99196    0.008
 6005.00    1.04508   0.99071    0.008
 6006.00    1.04825   0.98931    0.008
 6007.00    1.04651   0.98789    0.008
 6008.00    1.06086   0.98645    0.008
 6009.00    1.08223   0.98510    0.008
 6010.00    1.04986   0.98382    0.008
 6011.00    0.99738   0.98276    0.008
 6012.00    0.96052   0.98183    0.008
 6013.00    0.92860   0.98114    0.008
 6014.00    0.98044   0.98059    0.008
 6015.00    1.05449   0.98024    0.008
 6016.00    1.06969   0.97998    0.008
 6017.00    1.07213   0.97979    0.008
 6018.00    1.05096   0.97959    0.008
 6019.00    1.02573   0.97938    0.008
 6020.00    0.96441   0.97910    0.008
 6021.00    0.89838   0.97884    0.008
 6022.00    0.85486   0.97858    0.008
 6023.00    0.81339   0.97845    0.008
 6024.00    0.87423   0.97846    0.008
 6025.00    0.94078   0.97877    0.008
 6026.00    0.98801   0.97938    0.008
 6027.00    1.03431   0.98040    0.008
 6028.00    1.02900   0.98180    0.008
 6029.00    1.02158   0.98358    0.008
 6030.00    0.96537   0.98573    0.008
 6031.00    0.91396   0.98810    0.008
 6032.00    0.92385   0.99068    0.008
 6033.00    0.93653   0.99328    0.008
 6034.00    0.97324   0.99587    0.008
 6035.00    1.00533   0.99830    0.008
 6036.00    1.00787   1.00053    0.008
 6037.00    1.01103   1.00248    0.008
 6038.00    1.01725   1.00410    0.008
 6039.00    1.02591   1.00542    0.008
 6040.00    1.04441   1.00640    0.008
 6041.00    1.04372   1.00714    0.008
 6042.00    0.97863   1.00763    0.008
 6043.00    0.93278   1.00802    0.008
 6044.00    0.94147   1.00828    0.008
 6045.00    0.96901   1.00859    0.008
 6046.00    1.04224   1.00891    0.008
 6047.00    1.09808   1.00934    0.008
 6048.00    1.11760   1.00981    0.008
 6049.00    1.12524   1.01034    0.008
 6050.00    1.11132   1.01086    0.008
 6051.00    1.06970   1.01126    0.008
 6052.00    0.98409   1.01155    0.008
 6053.00    0.93347   1.01156    0.008
 6054.00    0.93164   1.01135    0.008
 6055.00    0.97732   1.01079    0.008
 6056.00    1.08130   1.01000    0.008
 6057.00    1.14723   1.00895    0.008
 6058.00    1.17199   1.00773    0.008
 6059.00    1.18336   1.00643    0.008
 6060.00    1.18195   1.00507    0.008
 6061.00    1.19302   1.00378    0.008
 6062.00    1.21458   1.00252    0.008
 6063.00    1.17473   1.00140    0.008
 6064.00    1.08940   1.00036    0.008
 6065.00    1.04015   0.99950    0.008
 6066.00    1.01439   0.99878    0.008
 6067.00    1.05126   0.99830    0.008
 6068.00    1.12380   0.99811    0.007
 6069.00    1.16526   0.99828    0.008
 6070.00    1.19132   0.99884    0.008
 6071.00    1.18550   0.99986    0.008
 6072.00    1.16601   1.00120    0.008
 6073.00    1.13729   1.00289    0.008
 6074.00    1.10517   1.00462    0.008
 6075.00    1.07176   1.00636    0.008
 6076.00    1.03795   1.00774    0.008
 6077.00    1.05142   1.00873    0.008
 6078.00    1.07716   1.00906    0.008
 6079.00    1.06424   1.00878    0.008
 6080.00    1.04315   1.00778    0.008
 6081.00    1.04506   1.00620    0.008
 6082.00    1.05083   1.00414    0.008
 6083.00    1.01790   1.00173    0.008
 6084.00    0.98009   0.99921    0.008
 6085.00    0.95750   0.99665    0.008
 6086.00    0.93625   0.99433    0.008
 6087.00    0.92585   0.99219    0.008
 6088.00    0.91602   0.99050    0.008
 6089.00    0.95387   0.98907    0.008
 6090.00    0.99185   0.98809    0.008
 6091.00    0.97562   0.98736    0.007
 6092.00    0.95761   0.98700    0.007
 6093.00    0.90143   0.98683    0.007
 6094.00    0.84914   0.98691    0.007
 6095.00    0.84400   0.98714    0.007
 6096.00    0.84648   0.98751    0.007
 6097.00    0.91220   0.98794    0.007
 6098.00    0.96920   0.98837    0.007
 6099.00    0.97221   0.98873    0.008
 6100.00    0.97209   0.98888    0.008
 6101.00    0.95679   0.98881    0.008
 6102.00    0.96155   0.98837    0.008
 6103.00    1.04578   0.98763    0.008
 6104.00    1.10968   0.98658    0.008
 6105.00    1.10671   0.98538    0.008
 6106.00    1.09550   0.98415    0.008
 6107.00    1.06140   0.98307    0.008
 6108.00    1.02533   0.98233    0.008
 6109.00    0.98457   0.98201    0.008
 6110.00    0.97281   0.98225    0.008
 6111.00    1.02072   0.98298    0.008
 6112.00    1.04652   0.98415    0.008
 6113.00    1.03274   0.98564    0.008
 6114.00    1.02218   0.98722    0.008
 6115.00    1.01667   0.98879    0.008
 6116.00    1.01249   0.99008    0.008
 6117.00    1.01015   0.99107    0.008
 6118.00    1.01761   0.99148    0.008
 6119.00    1.03693   0.99143    0.008
 6120.00    1.03679   0.99069    0.008
 6121.00    1.01589   0.98950    0.008
 6122.00    0.99003   0.98774    0.008
 6123.00    0.95951   0.98573    0.008
 6124.00    0.92145   0.98347    0.007
 6125.00    0.87712   0.98131    0.007
 6126.00    0.87622   0.97931    0.007
 6127.00    0.90704   0.97772    0.007
 6128.00    0.96031   0.97658    0.007
 6129.00    1.02797   0.97596    0.008
 6130.00    1.04760   0.97580    0.008
 6131.00    1.04028   0.97595    0.008
 6132.00    1.02095   0.97629    0.008
 6133.00    0.99574   0.97651    0.008
 6134.00    0.99090   0.97649    0.008
 6135.00    0.99464   0.97596    0.008
 6136.00    0.98776   0.97491    0.008
 6137.00    0.97704   0.97320    0.008
 6138.00    0.96850   0.97106    0.008
 6139.00    0.96062   0.96852    0.008
 6140.00    0.95371   0.96602    0.008
 6141.00    0.94705   0.96367    0.008
 6142.00    0.95865   0.96195    0.008
 6143.00    0.97403   0.96092    0.008
 6144.00    0.95642   0.96085    0.008
 6145.00    0.93346   0.96165    0.008
 6146.00    0.92085   0.96325    0.008
 6147.00    0.90950   0.96550    0.008
 6148.00    0.94590   0.96797    0.008
 6149.00    0.98629   0.97062    0.008
 6150.00    0.97540   0.97289    0.007
 6151.00    0.96205   0.97494    0.007
 6152.00    0.94915   0.97623    0.007
 6153.00    0.93724   0.97711    0.007
 6154.00    0.98208   0.97713    0.007
 6155.00    1.02307   0.97673    0.008
 6156.00    0.98837   0.97554    0.008
 6157.00    0.95293   0.97387    0.008
 6158.00    0.90901   0.97149    0.008
 6159.00    0.87299   0.96851    0.008
 6160.00    0.90012   0.96485    0.008
 6161.00    0.92441   0.96049    0.008
 6162.00    0.93161   0.95558    0.008
 6163.00    0.93138   0.95012    0.008
 6164.00    0.89586   0.94448    0.008
 6165.00    0.87730   0.93875    0.008
 6166.00    0.92447   0.93339    0.008
 6167.00    0.96212   0.92856    0.008
 6168.00    0.96907   0.92458    0.008
 6169.00    0.97754   0.92162    0.008
 6170.00    0.99016   0.91976    0.008
 6171.00    0.98590   0.91898    0.008
 6172.00    0.94213   0.91923    0.008
 6173.00    0.91230   0.92031    0.008
 6174.00    0.91071   0.92219    0.008
 6175.00    0.91543   0.92452    0.008
 6176.00    0.93127   0.92741    0.008
 6177.00    0.94844   0.93042    0.007
 6178.00    0.96766   0.93379    0.007
 6179.00    0.98246   0.93702    0.007
 6180.00    0.99125   0.94042    0.007
 6181.00    0.99247   0.94349    0.007
 6182.00    0.98464   0.94650    0.007
 6183.00    0.96183   0.94901    0.007
 6184.00    0.92326   0.95122    0.007
 6185.00    0.88763   0.95280    0.007
 6186.00    0.85471   0.95384    0.008
 6187.00    0.84697   0.95416    0.008
 6188.00    0.85984   0.95383    0.008
 6189.00    0.87901   0.95280    0.008
 6190.00    0.90272   0.95121    0.008
 6191.00    0.94189   0.94912    0.008
 6192.00    0.99083   0.94682    0.008
 6193.00    1.05788   0.94439    0.008
 6194.00    1.13492   0.94223    0.008
 6195.00    1.11032   0.94036    0.008
 6196.00    1.03691   0.93915   -2.000
 6197.00    0.82026   0.93850   -2.000
 6198.00    0.54422   0.93861   -2.000
 6199.00    0.40268   0.93929   -2.000
 6200.00    0.30880   0.94053   -2.000
 6201.00    0.44370   0.94212   -2.000
 6202.00    0.64706   0.94395   -2.000
 6203.00    0.89405   0.94589   -2.000
 6204.00    1.15188   0.94781   -2.000
 6205.00    1.20034   0.94967   -2.000
 6206.00    1.20665   0.95139   -2.000
 6207.00    1.07498   0.95294   -2.000
 6208.00    0.92154   0.95424    0.008
 6209.00    0.91829   0.95522    0.008
 6210.00    0.93264   0.95579    0.008
 6211.00    0.90074   0.95583    0.008
 6212.00    0.86517   0.95528    0.007
 6213.00    0.88029   0.95401    0.007
 6214.00    0.89764   0.95212    0.007
 6215.00    0.91323   0.94952    0.008
 6216.00    0.92804   0.94647    0.008
 6217.00    0.90639   0.94297    0.008
 6218.00    0.88579   0.93940    0.007
 6219.00    0.88447   0.93580    0.008
 6220.00    0.88383   0.93255    0.008
 6221.00    0.89064   0.92966    0.008
 6222.00    0.89698   0.92736    0.008
 6223.00    0.89956   0.92564    0.008
 6224.00    0.90237   0.92449    0.008
 6225.00    0.90656   0.92384    0.008
 6226.00    0.90786   0.92352    0.008
 6227.00    0.89578   0.92347    0.008
 6228.00    0.88607   0.92341    0.008
 6229.00    0.88537   0.92335    0.008
 6230.00    0.89555   0.92306    0.008
 6231.00    0.94020   0.92263    0.008
 6232.00    0.97334   0.92197    0.008
 6233.00    0.97557   0.92120    0.007
 6234.00    0.97221   0.92046    0.007
 6235.00    0.95598   0.91973    0.007
 6236.00    0.95230   0.91932    0.007
 6237.00    0.97362   0.91896    0.007
 6238.00    0.97287   0.91904    0.007
 6239.00    0.93381   0.91906    0.007
 6240.00    0.89407   0.91933    0.007
 6241.00    0.85331   0.91933    0.007
 6242.00    0.81619   0.91928    0.007
 6243.00    0.78392   0.91885    0.007
 6244.00    0.77729   0.91821    0.007
 6245.00    0.80079   0.91727    0.008
 6246.00    0.80784   0.91622    0.008
 6247.00    0.79783   0.91512    0.008
 6248.00    0.79770   0.91416    0.008
 6249.00    0.80661   0.91332    0.008
 6250.00    0.84744   0.91275    0.008
 6251.00    0.91400   0.91233    0.008
 6252.00    0.97164   0.91204    0.008
 6253.00    1.02294   0.91176    0.008
 6254.00    1.01915   0.91129    0.008
 6255.00    0.98106   0.91073    0.008
 6256.00    0.95022   0.90972    0.008
 6257.00    0.92331   0.90870    0.008
 6258.00    0.92689   0.90728    0.008
 6259.00    0.94487   0.90614    0.008
 6260.00    0.89990   0.90495    0.008
 6261.00    0.82928   0.90437    0.009
 6262.00    0.75867   0.90421    0.009
 6263.00    0.68807   0.90480    0.009
 6264.00    0.74677   0.90611    0.009
 6265.00    0.84340   0.90800    0.009
 6266.00    0.95460   0.91062    0.009
 6267.00    1.06934   0.91341    0.008
 6268.00    1.06297   0.91669    0.008
 6269.00    1.03283   0.91972    0.008
 6270.00    1.01441   0.92291    0.008
 6271.00    0.99778   0.92558    0.008
 6272.00    0.96729   0.92818    0.008
 6273.00    0.93525   0.93024    0.008
 6274.00    0.90178   0.93211    0.008
 6275.00    0.86820   0.93353    0.008
 6276.00    0.87627   0.93472    0.008
 6277.00    0.88601   0.93558    0.008
 6278.00    0.93688   0.93619    0.008
 6279.00    0.98711   0.93656    0.008
 6280.00    0.99922   0.93669    0.000
 6281.00    1.00880   0.93669    0.000
 6282.00    0.97545   0.93651    0.000
 6283.00    0.94816   0.93637    0.000
 6284.00    0.98475   0.93625    0.000
 6285.00    1.02069   0.93632    0.000
 6286.00    1.05185   0.93662    0.000
 6287.00    1.07864   0.93718    0.000
 6288.00    1.08053   0.93812    0.000
 6289.00    1.07490   0.93919    0.000
 6290.00    1.03518   0.94056    0.000
 6291.00    1.01053   0.94182    0.000
 6292.00    1.04180   0.94312    0.000
 6293.00    1.06809   0.94403    0.000
 6294.00    1.07895   0.94469    0.000
 6295.00    1.07760   0.94480    0.000
 6296.00    1.04409   0.94444    0.000
 6297.00    1.02166   0.94359    0.000
 6298.00    1.02429   0.94229    0.000
 6299.00    1.02325   0.94066    0.000
 6300.00    1.01498   0.93880    0.000
 6301.00    1.00502   0.93689    0.000
 6302.00    0.99216   0.93508    0.000
 6303.00    1.01428   0.93352    0.000
 6304.00    1.08879   0.93231    0.000
 6305.00    1.10600   0.93158    0.000
 6306.00    1.04781   0.93133    0.000
 6307.00    1.02722   0.93162    0.000
 6308.00    1.05023   0.93238    0.000
 6309.00    1.06910   0.93355    0.000
 6310.00    1.08376   0.93490    0.000
 6311.00    1.08467   0.93637    0.000
 6312.00    1.07319   0.93767    0.000
 6313.00    1.06094   0.93879    0.000
 6314.00    1.04809   0.93941    0.000
 6315.00    1.03218   0.93965    0.000
 6316.00    1.01414   0.93929    0.000
 6317.00    1.00860   0.93859    0.000
 6318.00    1.01073   0.93746    0.000
 6319.00    0.99158   0.93624    0.000
 6320.00    0.96104   0.93496    0.000
 6321.00    0.94000   0.93397    0.007
 6322.00    0.92336   0.93326    0.007
 6323.00    0.95491   0.93306    0.007
 6324.00    1.00576   0.93342    0.008
 6325.00    1.02614   0.93440    0.008
 6326.00    1.03612   0.93582    0.007
 6327.00    1.02048   0.93770    0.007
 6328.00    0.99748   0.93999    0.008
 6329.00    1.02642   0.94224    0.008
 6330.00    1.06769   0.94459    0.008
 6331.00    1.13814   0.94656    0.008
 6332.00    1.21416   0.94842    0.008
 6333.00    1.27179   0.94967    0.008
 6334.00    1.32668   0.95052    0.008
 6335.00    1.29823   0.95083    0.008
 6336.00    1.26074   0.95064    0.008
 6337.00    1.16527   0.95011    0.008
 6338.00    1.06567   0.94917    0.008
 6339.00    1.03127   0.94805    0.007
 6340.00    0.99925   0.94692    0.007
 6341.00    1.00586   0.94568    0.007
 6342.00    1.01219   0.94473    0.007
 6343.00    1.00351   0.94381    0.007
 6344.00    0.99614   0.94335    0.007
 6345.00    1.00949   0.94307    0.007
 6346.00    1.02262   0.94311    0.007
 6347.00    1.03353   0.94334    0.007
 6348.00    1.03931   0.94360    0.007
 6349.00    1.00798   0.94420    0.007
 6350.00    0.97802   0.94451    0.007
 6351.00    0.95564   0.94527    0.007
 6352.00    0.93669   0.94557    0.007
 6353.00    0.93288   0.94619    0.007
 6354.00    0.93124   0.94622    0.007
 6355.00    0.93749   0.94630    0.008
 6356.00    0.95281   0.94566    0.008
 6357.00    0.99578   0.94480    0.008
 6358.00    1.03594   0.94327    0.007
 6359.00    1.06883   0.94138    0.007
 6360.00    1.06907   0.93903    0.007
 6361.00    0.99656   0.93643    0.007
 6362.00    0.94789   0.93382    0.007
 6363.00    0.94522   0.93128    0.007
 6364.00    0.95370   0.92900    0.007
 6365.00    0.98095   0.92719    0.007
 6366.00    1.00989   0.92608    0.007
 6367.00    1.04134   0.92567    0.007
 6368.00    1.06877   0.92599    0.007
 6369.00    1.09100   0.92716    0.007
 6370.00    1.08040   0.92897    0.007
 6371.00    1.03227   0.93148    0.007
 6372.00    1.00287   0.93428    0.007
 6373.00    0.99233   0.93748    0.007
 6374.00    0.99714   0.94062    0.007
 6375.00    1.01559   0.94380    0.007
 6376.00    1.04648   0.94656    0.007
 6377.00    1.08711   0.94915    0.008
 6378.00    1.08388   0.95123    0.008
 6379.00    1.05043   0.95292    0.008
 6380.00    1.02186   0.95403    0.008
 6381.00    0.99625   0.95468    0.008
 6382.00    1.00892   0.95494    0.008
 6383.00    1.04178   0.95485    0.008
 6384.00    1.04252   0.95452    0.008
 6385.00    1.02858   0.95401    0.007
 6386.00    1.00831   0.95354    0.007
 6387.00    0.98555   0.95298    0.007
 6388.00    1.01250   0.95252    0.007
 6389.00    1.05612   0.95205    0.007
 6390.00    1.09957   0.95153    0.007
 6391.00    1.14297   0.95099    0.007
 6392.00    1.10308   0.95033    0.007
 6393.00    1.04387   0.94960    0.007
 6394.00    0.96392   0.94864    0.007
 6395.00    0.88012   0.94758    0.007
 6396.00    0.88713   0.94645    0.008
 6397.00    0.90720   0.94522    0.008
 6398.00    0.97733   0.94411    0.008
 6399.00    1.05267   0.94310    0.007
 6400.00    1.08485   0.94235    0.008
 6401.00    1.11412   0.94205    0.008
 6402.00    1.09975   0.94179    0.008
 6403.00    1.08396   0.94200    0.008
 6404.00    1.05950   0.94216    0.008
 6405.00    1.03623   0.94289    0.008
 6406.00    1.04967   0.94353    0.008
 6407.00    1.05998   0.94458    0.008
 6408.00    1.02324   0.94558    0.008
 6409.00    0.99285   0.94643    0.008
 6410.00    1.02381   0.94715    0.007
 6411.00    1.05422   0.94756    0.007
 6412.00    1.08070   0.94777    0.007
 6413.00    1.10765   0.94775    0.007
 6414.00    1.13718   0.94757    0.007
 6415.00    1.15611   0.94716    0.007
 6416.00    1.12928   0.94675    0.007
 6417.00    1.09760   0.94624    0.007
 6418.00    1.04870   0.94578    0.007
 6419.00    1.01011   0.94540    0.007
 6420.00    1.00231   0.94513    0.007
 6421.00    0.99933   0.94490    0.007
 6422.00    1.00858   0.94485    0.007
 6423.00    1.02160   0.94488    0.007
 6424.00    1.04285   0.94506    0.007
 6425.00    1.05227   0.94545    0.007
 6426.00    1.03921   0.94604    0.008
 6427.00    1.02332   0.94693    0.008
 6428.00    1.00274   0.94778    0.008
 6429.00    0.97734   0.94879    0.008
 6430.00    0.94494   0.94957    0.008
 6431.00    0.93315   0.95030    0.008
 6432.00    0.94771   0.95075    0.008
 6433.00    0.99629   0.95093    0.008
 6434.00    1.08318   0.95087    0.008
 6435.00    1.13502   0.95049    0.008
 6436.00    1.15202   0.95035    0.007
 6437.00    1.14713   0.94995    0.007
 6438.00    1.12306   0.94996    0.007
 6439.00    1.10159   0.94985    0.007
 6440.00    1.08212   0.95017    0.007
 6441.00    1.05499   0.95049    0.007
 6442.00    1.02265   0.95112    0.007
 6443.00    0.98916   0.95174    0.007
 6444.00    0.95497   0.95286    0.007
 6445.00    0.96269   0.95391    0.007
 6446.00    0.99215   0.95500    0.007
 6447.00    0.99787   0.95584    0.008
 6448.00    0.99289   0.95639    0.008
 6449.00    0.97269   0.95650    0.008
 6450.00    0.94660   0.95616    0.008
 6451.00    0.92286   0.95534    0.008
 6452.00    0.89988   0.95398    0.008
 6453.00    0.92097   0.95229    0.007
 6454.00    0.95422   0.95025    0.007
 6455.00    0.98899   0.94881    0.007
 6456.00    1.02410   0.94730    0.008
 6457.00    1.03699   0.94641    0.008
 6458.00    1.04585   0.94561    0.008
 6459.00    1.03838   0.94536    0.008
 6460.00    1.02865   0.94522    0.008
 6461.00    1.02164   0.94575    0.007
 6462.00    1.01491   0.94620    0.007
 6463.00    1.00308   0.94688    0.007
 6464.00    0.99094   0.94729    0.007
 6465.00    0.95111   0.94773    0.007
 6466.00    0.91067   0.94779    0.007
 6467.00    0.92818   0.94788    0.007
 6468.00    0.94643   0.94847    0.007
 6469.00    0.98545   0.94869    0.007
 6470.00    1.01853   0.94935    0.007
 6471.00    0.96756   0.94960    0.007
 6472.00    0.92182   0.95034    0.007
 6473.00    0.92460   0.95055    0.008
 6474.00    0.93185   0.95109    0.008
 6475.00    0.96943   0.95120    0.008
 6476.00    0.99972   0.95130    0.008
 6477.00    0.99184   0.95133    0.008
 6478.00    0.99646   0.95098    0.008
 6479.00    1.05385   0.95053    0.008
 6480.00    1.09582   0.94979    0.008
 6481.00    1.08399   0.94917    0.008
 6482.00    1.06629   0.94812    0.007
 6483.00    1.03132   0.94710    0.007
 6484.00    1.00564   0.94582    0.007
 6485.00    1.00318   0.94447    0.007
 6486.00    0.99468   0.94292    0.007
 6487.00    0.97315   0.94150    0.007
 6488.00    0.96555   0.94001    0.007
 6489.00    0.98400   0.93841    0.007
 6490.00    0.98498   0.93652    0.007
 6491.00    0.95744   0.93431    0.007
 6492.00    0.91932   0.93164    0.007
 6493.00    0.86604   0.92840    0.007
 6494.00    0.85762   0.92452    0.007
 6495.00    0.90574   0.92011    0.007
 6496.00    0.94895   0.91520    0.007
 6497.00    0.98671   0.91010    0.008
 6498.00    1.01362   0.90487    0.008
 6499.00    1.02989   0.90021    0.008
 6500.00    1.02909   0.89663    0.008
 6501.00    1.01353   0.89389    0.008
 6502.00    0.98944   0.89298    0.008
 6503.00    0.95886   0.89299    0.008
 6504.00    0.97386   0.89490    0.007
 6505.00    1.01935   0.89782    0.007
 6506.00    1.07281   0.90192    0.007
 6507.00    1.13093   0.90667    0.008
 6508.00    1.12620   0.91175    0.007
 6509.00    1.08937   0.91698    0.007
 6510.00    1.04433   0.92179    0.007
 6511.00    0.99568   0.92627    0.007
 6512.00    0.96682   0.92992    0.007
 6513.00    0.94549   0.93300    0.007
 6514.00    0.94295   0.93527    0.007
 6515.00    0.94646   0.93687    0.007
 6516.00    0.93762   0.93774    0.007
 6517.00    0.92544   0.93808    0.007
 6518.00    0.95576   0.93796    0.007
 6519.00    0.99549   0.93755    0.007
 6520.00    0.98748   0.93693    0.007
 6521.00    0.97105   0.93638    0.007
 6522.00    0.90251   0.93589    0.007
 6523.00    0.82696   0.93557    0.007
 6524.00    0.85554   0.93559    0.007
 6525.00    0.89408   0.93573    0.007
 6526.00    0.89596   0.93612    0.007
 6527.00    0.89568   0.93658    0.008
 6528.00    0.88280   0.93719    0.000
 6529.00    0.87016   0.93776    0.000
 6530.00    0.93739   0.93833    0.000
 6531.00    1.00301   0.93876    0.000
 6532.00    1.02785   0.93924    0.000
 6533.00    1.04700   0.93958    0.000
 6534.00    0.99014   0.93987    0.000
 6535.00    0.93701   0.94005    0.000
 6536.00    0.91715   0.94024    0.000
 6537.00    0.90644   0.94046    0.000
 6538.00    0.95575   0.94072    0.000
 6539.00    1.00222   0.94099    0.000
 6540.00    1.03419   0.94119    0.000
 6541.00    1.05734   0.94126    0.000
 6542.00    1.04412   0.94118    0.000
 6543.00    1.03880   0.94084    0.000
 6544.00    1.06049   0.94020    0.000
 6545.00    1.08251   0.93910    0.000
 6546.00    1.10550   0.93758    0.000
 6547.00    1.12330   0.93567    0.000
 6548.00    1.12833   0.93324    0.000
 6549.00    1.14731   0.93065    0.000
 6550.00    1.19586   0.92754    0.000
 6551.00    1.21395   0.92446    0.000
 6552.00    1.17591   0.92102    0.000
 6553.00    1.13668   0.91738    0.000
 6554.00    1.09553   0.91334    0.000
 6555.00    1.06261   0.90891    0.000
 6556.00    1.04132   0.90390    0.000
 6557.00    1.02613   0.89823    0.000
 6558.00    1.01853   0.89169    0.000
 6559.00    1.03113   0.88433    0.000
 6560.00    1.06584   0.87598    0.000
 6561.00    1.14610   0.86686    0.000
 6562.00    1.27034   0.85694    0.000
 6563.00    1.38393   0.84662    0.000
 6564.00    1.48842   0.83598    0.000
 6565.00    1.51493   0.82595    0.000
 6566.00    1.48291   0.81743    0.000
 6567.00    1.43539   0.81069    0.000
 6568.00    1.37764   0.80708    0.000
 6569.00    1.31932   0.80587    0.000
 6570.00    1.26066   0.80729    0.000
 6571.00    1.19154   0.81108    0.000
 6572.00    1.11716   0.81710    0.000
 6573.00    1.06740   0.82475    0.000
 6574.00    1.02834   0.83347    0.000
 6575.00    1.00165   0.84279    0.000
 6576.00    0.97958   0.85202    0.000
 6577.00    0.93744   0.86089    0.000
 6578.00    0.88894   0.86927    0.000
 6579.00    0.88668   0.87674    0.000
 6580.00    0.89666   0.88362    0.000
 6581.00    1.00472   0.88943    0.000
 6582.00    1.13399   0.89470    0.000
 6583.00    1.19310   0.89909    0.000
 6584.00    1.24017   0.90307    0.000
 6585.00    1.24474   0.90653    0.000
 6586.00    1.24377   0.90941    0.000
 6587.00    1.24848   0.91216    0.000
 6588.00    1.25370   0.91404    0.000
 6589.00    1.25218   0.91598    0.000
 6590.00    1.25028   0.91709    0.000
 6591.00    1.21111   0.91808    0.000
 6592.00    1.17067   0.91849    0.000
 6593.00    1.08574   0.91848    0.000
 6594.00    1.00212   0.91810    0.000
 6595.00    0.94853   0.91718    0.000
 6596.00    0.89769   0.91642    0.000
 6597.00    0.88176   0.91540    0.000
 6598.00    0.87042   0.91479    0.000
 6599.00    0.89840   0.91424    0.000
 6600.00    0.92988   0.91401    0.000
 6601.00    0.98361   0.91404    0.000
 6602.00    1.02939   0.91445    0.000
 6603.00    1.03553   0.91515    0.000
 6604.00    1.04499   0.91604    0.000
 6605.00    1.06784   0.91699    0.000
 6606.00    1.07981   0.91784    0.000
 6607.00    1.05533   0.91854    0.000
 6608.00    1.02412   0.91911    0.000
 6609.00    0.97383   0.91938    0.007
 6610.00    0.93596   0.91959    0.007
 6611.00    0.92808   0.91950    0.007
 6612.00    0.93020   0.91962    0.008
 6613.00    0.95317   0.91975    0.008
 6614.00    0.96743   0.92010    0.008
 6615.00    0.96587   0.92066    0.008
 6616.00    0.97715   0.92131    0.008
 6617.00    1.00877   0.92242    0.008
 6618.00    1.04106   0.92346    0.008
 6619.00    1.07427   0.92491    0.008
 6620.00    1.08054   0.92610    0.008
 6621.00    1.05379   0.92744    0.008
 6622.00    1.01809   0.92842    0.008
 6623.00    0.97270   0.92931    0.007
 6624.00    0.95834   0.92977    0.007
 6625.00    0.97354   0.92988    0.008
 6626.00    0.97861   0.92959    0.008
 6627.00    0.97517   0.92888    0.007
 6628.00    0.97177   0.92807    0.007
 6629.00    0.96839   0.92683    0.008
 6630.00    0.99834   0.92562    0.008
 6631.00    1.04994   0.92412    0.008
 6632.00    1.05300   0.92268    0.008
 6633.00    1.02848   0.92115    0.008
 6634.00    0.99540   0.91973    0.008
 6635.00    0.95809   0.91830    0.008
 6636.00    0.95561   0.91705    0.008
 6637.00    0.96802   0.91606    0.008
 6638.00    0.96000   0.91528    0.008
 6639.00    0.94449   0.91479    0.008
 6640.00    0.90645   0.91447    0.008
 6641.00    0.86142   0.91432    0.008
 6642.00    0.90647   0.91429    0.008
 6643.00    0.97484   0.91446    0.008
 6644.00    0.99306   0.91467    0.008
 6645.00    1.00070   0.91475    0.008
 6646.00    0.98471   0.91493    0.008
 6647.00    0.96478   0.91510    0.008
 6648.00    0.99085   0.91530    0.008
 6649.00    1.02269   0.91545    0.008
 6650.00    1.00160   0.91560    0.008
 6651.00    0.97591   0.91576    0.007
 6652.00    0.88008   0.91590    0.008
 6653.00    0.78066   0.91603    0.008
 6654.00    0.78575   0.91611    0.008
 6655.00    0.79315   0.91617    0.008
 6656.00    0.83292   0.91613    0.008
 6657.00    0.87403   0.91606    0.008
 6658.00    0.94357   0.91583    0.008
 6659.00    1.01128   0.91547    0.008
 6660.00    1.05702   0.91498    0.008
 6661.00    1.09854   0.91423    0.008
 6662.00    1.10527   0.91347    0.008
 6663.00    1.10561   0.91238    0.008
 6664.00    1.06658   0.91135    0.008
 6665.00    1.03158   0.90993    0.008
 6666.00    1.01613   0.90886    0.008
 6667.00    1.00019   0.90779    0.008
 6668.00    0.98229   0.90687    0.008
 6669.00    0.97468   0.90627    0.008
 6670.00    1.00083   0.90573    0.008
 6671.00    1.03298   0.90573    0.008
 6672.00    1.08175   0.90567    0.008
 6673.00    1.10773   0.90605    0.008
 6674.00    1.07956   0.90618    0.008
 6675.00    1.06377   0.90650    0.008
 6676.00    1.07341   0.90652    0.008
 6677.00    1.05939   0.90636    0.008
 6678.00    1.00310   0.90595    0.008
 6679.00    0.95482   0.90490    0.008
 6680.00    0.91905   0.90380    0.008
 6681.00    0.90415   0.90251    0.008
 6682.00    0.91788   0.90156    0.008
 6683.00    0.92383   0.90045    0.008
 6684.00    0.92037   0.89975    0.008
 6685.00    0.91450   0.89929    0.008
 6686.00    0.90606   0.89924    0.008
 6687.00    0.93038   0.89960    0.008
 6688.00    0.98546   0.90023    0.008
 6689.00    1.02309   0.90122    0.008
 6690.00    1.04629   0.90223    0.008
 6691.00    1.00848   0.90351    0.008
 6692.00    0.92621   0.90454    0.008
 6693.00    0.87739   0.90558    0.008
 6694.00    0.84998   0.90635    0.008
 6695.00    0.85459   0.90695    0.008
 6696.00    0.87710   0.90722    0.000
 6697.00    0.90769   0.90719    0.000
 6698.00    0.94221   0.90688    0.000
 6699.00    0.97141   0.90648    0.000
 6700.00    0.99838   0.90604    0.000
 6701.00    0.99247   0.90550    0.000
 6702.00    0.97471   0.90515    0.000
 6703.00    0.94513   0.90467    0.000
 6704.00    0.91194   0.90439    0.000
 6705.00    0.97130   0.90400    0.000
 6706.00    1.05408   0.90374    0.000
 6707.00    1.05982   0.90354    0.000
 6708.00    1.04970   0.90336    0.000
 6709.00    1.03763   0.90324    0.000
 6710.00    1.02525   0.90286    0.000
 6711.00    0.99033   0.90257    0.000
 6712.00    0.95268   0.90185    0.000
 6713.00    0.95019   0.90120    0.000
 6714.00    0.95061   0.90021    0.000
 6715.00    1.02014   0.89895    0.000
 6716.00    1.09293   0.89755    0.000
 6717.00    1.13146   0.89580    0.000
 6718.00    1.16892   0.89410    0.000
 6719.00    1.17373   0.89211    0.000
 6720.00    1.17211   0.89044    0.000
 6721.00    1.04518   0.88909    0.000
 6722.00    0.92520   0.88792    0.000
 6723.00    0.88495   0.88712    0.000
 6724.00    0.85041   0.88656    0.000
 6725.00    0.86133   0.88662    0.000
 6726.00    0.87312   0.88692    0.000
 6727.00    0.89019   0.88762    0.000
 6728.00    0.92009   0.88846    0.000
 6729.00    1.01084   0.88954    0.000
 6730.00    1.08799   0.89082    0.000
 6731.00    1.11264   0.89202    0.000
 6732.00    1.11592   0.89330    0.000
 6733.00    1.05039   0.89434    0.000
 6734.00    0.99875   0.89535    0.000
 6735.00    0.98498   0.89603    0.000
 6736.00    0.98138   0.89656    0.000
 6737.00    1.00153   0.89685    0.000
 6738.00    0.99746   0.89700    0.000
 6739.00    0.94446   0.89688    0.000
 6740.00    0.89624   0.89648    0.000
 6741.00    0.85643   0.89594    0.000
 6742.00    0.81467   0.89531    0.000
 6743.00    0.76990   0.89467    0.000
 6744.00    0.77011   0.89378    0.000
 6745.00    0.83111   0.89283    0.000
 6746.00    0.89689   0.89196    0.000
 6747.00    0.96833   0.89111    0.000
 6748.00    1.01125   0.89022    0.000
 6749.00    1.02425   0.88945    0.000
 6750.00    1.00336   0.88865    0.000
 6751.00    0.95110   0.88801    0.000
 6752.00    0.90159   0.88734    0.000
 6753.00    0.85435   0.88705    0.009
 6754.00    0.85671   0.88690    0.009
 6755.00    0.89471   0.88678    0.009
 6756.00    0.87554   0.88721    0.009
 6757.00    0.82030   0.88764    0.009
 6758.00    0.83290   0.88854    0.009
 6759.00    0.88288   0.88949    0.010
 6760.00    0.95241   0.89077    0.010
 6761.00    1.03131   0.89209    0.010
 6762.00    1.05955   0.89340    0.010
 6763.00    1.06684   0.89480    0.010
 6764.00    1.15863   0.89586    0.010
 6765.00    1.28031   0.89701    0.010
 6766.00    1.25747   0.89764    0.010
 6767.00    1.19150   0.89818    0.010
 6768.00    1.11582   0.89826    0.009
 6769.00    1.03774   0.89802    0.009
 6770.00    1.05948   0.89770    0.009
 6771.00    1.10125   0.89732    0.009
 6772.00    1.11104   0.89691    0.009
 6773.00    1.11579   0.89634    0.009
 6774.00    1.05310   0.89614    0.009
 6775.00    0.98254   0.89603    0.009
 6776.00    0.96752   0.89629    0.009
 6777.00    0.95689   0.89667    0.009
 6778.00    1.04248   0.89724    0.009
 6779.00    1.13225   0.89787    0.009
 6780.00    1.10900   0.89845    0.009
 6781.00    1.08399   0.89913    0.009
 6782.00    1.03221   0.89948    0.009
 6783.00    0.98586   0.89970    0.009
 6784.00    1.03756   0.89933    0.009
 6785.00    1.08306   0.89879    0.009
 6786.00    1.06068   0.89785    0.009
 6787.00    1.04807   0.89685    0.009
 6788.00    1.11069   0.89565    0.009
 6789.00    1.15840   0.89438    0.009
 6790.00    1.11926   0.89328    0.009
 6791.00    1.08537   0.89211    0.009
 6792.00    1.07571   0.89126    0.009
 6793.00    1.06620   0.89054    0.009
 6794.00    1.05728   0.89014    0.009
 6795.00    1.05441   0.88980    0.009
 6796.00    1.07069   0.88971    0.009
 6797.00    1.05378   0.88993    0.009
 6798.00    0.94800   0.89019    0.009
 6799.00    0.91369   0.89075    0.009
 6800.00    1.04362   0.89121    0.009
 6801.00    1.11185   0.89182    0.009
 6802.00    1.05735   0.89240    0.009
 6803.00    1.00868   0.89295    0.009
 6804.00    0.97010   0.89356    0.009
 6805.00    0.95225   0.89407    0.009
 6806.00    0.96586   0.89445    0.009
 6807.00    0.95068   0.89487    0.009
 6808.00    0.89715   0.89523    0.009
 6809.00    0.88135   0.89538    0.008
 6810.00    0.90986   0.89562    0.009
 6811.00    0.94690   0.89567    0.009
 6812.00    0.99279   0.89555    0.009
 6813.00    0.96844   0.89554    0.009
 6814.00    0.87997   0.89542    0.009
 6815.00    0.83470   0.89534    0.009
 6816.00    0.82419   0.89516    0.009
 6817.00    0.89593   0.89496    0.009
 6818.00    1.02590   0.89501    0.009
 6819.00    1.07739   0.89514    0.009
 6820.00    1.08013   0.89526    0.009
 6821.00    1.14156   0.89540    0.009
 6822.00    1.23484   0.89566    0.009
 6823.00    1.19616   0.89590    0.009
 6824.00    1.09526   0.89641    0.009
 6825.00    0.97888   0.89681    0.009
 6826.00    0.85621   0.89726    0.009
 6827.00    0.84157   0.89761    0.008
 6828.00    0.86444   0.89797    0.009
 6829.00    0.87657   0.89821    0.009
 6830.00    0.88556   0.89832    0.009
 6831.00    0.94958   0.89843    0.009
 6832.00    1.02693   0.89843    0.009
 6833.00    1.07382   0.89848    0.009
 6834.00    1.11475   0.89827    0.009
 6835.00    1.08792   0.89808    0.009
 6836.00    1.05077   0.89777    0.009
 6837.00    0.99780   0.89737    0.010
 6838.00    0.94305   0.89680    0.010
 6839.00    0.90223   0.89603    0.010
 6840.00    0.86246   0.89522    0.010
 6841.00    0.84816   0.89412    0.010
 6842.00    0.83486   0.89310    0.009
 6843.00    0.80397   0.89190    0.009
 6844.00    0.77713   0.89079    0.009
 6845.00    0.91619   0.88982    0.009
 6846.00    1.04315   0.88901    0.009
 6847.00    0.96563   0.88852    0.009
 6848.00    0.89179   0.88810    0.009
 6849.00    0.85631   0.88795    0.008
 6850.00    0.82307   0.88799    0.008
 6851.00    0.80644   0.88820    0.009
 6852.00    0.80624   0.88848    0.009
 6853.00    0.89910   0.88881    0.008
 6854.00    0.97212   0.88910    0.008
 6855.00    0.95556   0.88931    0.009
 6856.00    0.93505   0.88919    0.009
 6857.00    0.89995   0.88877    0.009
 6858.00    0.87638   0.88822    0.009
 6859.00    0.88855   0.88760    0.009
 6860.00    0.87945   0.88671    0.009
 6861.00    0.81442   0.88595    0.009
 6862.00    0.79094   0.88512    0.009
 6863.00    0.86138   0.88428    0.009
 6864.00    0.89615   0.88372    0.009
 6865.00    0.86110   0.88339    0.009
 6866.00    0.88205   0.88331    0.009
 6867.00    0.99857   0.88326    0.009
 6868.00    1.03090   0.88339    0.009
 6869.00    0.93737   0.88351    0.009
 6870.00    0.86909   0.88375    0.009
 6871.00    0.83398   0.88406    0.009
 6872.00    0.83335   0.88438    0.009
 6873.00    0.87262   0.88469    0.008
 6874.00    0.85054   0.88491    0.008
 6875.00    0.76586   0.88531    0.008
 6876.00    0.76326   0.88573    0.008
 6877.00    0.83453   0.88603    0.009
 6878.00    0.86191   0.88645    0.009
 6879.00    0.85448   0.88686    0.009
 6880.00    0.85307   0.88751    0.009
 6881.00    0.85586   0.88810    0.009
 6882.00    0.87020   0.88869    0.009
 6883.00    0.89162   0.88912    0.009
 6884.00    0.93489   0.88953    0.009
 6885.00    0.98985   0.89003    0.009
 6886.00    0.98452   0.89047    0.009
 6887.00    0.95122   0.89110    0.009
 6888.00    0.95142   0.89142    0.009
 6889.00    0.96500   0.89212    0.009
 6890.00    0.97693   0.89271    0.009
 6891.00    0.98830   0.89346    0.009
 6892.00    0.98095   0.89417    0.009
 6893.00    0.96822   0.89501    0.009
 6894.00    0.94838   0.89594    0.009
 6895.00    0.92686   0.89680    0.009
 6896.00    0.93243   0.89788    0.009
 6897.00    0.94318   0.89853    0.009
 6898.00    1.00208   0.89933    0.009
 6899.00    1.06810   0.89996    0.009
 6900.00    1.13025   0.90055    0.009
 6901.00    1.19198   0.90096    0.009
 6902.00    1.13458   0.90127    0.009
 6903.00    1.06876   0.90161    0.009
 6904.00    0.99448   0.90193    0.009
 6905.00    0.91989   0.90236    0.009
 6906.00    0.91477   0.90264    0.009
 6907.00    0.91290   0.90302    0.009
 6908.00    1.01580   0.90343    0.009
 6909.00    1.10737   0.90398    0.009
 6910.00    1.01963   0.90431    0.009
 6911.00    0.93494   0.90452    0.009
 6912.00    0.88085   0.90466    0.009
 6913.00    0.83645   0.90469    0.009
 6914.00    0.86162   0.90447    0.009
 6915.00    0.89523   0.90406    0.009
 6916.00    0.97535   0.90332    0.009
 6917.00    1.02955   0.90270    0.008
 6918.00    0.96949   0.90208    0.009
 6919.00    0.92415   0.90119    0.009
 6920.00    0.93218   0.90053    0.009
 6921.00    0.96510   0.89973    0.009
 6922.00    1.07362   0.89922    0.009
 6923.00    1.11631   0.89866    0.009
 6924.00    0.98887   0.89832    0.009
 6925.00    0.91039   0.89791    0.009
 6926.00    0.94078   0.89750    0.009
 6927.00    0.96201   0.89755    0.009
 6928.00    0.96559   0.89726    0.009
 6929.00    0.96331   0.89748    0.009
 6930.00    0.95118   0.89751    0.009
 6931.00    0.96753   0.89755    0.009
 6932.00    1.02585   0.89776    0.009
 6933.00    1.05094   0.89771    0.009
 6934.00    1.03302   0.89800    0.009
 6935.00    0.99146   0.89782    0.009
 6936.00    0.92293   0.89820    0.009
 6937.00    0.89713   0.89861    0.009
 6938.00    0.91432   0.89906    0.009
 6939.00    0.91115   0.89956    0.009
 6940.00    0.88991   0.89974    0.009
 6941.00    0.87067   0.90014    0.009
 6942.00    0.85299   0.90025    0.009
 6943.00    0.84171   0.90051    0.009
 6944.00    0.83482   0.90042    0.009
 6945.00    0.86500   0.90032    0.009
 6946.00    0.91753   0.90030    0.009
 6947.00    0.90205   0.89984    0.009
 6948.00    0.85080   0.89964    0.009
 6949.00    0.83547   0.89938    0.009
 6950.00    0.83654   0.89909    0.009
 6951.00    0.83674   0.89881    0.009
 6952.00    0.83659   0.89853    0.009
 6953.00    0.85163   0.89816    0.009
 6954.00    0.87174   0.89792    0.009
 6955.00    0.94547   0.89788    0.009
 6956.00    1.03426   0.89790    0.009
 6957.00    1.04959   0.89826    0.009
 6958.00    1.04792   0.89885    0.009
 6959.00    1.06804   0.89942    0.009
 6960.00    1.09221   0.89994    0.009
 6961.00    1.07384   0.90077    0.009
 6962.00    1.04939   0.90142    0.009
 6963.00    0.98911   0.90240    0.009
 6964.00    0.92512   0.90345    0.009
 6965.00    1.02003   0.90446    0.009
 6966.00    1.12553   0.90558    0.009
 6967.00    1.05306   0.90648    0.009
 6968.00    0.97488   0.90739    0.009
 6969.00    0.92749   0.90802    0.010
 6970.00    0.88418   0.90872    0.010
 6971.00    0.96607   0.90897    0.010
 6972.00    1.03829   0.90909    0.010
 6973.00    0.96669   0.90893    0.010
 6974.00    0.90542   0.90847    0.009
 6975.00    0.94341   0.90792    0.009
 6976.00    0.96635   0.90685    0.010
 6977.00    0.88465   0.90565    0.009
 6978.00    0.82456   0.90407    0.009
 6979.00    0.88042   0.90253    0.009
 6980.00    0.90637   0.90064    0.009
 6981.00    0.80343   0.89891    0.009
 6982.00    0.75154   0.89782    0.009
 6983.00    0.88084   0.89686    0.009
 6984.00    0.97900   0.89641    0.009
 6985.00    0.98425   0.89619    0.009
 6986.00    1.01527   0.89635    0.009
 6987.00    1.11177   0.89691    0.009
 6988.00    1.13905   0.89778    0.009
 6989.00    1.01502   0.89915    0.009
 6990.00    0.93873   0.90056    0.009
 6991.00    0.95302   0.90223    0.010
 6992.00    0.97073   0.90383    0.010
 6993.00    0.99411   0.90509    0.010
 6994.00    1.00332   0.90619    0.010
 6995.00    0.99198   0.90695    0.010
 6996.00    0.99751   0.90739    0.010
 6997.00    1.02459   0.90763    0.010
 6998.00    1.01066   0.90766    0.010
 6999.00    0.95060   0.90748    0.009
 7000.00    0.88529   0.90713    0.009
 7001.00    0.81478   0.90652    0.009
 7002.00    0.80074   0.90591    0.009
 7003.00    0.83613   0.90519    0.009
 7004.00    0.89840   0.90447    0.009
 7005.00    0.98139   0.90369    0.009
 7006.00    0.94828   0.90271    0.009
 7007.00    0.83648   0.90205    0.009
 7008.00    0.82101   0.90121    0.009
 7009.00    0.86272   0.90068    0.009
 7010.00    0.88747   0.90021    0.010
 7011.00    0.90343   0.89994    0.010
 7012.00    0.93618   0.89980    0.010
 7013.00    0.97646   0.89943    0.010
 7014.00    0.91389   0.89929    0.010
 7015.00    0.81162   0.89900    0.010
 7016.00    0.77687   0.89875    0.010
 7017.00    0.76428   0.89839    0.010
 7018.00    0.86982   0.89786    0.010
 7019.00    1.00787   0.89761    0.010
 7020.00    0.91024   0.89755    0.010
 7021.00    0.75933   0.89746    0.010
 7022.00    0.83830   0.89743    0.010
 7023.00    0.95880   0.89738    0.010
 7024.00    0.96088   0.89744    0.010
 7025.00    0.94656   0.89728    0.010
 7026.00    0.85952   0.89753    0.009
 7027.00    0.76527   0.89822    0.009
 7028.00    0.83729   0.89904    0.009
 7029.00    0.91972   0.89994    0.010
 7030.00    0.95192   0.90067    0.010
 7031.00    0.98224   0.90137    0.010
 7032.00    0.89530   0.90191    0.010
 7033.00    0.81376   0.90260    0.010
 7034.00    0.88083   0.90327    0.010
 7035.00    0.93633   0.90417    0.010
 7036.00    0.82940   0.90508    0.010
 7037.00    0.73862   0.90590    0.010
 7038.00    0.79672   0.90673    0.010
 7039.00    0.84298   0.90744    0.010
 7040.00    0.80948   0.90814    0.010
 7041.00    0.80138   0.90901    0.010
 7042.00    0.92600   0.91034    0.010
 7043.00    1.02050   0.91171    0.010
 7044.00    0.98816   0.91316    0.010
 7045.00    0.92803   0.91472    0.010
 7046.00    0.77123   0.91619    0.010
 7047.00    0.67849   0.91739    0.010
 7048.00    0.77324   0.91884    0.010
 7049.00    0.68839   0.92040    0.010
 7050.00    0.15518   0.92155   -2.000
 7051.00    0.00657   0.92228   -2.000
 7052.00    0.68517   0.92222   -2.000
 7053.00    1.07556   0.92153   -2.000
 7054.00    0.92771   0.91999   -2.000
 7055.00    0.89029   0.91801   -2.000
 7056.00    1.03300   0.91558   -2.000
 7057.00    1.05689   0.91277   -2.000
 7058.00    0.91083   0.90974   -2.000
 7059.00    0.87631   0.90627   -2.000
 7060.00    0.98215   0.90263   -2.000
 7061.00    1.04764   0.89870   -2.000
 7062.00    1.06842   0.89484   -2.000
 7063.00    1.05531   0.89145   -2.000
 7064.00    1.00905   0.88851   -2.000
 7065.00    0.97981   0.88600   -2.000
 7066.00    0.96524   0.88395   -2.000
 7067.00    0.97705   0.88215   -2.000
 7068.00    1.00890   0.88031   -2.000
 7069.00    0.98262   0.87900   -2.000
 7070.00    0.91753   0.87798   -2.000
 7071.00    0.93304   0.87765   -2.000
 7072.00    0.99569   0.87769   -2.000
 7073.00    0.95552   0.87807   -2.000
 7074.00    0.86293   0.87871   -2.000
 7075.00    0.86247   0.87918   -2.000
 7076.00    0.90269   0.88017   -2.000
 7077.00    0.90734   0.88091   -2.000
 7078.00    0.89850   0.88197   -2.000
 7079.00    0.76713   0.88317   -2.000
 7080.00    0.59630   0.88418   -2.000
 7081.00    0.75275   0.88478   -2.000
 7082.00    0.99736   0.88494   -2.000
 7083.00    1.00992   0.88474   -2.000
 7084.00    0.97125   0.88373   -2.000
 7085.00    1.05577   0.88230   -2.000
 7086.00    1.16194   0.88022   -2.000
 7087.00    1.08862   0.87778   -2.000
 7088.00    0.99126   0.87504   -2.000
 7089.00    0.90369   0.87181   -2.000
 7090.00    0.81706   0.86829   -2.000
 7091.00    0.88551   0.86456   -2.000
 7092.00    0.96307   0.86081   -2.000
 7093.00    1.02470   0.85706   -2.000
 7094.00    1.08370   0.85392   -2.000
 7095.00    0.83841   0.85120   -2.000
 7096.00    0.61017   0.84901   -2.000
 7097.00    0.80609   0.84691   -2.000
 7098.00    0.97917   0.84554   -2.000
 7099.00    0.84904   0.84484   -2.000
 7100.00    0.73419   0.84421   -2.000
 7101.00    0.75483   0.84503   -2.000
 7102.00    0.77145   0.84513   -2.000
 7103.00    0.76178   0.84625   -2.000
 7104.00    0.75883   0.84716   -2.000
 7105.00    0.79014   0.84824   -2.000
 7106.00    0.81003   0.84986   -2.000
 7107.00    0.78287   0.85090   -2.000
 7108.00    0.76428   0.85281   -2.000
 7109.00    0.77487   0.85364   -2.000
 7110.00    0.80681   0.85479   -2.000
 7111.00    0.90006   0.85553   -2.000
 7112.00    0.95695   0.85614   -2.000
 7113.00    0.92466   0.85680   -2.000
 7114.00    0.91707   0.85742   -2.000
 7115.00    0.96177   0.85795   -2.000
 7116.00    0.93312   0.85830   -2.000
 7117.00    0.76958   0.85862   -2.000
 7118.00    0.64994   0.85912   -2.000
 7119.00    0.60082   0.85938   -2.000
 7120.00    0.69506   0.85945   -2.000
 7121.00    0.99139   0.85982   -2.000
 7122.00    1.14273   0.85998   -2.000
 7123.00    1.11420   0.86026   -2.000
 7124.00    1.03775   0.85982   -2.000
 7125.00    0.90891   0.85957   -2.000
 7126.00    0.74172   0.85902   -2.000
 7127.00    0.53752   0.85786   -2.000
 7128.00    0.51134   0.85674   -2.000
 7129.00    0.63653   0.85518   -2.000
 7130.00    0.64593   0.85388   -2.000
 7131.00    0.56861   0.85196   -2.000
 7132.00    0.53474   0.85036   -2.000
 7133.00    0.52947   0.84891   -2.000
 7134.00    0.70588   0.84738   -2.000
 7135.00    0.98695   0.84610   -2.000
 7136.00    1.03641   0.84522   -2.000
 7137.00    0.96966   0.84496   -2.000
 7138.00    0.98609   0.84457   -2.000
 7139.00    1.03864   0.84470   -2.000
 7140.00    0.88074   0.84481   -2.000
 7141.00    0.64446   0.84563   -2.000
 7142.00    0.64953   0.84647   -2.000
 7143.00    0.73085   0.84743   -2.000
 7144.00    0.79265   0.84850   -2.000
 7145.00    0.84930   0.84904   -2.000
 7146.00    0.82206   0.85000   -2.000
 7147.00    0.77674   0.85033   -2.000
 7148.00    0.74681   0.85075   -2.000
 7149.00    0.71951   0.85113   -2.000
 7150.00    0.74385   0.85130   -2.000
 7151.00    0.77488   0.85173   -2.000
 7152.00    0.85433   0.85196   -2.000
 7153.00    0.93817   0.85251   -2.000
 7154.00    0.76725   0.85296   -2.000
 7155.00    0.58239   0.85353   -2.000
 7156.00    0.70490   0.85436   -2.000
 7157.00    0.83340   0.85491   -2.000
 7158.00    0.92057   0.85601   -2.000
 7159.00    0.98509   0.85750   -2.000
 7160.00    0.53557   0.85835   -2.000
 7161.00    0.12195   0.85928   -2.000
 7162.00    0.16036   0.85999   -2.000
 7163.00    0.21477   0.86038   -2.000
 7164.00    0.40574   0.86053   -2.000
 7165.00    0.63451   0.86025   -2.000
 7166.00    1.10296   0.86031   -2.000
 7167.00    1.43380   0.85959   -2.000
 7168.00    1.08140   0.85916   -2.000
 7169.00    0.75988   0.85887   -2.000
 7170.00    0.56261   0.85845   -2.000
 7171.00    0.46632   0.85836   -2.000
 7172.00    0.70740   0.85798   -2.000
 7173.00    0.88691   0.85815   -2.000
 7174.00    0.89277   0.85831   -2.000
 7175.00    0.92270   0.85904   -2.000
 7176.00    1.01072   0.85977   -2.000
 7177.00    1.05073   0.86033   -2.000
 7178.00    0.99079   0.86081   -2.000
 7179.00    0.95896   0.86105   -2.000
 7180.00    0.97803   0.86134   -2.000
 7181.00    0.92848   0.86122   -2.000
 7182.00    0.77032   0.86093   -2.000
 7183.00    0.78340   0.86036   -2.000
 7184.00    1.03441   0.85969   -2.000
 7185.00    1.07781   0.85908   -2.000
 7186.00    0.86736   0.85833   -2.000
 7187.00    0.75260   0.85743   -2.000
 7188.00    0.74099   0.85642   -2.000
 7189.00    0.66961   0.85499   -2.000
 7190.00    0.54140   0.85411   -2.000
 7191.00    0.52383   0.85352   -2.000
 7192.00    0.59899   0.85314   -2.000
 7193.00    0.64899   0.85301   -2.000
 7194.00    0.68041   0.85226   -2.000
 7195.00    0.66338   0.85207   -2.000
 7196.00    0.61494   0.85165   -2.000
 7197.00    0.73975   0.85174   -2.000
 7198.00    0.96285   0.85249   -2.000
 7199.00    0.93736   0.85275   -2.000
 7200.00    0.78911   0.85363   -2.000
 7201.00    0.63529   0.85396   -2.000
 7202.00    0.47909   0.85433   -2.000
 7203.00    0.55062   0.85487   -2.000
 7204.00    0.70547   0.85504   -2.000
 7205.00    0.89744   0.85578   -2.000
 7206.00    1.10090   0.85590   -2.000
 7207.00    1.09911   0.85601   -2.000
 7208.00    1.04433   0.85611   -2.000
 7209.00    0.89089   0.85540   -2.000
 7210.00    0.71670   0.85547   -2.000
 7211.00    0.75564   0.85532   -2.000
 7212.00    0.82997   0.85547   -2.000
 7213.00    0.61268   0.85594   -2.000
 7214.00    0.35896   0.85564   -2.000
 7215.00    0.52386   0.85603   -2.000
 7216.00    0.72502   0.85597   -2.000
 7217.00    0.81107   0.85680   -2.000
 7218.00    0.89127   0.85814   -2.000
