###################################################################
## OUTPUT of StarlightChains_v04.for    [Cid@UFSC - 01/Apr/2007] ##
###################################################################

## Some input info
KUG0210-078._37_44.txt                   [arq_obs]
Base.CB07.vall.4m                        [arq_base]
Masks.EmLines.NEW.gm                     [arq_masks]
StCv04.C11.config                        [arq_config]
   66                                    [N_base]
    0                                    [N_YAV_components = # of components with extra extinction!]
    0                                    [i_FitPowerLaw (1/0 = Yes/No)]
-9.99                                    [alpha_PowerLaw]
CCM                                      [red_law_option]
 1.458241                                [q_norm = A(l_norm)/A(V)]

## (Re)Sampling Parameters
 3741.00                                 [l_ini (A)]
 7218.00                                 [l_fin (A)]
    1.00                                 [dl    (A)]     (OBS: dl_cushion =    50.00 A)

## Normalization info
 4020.00                                 [l_norm (A) - for base]
 4010.00                                 [llow_norm (A) - window for f_obs]
 4060.00                                 [lupp_norm (A) - window for f_obs]
1.582832E-17                             [fobs_norm (in input units)]

## S/N
 3691.00                                 [llow_SN (A) - window for S/N]
 7268.00                                 [lupp_SN (A) - window for S/N]
   5.806                                 [S/N in S/N window]
   6.304                                 [S/N in norm. window]
   0.017                                 [S/N_err in S/N window]
   0.018                                 [S/N_err in norm. window]
  1.0000                                 [fscale_chi2]

## etc...
    -2007638                             [idum_orig]
  2432                                   [NOl_eff]
  2378                                   [Nl_eff]
    54    NSIGMA                         [Ntot_cliped & clip_method]
  6924960                                [Nglobal_steps]
   7                                     [N_chains]
  46                                     [NEX0s_base = N_base in EX0s-fits]
 0   0   1       54   2.0   4.938E+03    [Clip-Bug, RC-Crash & Burn-In warning-flags, n_censored_weights, wei_nsig_threshold & wei_limit]
    76     74.254     73.524      0.730  [idt_all, wdt_TotTime, wdt_UsrTime & wdt_SysTime (sec)]

## Synthesis Results - Best model ##

 8.96115E-06                             [chi2/Nl_eff]
     9.87792                             [adev (%)]

   103.19176                             [sum-of-x (%)]
 1.26498E-17                             [Flux_tot (units of input spectrum!)]
 4.38655E-13                             [Mini_tot (???)]
 2.25924E-13                             [Mcor_tot (???)]

-137.59                                  [v0_min  (km/s)]
 483.37                                  [vd_min  (km/s)]
-0.1903                                  [AV_min  (mag)]
 0.0000                                  [YAV_min (mag)]

# j     x_j(%)      Mini_j(%)     Mcor_j(%)     age_j(yr)     Z_j      (L/M)_j    YAV?  Mstars   component_j        a/Fe...       SSP_chi2r SSP_adev(%)   SSP_AV   SSP_x(%)
  1      0.0000     0.0000E+00    0.0000E+00    1.000000E+06  0.00400  1.094E-02    0   1.0000   age020_m42            0.0000     1.8172E-05    14.0562   3.1533    84.0056
  2      0.0000     0.0000E+00    0.0000E+00    3.160000E+06  0.00400  4.007E-02    0   0.9999   age045_m42            0.0000     1.4394E-05    12.6226   2.3962    90.7307
  3      0.0161     1.7753E-05    3.2705E-05    5.010000E+06  0.00400  2.539E-02    0   0.9488   age055_m42            0.0000     1.5993E-05    13.2739   2.7338    88.0130
  4      0.0000     0.0000E+00    0.0000E+00    6.610000E+06  0.00400  2.620E-02    0   0.9220   age061_m42            0.0000     1.4228E-05    12.5293   2.3245    90.8807
  5      0.5820     1.2303E-03    2.1169E-03    1.000000E+07  0.00400  1.322E-02    0   0.8862   age070_m42            0.0000     1.5189E-05    13.2063   2.0842    91.5123
  6      0.0000     0.0000E+00    0.0000E+00    1.445000E+07  0.00400  7.883E-03    0   0.8571   age078_m42            0.0000     1.6145E-05    13.5279   2.4131    89.1282
  7      0.0000     0.0000E+00    0.0000E+00    2.512000E+07  0.00400  5.251E-03    0   0.8174   age090_m42            0.0000     1.5139E-05    13.3067   1.9609    91.8423
  8      0.0000     0.0000E+00    0.0000E+00    4.000000E+07  0.00400  3.649E-03    0   0.7851   age104_m42            0.0000     1.4382E-05    12.9340   1.7234    92.9276
  9      0.6381     5.7558E-03    8.5258E-03    5.500000E+07  0.00400  3.098E-03    0   0.7629   age110_m42            0.0000     1.3451E-05    12.2741   1.8513    93.7535
 10      0.0000     0.0000E+00    0.0000E+00    1.015200E+08  0.00400  2.228E-03    0   0.7207   age116_m42            0.0000     1.2782E-05    11.8312   1.8536    94.4959
 11      0.0000     0.0000E+00    0.0000E+00    2.861200E+08  0.00400  1.093E-03    0   0.6648   age125_m42            0.0000     1.2092E-05    11.6635   1.2881    97.0498
 12      0.0000     0.0000E+00    0.0000E+00    5.088000E+08  0.00400  6.597E-04    0   0.6365   age130_m42            0.0000     1.1167E-05    10.9804   1.2514    98.7610
 13      0.0000     0.0000E+00    0.0000E+00    1.434000E+09  0.00400  2.132E-04    0   0.5798   age139_m42            0.0000     9.7078E-06    10.3295   0.2718   100.9307
 14      1.7941     8.5049E-01    8.8791E-01    4.250000E+09  0.00400  5.895E-05    0   0.5377   age158_m42            0.0000     1.0187E-05    10.6200  -0.1801    97.2951
 15      1.0368     8.2550E-01    8.3538E-01    7.500000E+09  0.00400  3.510E-05    0   0.5212   age171_m42            0.0000     1.0218E-05    10.6155  -0.3789    96.9337
 16      0.0000     0.0000E+00    0.0000E+00    1.300000E+10  0.00400  2.005E-05    0   0.5034   age193_m42            0.0000     1.0350E-05    10.6582  -0.5549    96.6859
 17      0.0000     0.0000E+00    0.0000E+00    1.800000E+10  0.00400  1.525E-05    0   0.4967   age213_m42            0.0000     1.0461E-05    10.7046  -0.5735    96.1229
 18      0.0000     0.0000E+00    0.0000E+00    1.000000E+06  0.00800  1.238E-02    0   1.0000   age020_m52            0.0000     1.8181E-05    14.0802   3.1515    84.1429
 19      0.0000     0.0000E+00    0.0000E+00    3.160000E+06  0.00800  3.074E-02    0   0.9966   age045_m52            0.0000     1.7871E-05    13.9967   3.0709    85.0119
 20      0.0000     0.0000E+00    0.0000E+00    5.010000E+06  0.00800  2.668E-02    0   0.9443   age055_m52            0.0000     1.6544E-05    13.4953   2.8211    87.0892
 21      0.0000     0.0000E+00    0.0000E+00    6.610000E+06  0.00800  2.136E-02    0   0.9177   age061_m52            0.0000     1.5076E-05    13.1259   1.5891    92.4023
 22      1.9835     4.5623E-03    7.8191E-03    1.000000E+07  0.00800  1.215E-02    0   0.8827   age070_m52            0.0000     1.6131E-05    13.7304   2.2770    90.8565
 23      0.0000     0.0000E+00    0.0000E+00    1.445000E+07  0.00800  8.717E-03    0   0.8552   age078_m52            0.0000     1.5819E-05    13.4420   2.3793    90.3808
 24      0.0000     0.0000E+00    0.0000E+00    2.512000E+07  0.00800  5.592E-03    0   0.8162   age090_m52            0.0000     1.4997E-05    13.2668   2.0207    93.0240
 25      0.1283     9.2052E-04    1.4014E-03    4.000000E+07  0.00800  3.896E-03    0   0.7841   age104_m52            0.0000     1.4058E-05    12.7750   1.9202    94.1624
 26      0.0000     0.0000E+00    0.0000E+00    1.015200E+08  0.00800  2.148E-03    0   0.7226   age116_m52            0.0000     1.2927E-05    12.0442   1.8330    94.8383
 27      2.9141     8.2053E-02    1.0647E-01    2.861200E+08  0.00800  9.925E-04    0   0.6683   age125_m52            0.0000     1.1091E-05    10.9403   1.3150    99.7445
 28      0.0000     0.0000E+00    0.0000E+00    9.047900E+08  0.00800  3.141E-04    0   0.6138   age135_m52            0.0000     9.3308E-06     9.9809   0.4790   105.0453
 29      3.2271     5.2463E-01    5.9621E-01    1.434000E+09  0.00800  1.719E-04    0   0.5853   age139_m52            0.0000     9.3677E-06    10.2350  -0.0925   102.4570
 30      0.0000     0.0000E+00    0.0000E+00    2.500000E+09  0.00800  7.872E-05    0   0.5600   age150_m52            0.0000     9.5462E-06    10.3734  -0.3817   100.4095
 31      0.0000     0.0000E+00    0.0000E+00    4.250000E+09  0.00800  4.336E-05    0   0.5426   age158_m52            0.0000     9.8379E-06    10.4721  -0.3960    99.4131
 32      0.0000     0.0000E+00    0.0000E+00    6.250000E+09  0.00800  3.159E-05    0   0.5319   age166_m52            0.0000     9.7645E-06    10.5168  -0.6192   100.0357
 33      0.0000     0.0000E+00    0.0000E+00    1.300000E+10  0.00800  1.361E-05    0   0.5073   age193_m52            0.0000     1.0118E-05    10.5877  -1.0000    97.5335
 34      0.0000     0.0000E+00    0.0000E+00    1.800000E+10  0.00800  9.886E-06    0   0.4990   age213_m52            0.0000     1.1182E-05    11.2926  -1.0000    94.6071
 35      0.0000     0.0000E+00    0.0000E+00    1.000000E+06  0.02000  1.544E-02    0   1.0000   age020_m62            0.0000     1.8295E-05    14.1214   3.1474    84.3372
 36      0.0000     0.0000E+00    0.0000E+00    3.160000E+06  0.02000  3.762E-02    0   0.9858   age045_m62            0.0000     1.8238E-05    14.1114   3.0835    85.1680
 37      0.0000     0.0000E+00    0.0000E+00    5.010000E+06  0.02000  3.296E-02    0   0.9342   age055_m62            0.0000     1.5225E-05    12.9649   2.6799    89.5446
 38      0.0000     0.0000E+00    0.0000E+00    8.710000E+06  0.02000  1.154E-02    0   0.8861   age067_m62            0.0000     2.0567E-05    16.7102   1.8019    90.8727
 39      0.0000     0.0000E+00    0.0000E+00    1.445000E+07  0.02000  7.663E-03    0   0.8472   age078_m62            0.0000     1.6865E-05    14.3723   1.9440    92.1811
 40      0.0000     0.0000E+00    0.0000E+00    2.512000E+07  0.02000  4.532E-03    0   0.8099   age090_m62            0.0000     1.6766E-05    14.4193   1.9349    91.9316
 41      0.0000     0.0000E+00    0.0000E+00    5.500000E+07  0.02000  2.733E-03    0   0.7595   age110_m62            0.0000     1.4259E-05    12.8420   1.9038    93.4388
 42      1.0315     2.1055E-02    2.8555E-02    1.609000E+08  0.02000  1.369E-03    0   0.6985   age120_m62            0.0000     1.2167E-05    11.5328   1.6986    97.4969
 43      0.0000     0.0000E+00    0.0000E+00    2.861200E+08  0.02000  9.013E-04    0   0.6714   age125_m62            0.0000     1.1082E-05    10.7939   1.4228   101.2051
 44      0.0000     0.0000E+00    0.0000E+00    5.088000E+08  0.02000  5.028E-04    0   0.6449   age130_m62            0.0000     9.8444E-06    10.0670   1.0039   105.2392
 45     23.4245     2.6961E+00    3.2346E+00    9.047900E+08  0.02000  2.428E-04    0   0.6179   age135_m62            0.0000     9.1862E-06    10.0235   0.4096   104.7294
 46      0.0000     0.0000E+00    0.0000E+00    1.434000E+09  0.02000  1.263E-04    0   0.5908   age139_m62            0.0000     9.3920E-06    10.2209  -0.0331   103.0510
 47      3.8143     1.7810E+00    1.9617E+00    2.500000E+09  0.02000  5.985E-05    0   0.5673   age150_m62            0.0000     9.6411E-06    10.5693  -0.4219   102.3216
 48      1.0976     9.3777E-01    9.9560E-01    4.250000E+09  0.02000  3.271E-05    0   0.5468   age158_m62            0.0000     9.7512E-06    10.8488  -0.7601   102.4570
 49      9.2888     1.9087E+01    1.9149E+01    1.000000E+10  0.02000  1.360E-05    0   0.5167   age181_m62            0.0000     1.0667E-05    10.8810  -1.0000    99.7198
 50     17.5007     6.8651E+01    6.6820E+01    1.800000E+10  0.02000  7.124E-06    0   0.5013   age213_m62            0.0000     1.3534E-05    12.3869  -1.0000    93.8141
 51      0.0000     0.0000E+00    0.0000E+00    1.000000E+06  0.05000  2.592E-02    0   0.9998   age020_m72            0.0000     1.8701E-05    14.2760   3.1427    84.2513
 52      0.0000     0.0000E+00    0.0000E+00    3.160000E+06  0.05000  4.845E-02    0   0.9577   age045_m72            0.0000     1.7004E-05    13.6918   2.9526    86.7219
 53      0.0000     0.0000E+00    0.0000E+00    5.010000E+06  0.05000  3.072E-02    0   0.9147   age055_m72            0.0000     1.7327E-05    14.1252   2.5077    89.2546
 54      0.0000     0.0000E+00    0.0000E+00    6.610000E+06  0.05000  1.455E-02    0   0.8877   age061_m72            0.0000     2.3699E-05    18.5031   1.8499    90.9006
 55      0.0000     0.0000E+00    0.0000E+00    1.000000E+07  0.05000  9.074E-03    0   0.8524   age070_m72            0.0000     1.7743E-05    14.3387   2.6740    89.1318
 56      0.0000     0.0000E+00    0.0000E+00    2.512000E+07  0.05000  4.250E-03    0   0.7902   age090_m72            0.0000     1.5868E-05    13.6625   2.3711    91.1859
 57      0.0000     0.0000E+00    0.0000E+00    4.000000E+07  0.05000  3.087E-03    0   0.7618   age104_m72            0.0000     1.5333E-05    13.5849   2.1427    92.7503
 58      0.0000     0.0000E+00    0.0000E+00    1.015200E+08  0.05000  1.700E-03    0   0.7096   age116_m72            0.0000     1.2813E-05    12.0065   1.8536    96.6300
 59      4.5367     1.7170E-01    2.2112E-01    2.861200E+08  0.05000  7.384E-04    0   0.6633   age125_m72            0.0000     1.0362E-05    10.3095   1.2670   103.3830
 60     16.1263     1.1800E+00    1.4599E+00    5.088000E+08  0.05000  3.819E-04    0   0.6372   age130_m72            0.0000     9.3302E-06    10.0878   0.7458   106.0015
 61      9.2920     1.5494E+00    1.8380E+00    9.047900E+08  0.05000  1.676E-04    0   0.6110   age135_m72            0.0000     9.3346E-06    10.5923   0.0242   104.8356
 62      4.3965     1.3903E+00    1.5857E+00    1.434000E+09  0.05000  8.837E-05    0   0.5874   age139_m72            0.0000     9.5712E-06    10.5688  -0.4346   104.2343
 63      0.3627     2.3947E-01    2.6028E-01    2.500000E+09  0.05000  4.233E-05    0   0.5598   age150_m72            0.0000     9.8692E-06    11.0347  -0.7783   103.9334
 64      0.0000     0.0000E+00    0.0000E+00    6.250000E+09  0.05000  1.435E-05    0   0.5249   age166_m72            0.0000     1.1582E-05    11.3802  -1.0000    96.9942
 65      0.0000     0.0000E+00    0.0000E+00    1.300000E+10  0.05000  6.513E-06    0   0.5036   age193_m72            0.0000     1.6914E-05    14.6836  -1.0000    90.6669
 66      0.0000     0.0000E+00    0.0000E+00    1.800000E+10  0.05000  4.527E-06    0   0.4945   age213_m72            0.0000     2.1544E-05    17.2037  -1.0000    86.0958


## Synthesis Results - Average & Chains ##

# j      x_j: min, <> & last-chain-values for 1 ...  7 chains
  1      0.0000      0.1567      0.5391      0.0000      0.3324      0.0000      0.4807      0.4597      0.4472
  2      0.0000      0.1498      0.0000      0.9203      0.1913      0.1225      0.1292      0.7508      0.0000
  3      0.0161      0.1921      0.1304      0.0000      0.5945      0.0728      0.0000      0.0000      0.7382
  4      0.0000      0.1448      0.2397      0.1071      0.1244      0.3424      0.0000      0.0000      0.0000
  5      0.5820      0.1777      0.5853      0.1850      0.4441      0.3138      0.4864      0.0000      0.0000
  6      0.0000      0.2185      0.4234      0.2681      0.9413      0.0904      0.7138      0.0000      0.0000
  7      0.0000      0.1680      0.2363      0.0000      1.3342      0.2423      0.3005      0.1377      0.0000
  8      0.0000      0.2072      0.2551      1.1942      0.0000      0.0000      0.5607      0.1578      0.4417
  9      0.6381      0.2051      0.0000      0.3419      0.3849      0.4939      0.0000      0.1781      0.0000
 10      0.0000      0.2091      0.0065      0.0000      0.0051      0.0000      0.3824      0.7312      0.2661
 11      0.0000      0.2856      0.5101      0.1613      1.0072      0.5728      2.2056      0.2512      0.0000
 12      0.0000      0.1867      0.0000      0.0000      0.7998      0.0000      0.7743      0.7921      0.0503
 13      0.0000      0.1984      0.8333      0.8918      0.3998      0.9335      0.0000      0.0000      0.0299
 14      1.7941      0.1895      0.0000      1.4569      0.4462      0.0716      0.0000      0.8189      0.6541
 15      1.0368      0.1844      0.4997      0.4759      0.3023      0.0618      0.3290      0.0000      0.0000
 16      0.0000      0.1893      0.0583      0.7335      0.5981      0.4321      0.0000      0.6369      0.1655
 17      0.0000      0.2197      0.9761      0.1805      0.1791      0.2458      0.3846      0.0000      0.5173
 18      0.0000      0.1854      0.0000      0.1960      0.6498      0.0000      0.1229      1.1804      0.2362
 19      0.0000      0.1851      0.3069      0.0401      0.3732      0.0000      0.5948      0.0000      0.5178
 20      0.0000      0.1590      0.2666      0.3316      0.0753      0.0000      0.3287      0.0000      0.0000
 21      0.0000      0.1879      0.0000      0.1225      0.1460      0.5223      0.0000      0.8298      0.0000
 22      1.9835      0.1756      0.0000      0.0000      0.5786      1.3215      0.0000      0.0000      0.0000
 23      0.0000      0.2505      0.0847      0.4430      0.6990      0.5247      1.6628      0.5534      0.2953
 24      0.0000      0.1792      0.0986      0.0956      0.8086      0.3125      1.3607      0.2189      0.0000
 25      0.1283      0.2125      0.1988      1.0381      0.7590      1.0711      0.0868      0.2072      0.0000
 26      0.0000      0.1804      0.1242      0.3762      0.0835      0.5603      0.7751      0.3267      0.1789
 27      2.9141      0.2929      0.7732      0.0000      0.3269      0.2380      0.9277      0.1671      1.0193
 28      0.0000      0.2094      1.1462      0.1613      0.1099      0.0000      0.1055      0.0000      0.3366
 29      3.2271      0.1881      0.1481      0.0978      0.2466      0.0421      0.8818      0.0566      0.4024
 30      0.0000      0.1989      0.0000      0.6588      0.0434      0.1488      0.2744      0.4152      0.4995
 31      0.0000      0.1675      0.1952      0.0000      0.2380      0.0000      0.0000      0.0000      0.2584
 32      0.0000      0.1787      0.2450      0.7356      1.2622      0.5440      0.5547      0.7532      1.0743
 33      0.0000      0.2233      0.0000      1.4762      1.0412      0.5849      0.6001      1.2696      0.5014
 34      0.0000      0.1851      0.6710      0.2741      0.1669      0.7155      0.6579      0.0000      0.3029
 35      0.0000      0.1486      0.0000      0.4772      0.0000      0.2582      0.1954      0.3347      0.0000
 36      0.0000      0.2032      0.0000      1.4621      0.6977      0.0000      0.0000      0.0000      0.4540
 37      0.0000      0.1856      0.0000      0.4632      0.1987      0.6678      1.5780      0.0368      0.5693
 38      0.0000      0.2236      0.4912      0.4605      0.0000      0.0494      0.0896      0.2736      0.0207
 39      0.0000      0.2261      0.8064      0.1895      0.1483      0.0000      0.4168      0.2142      0.0567
 40      0.0000      0.2218      0.0760      2.8874      0.2462      0.2054      0.0000      0.1227      0.0795
 41      0.0000      0.2397      0.1742      0.0000      1.2866      0.8703      0.5304      0.0000      0.6943
 42      1.0315      0.2080      0.0000      0.4479      0.7246      0.0326      0.0000      0.0694      0.4825
 43      0.0000      0.2241      0.8738      0.5581      0.0000      0.0000      0.3530      0.2244      0.7513
 44      0.0000      0.1906      0.7251      0.3419      0.0000      0.1962      0.1727      0.2285      0.2753
 45     23.4245      0.2211      1.4036      0.2027      0.2980      0.2320      0.0247      0.0000      0.7231
 46      0.0000      0.2089      0.4200      0.6705      0.6039      0.2387      0.4499      0.4018      0.0000
 47      3.8143      0.3092      2.1371      1.0101      0.7687      0.3626      0.0000      1.3124      0.2037
 48      1.0976      0.1709      0.5469      0.2221      0.9661      0.5185      0.6655      0.0000      0.3787
 49      9.2888      0.1104      0.0000      0.4001      0.3911      0.5023      0.1080      0.3349      0.0000
 50     17.5007      0.1795      0.1345      0.0832      0.7146      1.4308      1.8653      0.2476      0.3568
 51      0.0000      0.2470      0.5509      0.0000      0.1118      0.0000      0.0000      0.0000      0.5698
 52      0.0000      0.1706      0.4598      0.0000      0.3451      0.9614      0.0808      0.0861      0.0547
 53      0.0000      0.0973      0.0000      0.0000      0.2986      0.0000      0.0000      0.6484      0.3279
 54      0.0000     49.8732     44.1681     39.4447     38.4401     44.4455     40.9299     44.3025     45.7262
 55      0.0000      2.8066      3.2977      2.6540      1.6530      2.5656      2.0334      3.0268      2.4566
 56      0.0000      0.2047      0.6592      0.7060      1.2058      0.0000      0.1146      0.0000      0.0000
 57      0.0000      0.1484      0.0000      0.0000      0.5717      0.2346      0.0000      0.0000      0.2092
 58      0.0000      0.1916      0.0000      0.5655      0.8367      0.0646      0.4458      1.2171      0.2309
 59      4.5367      0.1644      0.1509      0.3454      0.6517      0.7929      1.3521      0.5760      0.4436
 60     16.1263      0.2133      0.0000      0.5339      1.3041      0.9576      0.7060      0.6948      0.0000
 61      9.2920     10.2240     10.3996     10.7049     10.4216     10.8144     11.5220     10.5057     11.4896
 62      4.3965     23.0938     21.6577     20.2390     18.7456     20.9423     18.4265     21.9825     21.9771
 63      0.3627      0.3175      0.6391      0.2638      1.3993      0.4096      1.1312      0.7187      1.0898
 64      0.0000      0.2068      0.3766      0.1694      0.8219      0.8309      0.1269      0.0000      0.2284
 65      0.0000      1.3870      1.2138      1.6938      1.2909      1.4519      1.1441      1.2928      0.9671
 66      0.0000     14.2650     12.4873     13.5956     12.3753     12.8678     13.5077     13.6487     13.7573

# j      m_j: min, <> & last-chain-values for 1 ...  7 chains
  1  0.0000E+00  7.3824E-04  2.7393E-03  0.0000E+00  1.6267E-03  0.0000E+00  2.2035E-03  2.1844E-03  2.1316E-03
  2  0.0000E+00  1.9265E-04  0.0000E+00  1.1611E-03  2.5561E-04  1.5559E-04  1.6172E-04  9.7404E-04  0.0000E+00
  3  3.2705E-05  3.6996E-04  2.7096E-04  0.0000E+00  1.1895E-03  1.3841E-04  0.0000E+00  0.0000E+00  1.4386E-03
  4  0.0000E+00  2.6268E-04  4.6888E-04  1.9051E-04  2.3439E-04  6.1338E-04  0.0000E+00  0.0000E+00  0.0000E+00
  5  2.1169E-03  6.1401E-04  2.1814E-03  6.2692E-04  1.5942E-03  1.0707E-03  1.6350E-03  0.0000E+00  0.0000E+00
  6  0.0000E+00  1.2248E-03  2.5590E-03  1.4737E-03  5.4797E-03  5.0062E-04  3.8922E-03  0.0000E+00  0.0000E+00
  7  0.0000E+00  1.3483E-03  2.0448E-03  0.0000E+00  1.1121E-02  1.9204E-03  2.3459E-03  1.1143E-03  0.0000E+00
  8  0.0000E+00  2.2975E-03  3.0516E-03  1.2991E-02  0.0000E+00  0.0000E+00  6.0493E-03  1.7649E-03  4.9561E-03
  9  8.5258E-03  2.6035E-03  0.0000E+00  4.2567E-03  5.0750E-03  6.1915E-03  0.0000E+00  2.2797E-03  0.0000E+00
 10  0.0000E+00  3.4865E-03  1.1613E-04  0.0000E+00  8.8545E-05  0.0000E+00  6.2037E-03  1.2296E-02  4.4889E-03
 11  0.0000E+00  8.9552E-03  1.7250E-02  4.9591E-03  3.2802E-02  1.7737E-02  6.7276E-02  7.9448E-03  0.0000E+00
 12  0.0000E+00  9.2863E-03  0.0000E+00  0.0000E+00  4.1317E-02  0.0000E+00  3.7464E-02  3.9733E-02  2.5323E-03
 13  0.0000E+00  2.7816E-02  1.2598E-01  1.2262E-01  5.8222E-02  1.2924E-01  0.0000E+00  0.0000E+00  4.2406E-03
 14  8.8791E-01  8.9105E-02  0.0000E+00  6.7187E-01  2.1793E-01  3.3258E-02  0.0000E+00  3.8836E-01  3.1115E-01
 15  8.3538E-01  1.4113E-01  4.1248E-01  3.5726E-01  2.4036E-01  4.6747E-02  2.4502E-01  0.0000E+00  0.0000E+00
 16  0.0000E+00  2.4501E-01  8.1428E-02  9.3114E-01  8.0407E-01  5.5229E-01  0.0000E+00  8.3137E-01  2.1670E-01
 17  0.0000E+00  3.6892E-01  1.7675E+00  2.9729E-01  3.1232E-01  4.0753E-01  6.2817E-01  0.0000E+00  8.7866E-01
 18  0.0000E+00  7.7184E-04  0.0000E+00  8.0035E-04  2.8105E-03  0.0000E+00  4.9789E-04  4.9573E-03  9.9512E-04
 19  0.0000E+00  3.0940E-04  5.5318E-04  6.5708E-05  6.4792E-04  0.0000E+00  9.6703E-04  0.0000E+00  8.7538E-04
 20  0.0000E+00  2.9004E-04  5.2451E-04  5.9336E-04  1.4279E-04  0.0000E+00  5.8343E-04  0.0000E+00  0.0000E+00
 21  0.0000E+00  4.1612E-04  0.0000E+00  2.6611E-04  3.3593E-04  1.1423E-03  0.0000E+00  1.8535E-03  0.0000E+00
 22  7.8191E-03  6.5744E-04  0.0000E+00  0.0000E+00  2.2508E-03  4.8872E-03  0.0000E+00  0.0000E+00  0.0000E+00
 23  0.0000E+00  1.2666E-03  4.6189E-04  2.1975E-03  3.6720E-03  2.6205E-03  8.1810E-03  2.8227E-03  1.5110E-03
 24  0.0000E+00  1.3482E-03  8.0016E-04  7.0527E-04  6.3196E-03  2.3220E-03  9.9602E-03  1.6615E-03  0.0000E+00
 25  1.4014E-03  2.2048E-03  2.2247E-03  1.0564E-02  8.1793E-03  1.0974E-02  8.7642E-04  2.1684E-03  0.0000E+00
 26  0.0000E+00  3.1278E-03  2.3227E-03  6.3992E-03  1.5041E-03  9.5957E-03  1.3076E-02  5.7143E-03  3.1394E-03
 27  1.0647E-01  1.0166E-02  2.8944E-02  0.0000E+00  1.1787E-02  8.1565E-03  3.1327E-02  5.8489E-03  3.5792E-02
 28  0.0000E+00  2.1096E-02  1.2452E-01  1.5936E-02  1.1503E-02  0.0000E+00  1.0335E-02  0.0000E+00  3.4298E-02
 29  5.9621E-01  3.3016E-02  2.8038E-02  1.6834E-02  4.4951E-02  7.2903E-03  1.5057E-01  1.0027E-02  7.1445E-02
 30  0.0000E+00  7.2947E-02  0.0000E+00  2.3694E-01  1.6546E-02  5.3895E-02  9.7903E-02  1.5357E-01  1.8530E-01
 31  0.0000E+00  1.0806E-01  1.3578E-01  0.0000E+00  1.5944E-01  0.0000E+00  0.0000E+00  0.0000E+00  1.6862E-01
 32  0.0000E+00  1.5510E-01  2.2938E-01  6.2621E-01  1.1379E+00  4.6630E-01  4.6841E-01  6.5939E-01  9.4336E-01
 33  0.0000E+00  4.2896E-01  0.0000E+00  2.7820E+00  2.0779E+00  1.1099E+00  1.1217E+00  2.4603E+00  9.7474E-01
 34  0.0000E+00  4.8170E-01  1.8828E+00  6.9959E-01  4.5097E-01  1.8385E+00  1.6653E+00  0.0000E+00  7.9744E-01
 35  0.0000E+00  4.9611E-04  0.0000E+00  1.5625E-03  0.0000E+00  8.5142E-04  6.3476E-04  1.1270E-03  0.0000E+00
 36  0.0000E+00  2.7453E-04  0.0000E+00  1.9372E-03  9.7885E-04  0.0000E+00  0.0000E+00  0.0000E+00  6.2037E-04
 37  0.0000E+00  2.7109E-04  0.0000E+00  6.6374E-04  3.0161E-04  9.6359E-04  2.2430E-03  5.4217E-05  8.4151E-04
 38  0.0000E+00  8.8512E-04  2.0969E-03  1.7880E-03  0.0000E+00  1.9316E-04  3.4500E-04  1.0923E-03  8.2898E-05
 39  0.0000E+00  1.2887E-03  4.9565E-03  1.0590E-03  8.7777E-04  0.0000E+00  2.3110E-03  1.2315E-03  3.2687E-04
 40  0.0000E+00  2.0436E-03  7.5494E-04  2.6089E-02  2.3561E-03  1.8690E-03  0.0000E+00  1.1400E-03  7.4118E-04
 41  0.0000E+00  3.4330E-03  2.6912E-03  0.0000E+00  1.9145E-02  1.2311E-02  7.3913E-03  0.0000E+00  1.0062E-02
 42  2.8555E-02  5.4709E-03  0.0000E+00  1.1554E-02  1.9796E-02  8.4617E-04  0.0000E+00  1.8400E-03  1.2839E-02
 43  0.0000E+00  8.6061E-03  3.6188E-02  2.1019E-02  0.0000E+00  0.0000E+00  1.3188E-02  8.6922E-03  2.9185E-02
 44  0.0000E+00  1.2604E-02  5.1704E-02  2.2169E-02  0.0000E+00  1.2810E-02  1.1107E-02  1.5237E-02  1.8412E-02
 45  3.2346E+00  2.9010E-02  1.9858E-01  2.6087E-02  4.0602E-02  3.0050E-02  3.1526E-03  0.0000E+00  9.5972E-02
 46  0.0000E+00  5.0379E-02  1.0923E-01  1.5858E-01  1.5125E-01  5.6834E-02  1.0554E-01  9.7709E-02  0.0000E+00
 47  1.9617E+00  1.5107E-01  1.1261E+00  4.8410E-01  3.9011E-01  1.7496E-01  0.0000E+00  6.4677E-01  1.0071E-01
 48  9.9560E-01  1.4726E-01  5.0826E-01  1.8775E-01  8.6469E-01  4.4121E-01  5.5789E-01  0.0000E+00  3.3010E-01
 49  1.9149E+01  2.1618E-01  0.0000E+00  7.6858E-01  7.9552E-01  9.7152E-01  2.0579E-01  6.6148E-01  0.0000E+00
 50  6.6820E+01  6.5121E-01  5.2604E-01  2.9612E-01  2.6924E+00  5.1253E+00  6.5825E+00  9.0567E-01  1.3094E+00
 51  0.0000E+00  4.9116E-04  1.1814E-03  0.0000E+00  2.3094E-04  0.0000E+00  0.0000E+00  0.0000E+00  1.1462E-03
 52  0.0000E+00  1.7378E-04  5.0528E-04  0.0000E+00  3.6525E-04  9.6745E-04  8.0093E-05  8.8471E-05  5.6413E-05
 53  0.0000E+00  1.4932E-04  0.0000E+00  0.0000E+00  4.7606E-04  0.0000E+00  0.0000E+00  1.0038E-03  5.0918E-04
 54  0.0000E+00  1.5685E-01  1.4981E-01  1.2167E-01  1.2557E-01  1.3804E-01  1.2523E-01  1.4053E-01  1.4549E-01
 55  0.0000E+00  1.3590E-02  1.7222E-02  1.2605E-02  8.3140E-03  1.2269E-02  9.5792E-03  1.4782E-02  1.2035E-02
 56  0.0000E+00  1.9618E-03  6.8138E-03  6.6368E-03  1.2004E-02  0.0000E+00  1.0682E-03  0.0000E+00  0.0000E+00
 57  0.0000E+00  1.8880E-03  0.0000E+00  0.0000E+00  7.5546E-03  2.9477E-03  0.0000E+00  0.0000E+00  2.6929E-03
 58  0.0000E+00  4.1223E-03  0.0000E+00  1.1934E-02  1.8700E-02  1.3736E-03  9.3313E-03  2.6412E-02  5.0258E-03
 59  2.2112E-01  7.6107E-03  7.5372E-03  1.5687E-02  3.1347E-02  3.6256E-02  6.0910E-02  2.6899E-02  2.0781E-02
 60  1.4599E+00  1.8341E-02  0.0000E+00  4.5037E-02  1.1651E-01  8.1334E-02  5.9071E-02  6.0270E-02  0.0000E+00
 61  1.8380E+00  1.9213E+00  2.1077E+00  1.9731E+00  2.0342E+00  2.0070E+00  2.1065E+00  1.9912E+00  2.1844E+00
 62  1.5857E+00  7.9127E+00  8.0032E+00  6.8018E+00  6.6716E+00  7.0864E+00  6.1423E+00  7.5968E+00  7.6183E+00
 63  2.6028E-01  2.1643E-01  4.6985E-01  1.7639E-01  9.9085E-01  2.7574E-01  7.5023E-01  4.9414E-01  7.5163E-01
 64  0.0000E+00  3.8992E-01  7.6575E-01  3.1337E-01  1.6097E+00  1.5472E+00  2.3284E-01  0.0000E+00  4.3576E-01
 65  0.0000E+00  5.5281E+00  5.2176E+00  6.6219E+00  5.3445E+00  5.7148E+00  4.4364E+00  5.1970E+00  3.8999E+00
 66  0.0000E+00  8.0321E+01  7.5832E+01  7.5086E+01  7.2379E+01  7.1553E+01  7.3994E+01  7.7512E+01  7.8369E+01

# AV, chi2 & Mass for <> & i_chain = 1 ...  7 solutions
AV      -0.1903     -0.0530     -0.0330     -0.0887     -0.0424     -0.0702     -0.0557     -0.0586     -0.0637
chi2 8.9611E-06  1.8782E-05  1.7932E-05  1.7865E-05  1.7499E-05  1.7905E-05  1.7706E-05  1.7988E-05  1.8020E-05
Mass 2.2592E-13  2.8596E-13  2.7239E-13  2.7792E-13  2.7926E-13  2.8294E-13  2.9289E-13  2.8141E-13  2.7862E-13
-137.59                                  [v0_min (km/s) before EX0s...]
 483.37                                  [vd_min (km/s) before EX0s...]


## Synthetic spectrum (Best Model) ##l_obs f_obs f_syn wei
 3478    [Nl_obs]
 3741.00    0.61218   0.46250    0.000
 3742.00    0.57813   0.46315    0.000
 3743.00    0.44587   0.46398    0.000
 3744.00    0.35027   0.46326    0.000
 3745.00    0.27601   0.46378    0.035
 3746.00    0.34976   0.46570    0.036
 3747.00    0.49866   0.46931    0.036
 3748.00    0.48846   0.47376    0.040
 3749.00    0.40831   0.47795    0.048
 3750.00    0.45420   0.48512    0.044
 3751.00    0.54768   0.49252    0.037
 3752.00    0.61231   0.49997    0.035
 3753.00    0.66769   0.50715    0.035
 3754.00    0.63504   0.51304    0.035
 3755.00    0.57879   0.51944    0.035
 3756.00    0.68943   0.52475    0.034
 3757.00    0.83670   0.52858    0.034
 3758.00    0.66095   0.53173    0.034
 3759.00    0.42880   0.53326    0.033
 3760.00    0.36538   0.53379    0.046
 3761.00    0.32437   0.53374    0.087
 3762.00    0.33046   0.53393    0.050
 3763.00    0.34098   0.53559    0.033
 3764.00    0.44661   0.53681    0.033
 3765.00    0.55772   0.53802    0.033
 3766.00    0.46055   0.54027    0.033
 3767.00    0.35960   0.54449    0.033
 3768.00    0.39935   0.55128    0.032
 3769.00    0.44251   0.55863    0.032
 3770.00    0.56853   0.56759    0.033
 3771.00    0.68831   0.57768    0.035
 3772.00    0.72629   0.58833    0.034
 3773.00    0.75987   0.59985    0.034
 3774.00    0.75497   0.61099    0.032
 3775.00    0.72550   0.62313    0.031
 3776.00    0.53677   0.63354    0.031
 3777.00    0.35763   0.64123    0.030
 3778.00    0.22698   0.64762    0.030
 3779.00    0.12501   0.65126    0.030
 3780.00    0.14040   0.65400    0.030
 3781.00    0.15197   0.65336    0.031
 3782.00    0.15060   0.64938    0.031
 3783.00    0.14546   0.64361    0.031
 3784.00    0.12954   0.63432    0.031
 3785.00    0.13403   0.62429    0.031
 3786.00    0.18837   0.61317    0.032
 3787.00    0.26479   0.60125    0.032
 3788.00    0.38775   0.58863    0.032
 3789.00    0.46644   0.57502    0.032
 3790.00    0.46402   0.56294    0.032
 3791.00    0.42377   0.55286    0.032
 3792.00    0.32294   0.54475    0.032
 3793.00    0.27790   0.53818    0.032
 3794.00    0.31121   0.53413    0.032
 3795.00    0.44946   0.53287    0.032
 3796.00    0.71741   0.53485    0.033
 3797.00    0.80214   0.53941    0.034
 3798.00    0.68723   0.54625    0.036
 3799.00    0.56706   0.55589    0.036
 3800.00    0.44182   0.56624    0.034
 3801.00    0.34448   0.57806    0.033
 3802.00    0.27080   0.59014    0.033
 3803.00    0.34755   0.60187    0.034
 3804.00    0.53654   0.61315    0.034
 3805.00    0.68620   0.62246    0.034
 3806.00    0.81007   0.63057    0.033
 3807.00    0.86463   0.63716    0.034
 3808.00    0.87942   0.64169    0.036
 3809.00    0.72130   0.64357    0.035
 3810.00    0.47676   0.64337    0.033
 3811.00    0.32350   0.64101    0.032
 3812.00    0.20972   0.63777    0.032
 3813.00    0.27218   0.63386    0.032
 3814.00    0.40000   0.62760    0.031
 3815.00    0.47266   0.62028    0.031
 3816.00    0.52797   0.61112    0.031
 3817.00    0.54891   0.60138    0.034
 3818.00    0.56084   0.59232    0.040
 3819.00    0.75405   0.58217    0.038
 3820.00    0.98610   0.57124    0.034
 3821.00    0.95229   0.55913    0.035
 3822.00    0.87336   0.54586    0.035
 3823.00    0.73622   0.53330    0.034
 3824.00    0.59161   0.52125    0.033
 3825.00    0.43158   0.50878    0.031
 3826.00    0.27017   0.49653    0.030
 3827.00    0.20187   0.48439    0.031
 3828.00    0.13858   0.47349    0.032
 3829.00    0.24658   0.46498    0.032
 3830.00    0.35555   0.45777    0.031
 3831.00    0.25594   0.45243    0.032
 3832.00    0.16692   0.45010    0.032
 3833.00    0.31315   0.45042    0.032
 3834.00    0.44290   0.45382    0.032
 3835.00    0.36786   0.46019    0.032
 3836.00    0.30910   0.46816    0.033
 3837.00    0.38793   0.47945    0.035
 3838.00    0.47025   0.49339    0.036
 3839.00    0.57450   0.50835    0.035
 3840.00    0.65733   0.52512    0.034
 3841.00    0.63447   0.54093    0.034
 3842.00    0.59319   0.55706    0.033
 3843.00    0.47815   0.57395    0.033
 3844.00    0.37698   0.58936    0.033
 3845.00    0.32193   0.60420    0.033
 3846.00    0.28258   0.61615    0.032
 3847.00    0.28729   0.62650    0.000
 3848.00    0.32513   0.63671    0.000
 3849.00    0.44257   0.64496    0.000
 3850.00    0.56545   0.65244    0.000
 3851.00    0.69961   0.65725    0.000
 3852.00    0.72192   0.66081    0.000
 3853.00    0.54251   0.66542    0.000
 3854.00    0.45895   0.66884    0.000
 3855.00    0.52654   0.67235    0.000
 3856.00    0.58227   0.67454    0.000
 3857.00    0.62156   0.67604    0.000
 3858.00    0.64403   0.67908    0.000
 3859.00    0.64601   0.68157    0.000
 3860.00    0.71285   0.68380    0.000
 3861.00    0.84935   0.68501    0.000
 3862.00    0.82127   0.68568    0.000
 3863.00    0.63724   0.68614    0.000
 3864.00    0.50973   0.68591    0.000
 3865.00    0.42943   0.68492    0.000
 3866.00    0.51845   0.68244    0.000
 3867.00    0.73200   0.68009    0.000
 3868.00    0.81589   0.67603    0.000
 3869.00    0.81602   0.67064    0.000
 3870.00    0.78305   0.66531    0.000
 3871.00    0.73138   0.65854    0.000
 3872.00    0.69149   0.65266    0.000
 3873.00    0.65740   0.64502    0.000
 3874.00    0.53491   0.63488    0.000
 3875.00    0.37483   0.62607    0.000
 3876.00    0.32653   0.61644    0.000
 3877.00    0.31895   0.60743    0.000
 3878.00    0.40919   0.59780    0.000
 3879.00    0.52959   0.58588    0.000
 3880.00    0.54576   0.57669    0.000
 3881.00    0.53517   0.56816    0.032
 3882.00    0.56094   0.56047    0.032
 3883.00    0.59430   0.55456    0.032
 3884.00    0.49798   0.54900    0.032
 3885.00    0.38027   0.54720    0.032
 3886.00    0.30831   0.54718    0.032
 3887.00    0.24202   0.54892    0.032
 3888.00    0.41186   0.55364    0.032
 3889.00    0.60190   0.56038    0.032
 3890.00    0.51184   0.56959    0.032
 3891.00    0.40781   0.57896    0.032
 3892.00    0.50636   0.59031    0.032
 3893.00    0.60436   0.60255    0.032
 3894.00    0.45333   0.61576    0.031
 3895.00    0.31095   0.62963    0.031
 3896.00    0.34542   0.64074    0.031
 3897.00    0.39162   0.65424    0.030
 3898.00    0.57645   0.66647    0.030
 3899.00    0.73461   0.67798    0.029
 3900.00    0.67541   0.69094    0.029
 3901.00    0.63034   0.69989    0.028
 3902.00    0.67155   0.71107    0.028
 3903.00    0.69916   0.72131    0.028
 3904.00    0.66131   0.72917    0.026
 3905.00    0.62918   0.73940    0.026
 3906.00    0.61943   0.74584    0.026
 3907.00    0.62066   0.75205    0.026
 3908.00    0.65764   0.75826    0.027
 3909.00    0.68062   0.76076    0.028
 3910.00    0.66498   0.76409    0.029
 3911.00    0.65666   0.76452    0.029
 3912.00    0.66565   0.76252    0.030
 3913.00    0.69042   0.76025    0.030
 3914.00    0.74738   0.75460    0.031
 3915.00    0.78053   0.74826    0.031
 3916.00    0.77140   0.73974    0.032
 3917.00    0.74034   0.72909    0.032
 3918.00    0.67521   0.71712    0.032
 3919.00    0.62749   0.70285    0.032
 3920.00    0.60352   0.68800    0.032
 3921.00    0.54641   0.67048    0.033
 3922.00    0.44950   0.65256    0.033
 3923.00    0.49777   0.63386    0.033
 3924.00    0.69982   0.61397    0.034
 3925.00    0.76321   0.59554    0.034
 3926.00    0.69706   0.57571    0.034
 3927.00    0.71913   0.55853    0.034
 3928.00    0.81385   0.54427    0.034
 3929.00    0.73263   0.53134    0.034
 3930.00    0.52387   0.52293    0.034
 3931.00    0.41541   0.51654    0.034
 3932.00    0.37080   0.51486    0.033
 3933.00    0.41246   0.51887    0.033
 3934.00    0.50213   0.52506    0.033
 3935.00    0.53406   0.53501    0.033
 3936.00    0.53804   0.54725    0.034
 3937.00    0.84799   0.56195    0.034
 3938.00    1.28586   0.58053    0.035
 3939.00    1.12524   0.59881    0.035
 3940.00    0.75055   0.61570    0.034
 3941.00    0.57171   0.63304    0.033
 3942.00    0.45208   0.65043    0.032
 3943.00    0.47838   0.66727    0.032
 3944.00    0.54133   0.68152    0.033
 3945.00    0.58486   0.69151    0.032
 3946.00    0.62442   0.70100    0.032
 3947.00    0.71769   0.71085    0.032
 3948.00    0.81957   0.71583    0.032
 3949.00    0.72133   0.71616    0.032
 3950.00    0.59921   0.71445    0.033
 3951.00    0.59574   0.71136    0.032
 3952.00    0.60192   0.70732    0.032
 3953.00    0.65787   0.69729    0.032
 3954.00    0.71611   0.68155    0.032
 3955.00    0.65744   0.66666    0.032
 3956.00    0.59781   0.65031    0.032
 3957.00    0.56559   0.63082    0.031
 3958.00    0.53850   0.60893    0.031
 3959.00    0.60858   0.58456    0.031
 3960.00    0.68497   0.56251    0.000
 3961.00    0.83239   0.54144    0.000
 3962.00    0.94051   0.51969    0.000
 3963.00    0.73976   0.50136    0.000
 3964.00    0.55123   0.48633    0.000
 3965.00    0.43526   0.47576    0.000
 3966.00    0.38808   0.46936    0.000
 3967.00    0.66391   0.46665    0.000
 3968.00    0.85138   0.47061    0.000
 3969.00    0.70023   0.47899    0.000
 3970.00    0.60999   0.49188    0.000
 3971.00    0.71443   0.50946    0.000
 3972.00    0.80824   0.52982    0.000
 3973.00    0.87324   0.55459    0.000
 3974.00    0.95264   0.57941    0.000
 3975.00    1.06544   0.60483    0.000
 3976.00    1.14115   0.63322    0.000
 3977.00    1.14237   0.65954    0.000
 3978.00    1.08647   0.68620    0.000
 3979.00    0.93068   0.71038    0.000
 3980.00    0.86922   0.73179    0.000
 3981.00    0.95215   0.75557    0.035
 3982.00    0.96458   0.77404    0.035
 3983.00    0.88221   0.79044    0.035
 3984.00    0.86703   0.80716    0.035
 3985.00    0.93139   0.82003    0.036
 3986.00    0.93360   0.83436    0.036
 3987.00    0.87089   0.84488    0.035
 3988.00    0.84660   0.85266    0.034
 3989.00    0.85770   0.86262    0.034
 3990.00    0.79138   0.86887    0.034
 3991.00    0.66218   0.87542    0.034
 3992.00    0.72657   0.88254    0.033
 3993.00    0.92927   0.88673    0.033
 3994.00    1.06380   0.89131    0.033
 3995.00    1.15559   0.89506    0.033
 3996.00    1.10454   0.89933    0.033
 3997.00    0.97522   0.90388    0.033
 3998.00    1.00550   0.90518    0.033
 3999.00    1.11180   0.90792    0.033
 4000.00    1.01113   0.91319    0.033
 4001.00    0.82539   0.91780    0.032
 4002.00    0.88280   0.92061    0.032
 4003.00    1.02562   0.92266    0.032
 4004.00    0.99662   0.92721    0.032
 4005.00    0.91672   0.93281    0.032
 4006.00    1.00896   0.93750    0.033
 4007.00    1.14349   0.94099    0.033
 4008.00    1.16025   0.94603    0.033
 4009.00    1.15359   0.95257    0.033
 4010.00    1.08396   0.95569    0.033
 4011.00    1.00454   0.95953    0.032
 4012.00    0.94095   0.96457    0.032
 4013.00    0.87918   0.96849    0.031
 4014.00    0.91870   0.97254    0.032
 4015.00    0.96606   0.97315    0.033
 4016.00    1.04455   0.97501    0.033
 4017.00    1.12436   0.97727    0.033
 4018.00    0.99697   0.97559    0.033
 4019.00    0.87183   0.97584    0.032
 4020.00    0.92834   0.97457    0.033
 4021.00    0.99059   0.97280    0.033
 4022.00    1.15390   0.97117    0.033
 4023.00    1.29673   0.96469    0.033
 4024.00    1.21913   0.96207    0.033
 4025.00    1.13754   0.96029    0.033
 4026.00    1.02563   0.95553    0.034
 4027.00    0.92908   0.95392    0.034
 4028.00    0.92109   0.94943    0.034
 4029.00    0.89018   0.94706    0.034
 4030.00    0.75422   0.94778    0.034
 4031.00    0.67286   0.94449    0.034
 4032.00    0.79634   0.94519    0.033
 4033.00    0.92924   0.94544    0.033
 4034.00    1.09173   0.94425    0.033
 4035.00    1.16480   0.94757    0.033
 4036.00    1.00000   0.94719    0.033
 4037.00    0.88535   0.94631    0.032
 4038.00    0.88522   0.94577    0.033
 4039.00    0.85121   0.94335    0.033
 4040.00    0.75024   0.94631    0.034
 4041.00    0.69005   0.94635    0.034
 4042.00    0.70011   0.94222    0.034
 4043.00    0.74189   0.94136    0.034
 4044.00    0.83151   0.94007    0.034
 4045.00    0.96994   0.94032    0.034
 4046.00    1.17308   0.93964    0.035
 4047.00    1.27840   0.93537    0.035
 4048.00    1.26952   0.93571    0.035
 4049.00    1.25878   0.93738    0.035
 4050.00    1.24612   0.93409    0.035
 4051.00    1.23493   0.93084    0.035
 4052.00    1.22510   0.92871    0.035
 4053.00    1.13835   0.92750    0.034
 4054.00    0.99005   0.92781    0.034
 4055.00    1.03718   0.92371    0.034
 4056.00    1.22192   0.91710    0.034
 4057.00    1.27992   0.91592    0.034
 4058.00    1.25965   0.91589    0.034
 4059.00    1.17615   0.91276    0.034
 4060.00    1.05855   0.90904    0.033
 4061.00    0.96130   0.90484    0.033
 4062.00    0.87359   0.90452    0.033
 4063.00    0.83113   0.90619    0.033
 4064.00    0.80695   0.90102    0.032
 4065.00    0.83358   0.89772    0.032
 4066.00    0.87772   0.90089    0.032
 4067.00    0.87700   0.90108    0.032
 4068.00    0.86324   0.89934    0.032
 4069.00    0.91729   0.89538    0.032
 4070.00    0.98763   0.89320    0.032
 4071.00    1.05348   0.89817    0.032
 4072.00    1.11845   0.89809    0.033
 4073.00    1.08640   0.89558    0.033
 4074.00    1.03972   0.89813    0.032
 4075.00    0.93119   0.89899    0.032
 4076.00    0.81583   0.90073    0.031
 4077.00    0.83505   0.90246    0.032
 4078.00    0.86412   0.90304    0.032
 4079.00    0.87948   0.90807    0.032
 4080.00    0.89432   0.91102    0.032
 4081.00    0.90216   0.91134    0.032
 4082.00    0.91407   0.91239    0.032
 4083.00    1.08100   0.91116    0.033
 4084.00    1.23523   0.91007    0.033
 4085.00    1.18033   0.90751    0.033
 4086.00    1.12417   0.90287    0.032
 4087.00    1.05503   0.89764    0.032
 4088.00    0.99322   0.88831    0.032
 4089.00    0.98523   0.87796    0.032
 4090.00    0.96549   0.86614    0.032
 4091.00    0.87974   0.85224    0.032
 4092.00    0.83211   0.84035    0.000
 4093.00    0.95507   0.82576    0.000
 4094.00    1.01652   0.81019    0.000
 4095.00    0.85205   0.79865    0.000
 4096.00    0.71484   0.78698    0.000
 4097.00    0.66152   0.77674    0.000
 4098.00    0.68765   0.76956    0.000
 4099.00    0.92142   0.76285    0.000
 4100.00    1.05252   0.76096    0.000
 4101.00    0.95303   0.76309    0.000
 4102.00    0.92388   0.76447    0.000
 4103.00    1.03162   0.77014    0.000
 4104.00    0.99751   0.77970    0.000
 4105.00    0.72274   0.78842    0.000
 4106.00    0.62073   0.79973    0.000
 4107.00    0.77554   0.81122    0.000
 4108.00    0.90091   0.82148    0.000
 4109.00    0.98783   0.83473    0.000
 4110.00    1.05542   0.84697    0.000
 4111.00    1.10075   0.85703    0.000
 4112.00    1.06800   0.86751    0.000
 4113.00    0.95600   0.87611    0.033
 4114.00    0.85058   0.88436    0.033
 4115.00    0.75108   0.89211    0.033
 4116.00    0.75479   0.89551    0.033
 4117.00    0.83994   0.89924    0.032
 4118.00    0.77372   0.90466    0.032
 4119.00    0.60246   0.90672    0.032
 4120.00    0.68174   0.90773    0.047
 4121.00    0.91348   0.90857    0.184
 4122.00    0.94194   0.90912   -1.000
 4123.00    0.86240   0.91093   -1.000
 4124.00    0.87560   0.90943   -1.000
 4125.00    0.93156   0.90811   -1.000
 4126.00    1.05915   0.91016   -1.000
 4127.00    1.21520   0.90947   -1.000
 4128.00    1.13780   0.91019    0.085
 4129.00    0.98139   0.91174    0.036
 4130.00    0.93947   0.91088    0.032
 4131.00    0.93012   0.91446    0.031
 4132.00    0.96270   0.91583    0.031
 4133.00    1.00514   0.91517    0.031
 4134.00    1.03351   0.91967    0.031
 4135.00    1.05923   0.92056    0.031
 4136.00    0.83461   0.92090    0.031
 4137.00    0.57343   0.92398    0.030
 4138.00    0.60005   0.92336    0.030
 4139.00    0.65724   0.92391    0.030
 4140.00    0.87483   0.92446    0.031
 4141.00    1.10352   0.92164    0.032
 4142.00    1.07665   0.92184    0.032
 4143.00    1.04097   0.92301    0.031
 4144.00    1.06415   0.92058    0.032
 4145.00    1.08624   0.92031    0.032
 4146.00    1.06872   0.92134    0.032
 4147.00    1.05067   0.91977    0.031
 4148.00    1.02432   0.92023    0.031
 4149.00    0.99086   0.92116    0.031
 4150.00    0.88740   0.92132    0.031
 4151.00    0.80022   0.92348    0.031
 4152.00    0.82866   0.92506    0.031
 4153.00    0.86598   0.92747    0.031
 4154.00    0.95173   0.92973    0.031
 4155.00    1.00696   0.93136    0.031
 4156.00    0.92871   0.93473    0.030
 4157.00    0.85303   0.93664    0.030
 4158.00    0.78661   0.93852    0.030
 4159.00    0.72577   0.93984    0.030
 4160.00    0.68173   0.94064    0.030
 4161.00    0.68914   0.94208    0.030
 4162.00    0.82862   0.93879    0.030
 4163.00    0.94308   0.93681    0.031
 4164.00    1.00227   0.93680    0.031
 4165.00    1.00659   0.93134    0.032
 4166.00    0.90579   0.92778    0.031
 4167.00    0.89220   0.92508    0.031
 4168.00    1.02437   0.91924    0.032
 4169.00    1.10276   0.91590    0.032
 4170.00    1.10237   0.91144    0.031
 4171.00    1.03768   0.90649    0.031
 4172.00    0.89017   0.90532    0.031
 4173.00    0.86117   0.90276    0.031
 4174.00    0.96666   0.90047    0.032
 4175.00    0.97394   0.90197    0.032
 4176.00    0.88293   0.90170    0.032
 4177.00    0.91199   0.90111    0.032
 4178.00    1.04705   0.90457    0.032
 4179.00    1.07509   0.90673    0.032
 4180.00    1.01990   0.90833    0.032
 4181.00    0.98351   0.91187    0.032
 4182.00    0.95999   0.91366    0.032
 4183.00    1.06478   0.91788    0.032
 4184.00    1.24649   0.92163    0.032
 4185.00    1.15593   0.91968    0.032
 4186.00    0.92296   0.92192    0.032
 4187.00    0.83900   0.92640    0.032
 4188.00    0.82261   0.92437    0.031
 4189.00    0.89076   0.92291    0.032
 4190.00    0.99189   0.92469    0.032
 4191.00    0.97444   0.92435    0.032
 4192.00    0.91760   0.92255    0.031
 4193.00    0.95006   0.92016    0.031
 4194.00    1.00741   0.91844    0.031
 4195.00    1.08071   0.91973    0.032
 4196.00    1.15767   0.91757    0.032
 4197.00    1.05575   0.91485    0.032
 4198.00    0.92095   0.91964    0.032
 4199.00    0.85243   0.92043    0.031
 4200.00    0.79328   0.91855    0.031
 4201.00    0.85076   0.92449    0.031
 4202.00    0.92013   0.92751    0.031
 4203.00    0.93973   0.92906    0.030
 4204.00    0.95608   0.93502    0.029
 4205.00    0.92862   0.93690    0.029
 4206.00    0.89986   0.94079    0.029
 4207.00    0.90279   0.94634    0.030
 4208.00    0.91027   0.94644    0.030
 4209.00    1.05190   0.94999    0.031
 4210.00    1.18041   0.95320    0.031
 4211.00    1.11791   0.95198    0.031
 4212.00    1.06110   0.95366    0.030
 4213.00    1.05809   0.95153    0.030
 4214.00    1.05671   0.94761    0.030
 4215.00    1.06662   0.94914    0.030
 4216.00    1.07379   0.94531    0.030
 4217.00    1.06643   0.93858    0.029
 4218.00    1.01526   0.93779    0.029
 4219.00    0.77698   0.93402    0.029
 4220.00    0.59877   0.92724    0.029
 4221.00    0.63220   0.92429    0.029
 4222.00    0.65243   0.91983    0.029
 4223.00    0.63357   0.91600    0.029
 4224.00    0.64046   0.91404    0.029
 4225.00    0.71233   0.90949    0.028
 4226.00    0.83385   0.91167    0.028
 4227.00    1.06327   0.91551    0.028
 4228.00    1.18888   0.91313    0.028
 4229.00    1.11873   0.91781    0.028
 4230.00    1.05237   0.92299    0.028
 4231.00    0.99225   0.92246    0.028
 4232.00    0.98421   0.92921    0.027
 4233.00    1.05137   0.93469    0.027
 4234.00    1.07697   0.93550    0.027
 4235.00    1.04984   0.94258    0.027
 4236.00    1.04325   0.94786    0.027
 4237.00    1.05965   0.94865    0.027
 4238.00    1.06869   0.95338    0.027
 4239.00    1.07045   0.95850    0.027
 4240.00    1.04178   0.95869    0.027
 4241.00    0.98662   0.95876    0.027
 4242.00    0.92682   0.96106    0.027
 4243.00    0.86346   0.96166    0.027
 4244.00    0.89456   0.96040    0.028
 4245.00    0.98933   0.95756    0.028
 4246.00    1.05725   0.95680    0.028
 4247.00    1.10934   0.95765    0.029
 4248.00    1.09126   0.95261    0.029
 4249.00    1.03705   0.95019    0.029
 4250.00    0.95331   0.95337    0.029
 4251.00    0.85639   0.95116    0.029
 4252.00    0.79327   0.94867    0.029
 4253.00    0.74311   0.94997    0.029
 4254.00    0.91628   0.95145    0.029
 4255.00    1.16224   0.95270    0.029
 4256.00    1.09483   0.95197    0.028
 4257.00    0.94187   0.95339    0.028
 4258.00    0.88128   0.95484    0.028
 4259.00    0.84140   0.95320    0.028
 4260.00    0.77042   0.95565    0.029
 4261.00    0.69388   0.95672    0.029
 4262.00    0.76612   0.95388    0.029
 4263.00    0.85872   0.95386    0.029
 4264.00    1.14004   0.95248    0.030
 4265.00    1.43981   0.94960    0.030
 4266.00    1.20447   0.94641    0.030
 4267.00    0.93642   0.94258    0.030
 4268.00    0.92998   0.94202    0.029
 4269.00    0.92978   0.93652    0.029
 4270.00    0.76946   0.93137    0.029
 4271.00    0.61491   0.93570    0.029
 4272.00    0.61264   0.93215    0.029
 4273.00    0.61346   0.92752    0.028
 4274.00    0.65668   0.93231    0.028
 4275.00    0.71891   0.93062    0.029
 4276.00    0.95380   0.92914    0.029
 4277.00    1.14319   0.93071    0.030
 4278.00    1.02943   0.92678    0.030
 4279.00    0.91157   0.92778    0.030
 4280.00    0.77252   0.92661    0.030
 4281.00    0.67052   0.92009    0.030
 4282.00    0.72322   0.92096   -2.000
 4283.00    0.75168   0.91695   -2.000
 4284.00    0.69652   0.90842   -2.000
 4285.00    0.66333   0.90702   -2.000
 4286.00    0.69401   0.90104   -2.000
 4287.00    0.81272   0.89185   -2.000
 4288.00    1.14977   0.88704   -2.000
 4289.00    1.34182   0.87876   -2.000
 4290.00    1.22389   0.87240   -2.000
 4291.00    1.12027   0.86730   -2.000
 4292.00    1.04324   0.85529   -2.000
 4293.00    0.95917   0.84949   -2.000
 4294.00    0.86369   0.84378   -2.000
 4295.00    0.86073   0.83163   -2.000
 4296.00    0.98940   0.82785   -2.000
 4297.00    1.08640   0.82066   -2.000
 4298.00    1.14376   0.81043    0.031
 4299.00    1.10067   0.81109    0.031
 4300.00    0.94677   0.80644    0.030
 4301.00    0.82169   0.80118    0.030
 4302.00    0.72466   0.80606    0.029
 4303.00    0.69839   0.80601    0.029
 4304.00    0.73281   0.80765    0.030
 4305.00    0.70256   0.81614    0.030
 4306.00    0.62342   0.82096    0.029
 4307.00    0.74655   0.82883    0.029
 4308.00    1.00401   0.84139    0.030
 4309.00    1.07679   0.85094    0.030
 4310.00    1.04216   0.86147    0.030
 4311.00    1.03709   0.87569    0.029
 4312.00    1.04701   0.88534    0.029
 4313.00    0.99747   0.89367    0.029
 4314.00    0.92185   0.90752    0.028
 4315.00    0.91451   0.91525    0.028
 4316.00    0.93290   0.91847    0.028
 4317.00    0.97234   0.92641    0.029
 4318.00    1.01851   0.92892    0.029
 4319.00    1.14206   0.92830    0.029
 4320.00    1.28628   0.93118    0.029
 4321.00    1.23878   0.92849    0.029
 4322.00    1.14933   0.92545    0.029
 4323.00    1.16698   0.92331    0.029
 4324.00    1.20327   0.91648    0.029
 4325.00    1.17277   0.91356    0.029
 4326.00    1.13343   0.91089    0.030
 4327.00    1.13939   0.90299    0.029
 4328.00    1.14959   0.89627    0.029
 4329.00    1.14347   0.88952    0.029
 4330.00    1.13640   0.88219    0.000
 4331.00    1.02611   0.87510    0.000
 4332.00    0.91507   0.86503    0.000
 4333.00    0.99444   0.85823    0.000
 4334.00    1.07001   0.85401    0.000
 4335.00    1.05440   0.84251    0.000
 4336.00    1.03375   0.83614    0.000
 4337.00    0.94754   0.83793    0.000
 4338.00    0.87948   0.83138    0.000
 4339.00    0.96996   0.82851    0.000
 4340.00    1.07177   0.83733    0.000
 4341.00    1.24675   0.83954    0.000
 4342.00    1.37373   0.84103    0.000
 4343.00    1.25854   0.85206    0.000
 4344.00    1.12266   0.86092    0.000
 4345.00    0.90234   0.86833    0.000
 4346.00    0.74852   0.87905    0.000
 4347.00    0.81965   0.89035    0.000
 4348.00    0.89430   0.90296    0.000
 4349.00    0.97898   0.91190    0.000
 4350.00    1.04908   0.92003    0.000
 4351.00    1.08362   0.93483    0.028
 4352.00    1.12902   0.94648    0.028
 4353.00    1.19723   0.95335    0.028
 4354.00    1.22184   0.96487    0.035
 4355.00    1.16676   0.97625    0.091
 4356.00    1.10834   0.98314   -1.000
 4357.00    1.04459   0.98997   -1.000
 4358.00    1.04947   0.99774   -1.000
 4359.00    1.15057   1.00486   -1.000
 4360.00    1.17065   1.00969   -1.000
 4361.00    1.09080   1.01252   -1.000
 4362.00    1.04277   1.01569    0.113
 4363.00    1.02935   1.01821    0.037
 4364.00    1.04965   1.01811    0.028
 4365.00    1.10230   1.01600    0.028
 4366.00    1.13762   1.01427    0.028
 4367.00    1.15828   1.01288    0.027
 4368.00    1.10756   1.00866    0.028
 4369.00    1.00368   1.00352    0.028
 4370.00    0.86447   1.00015    0.028
 4371.00    0.70214   0.99507    0.027
 4372.00    0.70845   0.98765    0.027
 4373.00    0.81134   0.98200    0.027
 4374.00    0.92760   0.97725    0.027
 4375.00    1.05051   0.97089    0.027
 4376.00    1.06240   0.96569    0.028
 4377.00    1.02638   0.96098    0.028
 4378.00    1.00172   0.95427    0.028
 4379.00    0.98128   0.95014    0.027
 4380.00    0.97401   0.94806    0.027
 4381.00    0.97087   0.94329    0.027
 4382.00    0.90044   0.93996    0.027
 4383.00    0.81242   0.94121    0.027
 4384.00    0.79279   0.94308    0.027
 4385.00    0.78777   0.94333    0.027
 4386.00    0.89003   0.94526    0.027
 4387.00    1.01044   0.94948    0.027
 4388.00    0.97947   0.95293    0.027
 4389.00    0.92915   0.95603    0.027
 4390.00    0.97110   0.96023    0.027
 4391.00    1.02129   0.96592    0.027
 4392.00    1.06016   0.96927    0.027
 4393.00    1.09843   0.96991    0.027
 4394.00    1.13346   0.97546    0.027
 4395.00    1.16624   0.97940    0.026
 4396.00    1.02132   0.97729    0.026
 4397.00    0.88474   0.98103    0.027
 4398.00    0.93172   0.98365    0.027
 4399.00    0.97315   0.97963    0.027
 4400.00    0.94598   0.98271    0.027
 4401.00    0.92351   0.98700    0.028
 4402.00    0.94047   0.98343    0.027
 4403.00    0.95707   0.98326    0.027
 4404.00    0.97147   0.98874    0.027
 4405.00    0.98600   0.99093    0.027
 4406.00    1.00124   0.98982    0.027
 4407.00    1.02412   0.99316    0.028
 4408.00    1.07754   0.99993    0.027
 4409.00    1.11089   1.00028    0.027
 4410.00    1.07763   1.00112    0.027
 4411.00    1.03590   1.00929    0.027
 4412.00    0.97043   1.01083    0.027
 4413.00    0.90986   1.00949    0.027
 4414.00    0.86103   1.01653    0.027
 4415.00    0.85437   1.01967    0.028
 4416.00    0.93499   1.01880    0.028
 4417.00    0.97107   1.02299    0.028
 4418.00    0.92697   1.02574    0.027
 4419.00    0.94067   1.02542    0.027
 4420.00    1.04534   1.02653    0.027
 4421.00    1.09953   1.02797    0.027
 4422.00    1.08397   1.02776    0.028
 4423.00    1.04431   1.02846    0.028
 4424.00    0.97535   1.02950    0.028
 4425.00    1.03439   1.02715    0.027
 4426.00    1.23067   1.02788    0.027
 4427.00    1.24781   1.02993    0.027
 4428.00    1.09552   1.02649    0.027
 4429.00    0.98527   1.02706    0.028
 4430.00    0.91007   1.02926    0.028
 4431.00    0.89572   1.02742    0.028
 4432.00    0.92604   1.02888    0.028
 4433.00    1.03870   1.02956    0.028
 4434.00    1.20446   1.02987    0.028
 4435.00    1.19200   1.03317    0.028
 4436.00    1.07901   1.03283    0.028
 4437.00    1.08494   1.03459    0.028
 4438.00    1.14925   1.03786    0.028
 4439.00    1.16874   1.03561    0.028
 4440.00    1.16920   1.03823    0.029
 4441.00    1.16265   1.04109    0.029
 4442.00    1.15354   1.03659    0.029
 4443.00    1.17425   1.03928    0.028
 4444.00    1.20413   1.04137    0.028
 4445.00    1.11607   1.03410    0.028
 4446.00    0.99781   1.03454    0.029
 4447.00    1.05311   1.03462    0.028
 4448.00    1.14458   1.02651    0.028
 4449.00    1.27347   1.02506    0.028
 4450.00    1.40850   1.02211    0.028
 4451.00    1.35055   1.01476    0.028
 4452.00    1.26881   1.01384    0.028
 4453.00    1.20110   1.00876    0.028
 4454.00    1.13458   1.00257    0.027
 4455.00    1.08611   1.00481    0.027
 4456.00    1.03853   1.00102    0.027
 4457.00    1.19127   0.99626    0.027
 4458.00    1.34446   1.00164    0.027
 4459.00    1.32595   1.00148    0.027
 4460.00    1.30774   0.99941    0.027
 4461.00    1.29562   1.00650    0.000
 4462.00    1.27568   1.01040    0.000
 4463.00    1.16372   1.01208    0.000
 4464.00    1.05602   1.01867    0.000
 4465.00    0.98298   1.02462    0.000
 4466.00    0.93439   1.02988    0.000
 4467.00    1.03456   1.03534    0.000
 4468.00    1.12831   1.04121    0.000
 4469.00    1.19126   1.04823    0.000
 4470.00    1.23943   1.05225    0.000
 4471.00    1.22987   1.05624    0.000
 4472.00    1.24033   1.06294    0.000
 4473.00    1.31590   1.06546    0.000
 4474.00    1.36709   1.06671    0.000
 4475.00    1.35115   1.07146    0.000
 4476.00    1.29759   1.07267    0.000
 4477.00    1.15540   1.07178    0.000
 4478.00    1.04209   1.07472    0.000
 4479.00    0.98762   1.07521    0.000
 4480.00    1.00267   1.07311    0.000
 4481.00    1.14093   1.07508    0.000
 4482.00    1.17012   1.07577    0.027
 4483.00    1.03012   1.07317    0.027
 4484.00    0.97768   1.07428    0.027
 4485.00    1.04448   1.07551    0.027
 4486.00    1.13410   1.07363    0.027
 4487.00    1.25108   1.07514    0.027
 4488.00    1.26464   1.07759    0.027
 4489.00    1.16887   1.07701    0.027
 4490.00    1.15019   1.07936    0.027
 4491.00    1.20338   1.08348    0.027
 4492.00    1.22361   1.08532    0.027
 4493.00    1.21674   1.08851    0.027
 4494.00    1.17254   1.09384    0.027
 4495.00    1.10133   1.09868    0.027
 4496.00    1.08283   1.10211    0.027
 4497.00    1.09781   1.10730    0.027
 4498.00    1.18292   1.11433    0.027
 4499.00    1.30697   1.11785    0.027
 4500.00    1.30539   1.12150    0.027
 4501.00    1.24310   1.12785    0.027
 4502.00    1.15822   1.13075    0.027
 4503.00    1.06392   1.13207    0.027
 4504.00    1.05217   1.13548    0.027
 4505.00    1.06988   1.13719    0.027
 4506.00    1.03937   1.13606    0.027
 4507.00    0.99432   1.13555    0.027
 4508.00    1.10917   1.13549    0.027
 4509.00    1.26408   1.13186    0.027
 4510.00    1.28513   1.12819    0.027
 4511.00    1.27896   1.12644    0.026
 4512.00    1.15787   1.12071    0.027
 4513.00    1.01844   1.11531    0.027
 4514.00    1.02511   1.11154    0.027
 4515.00    1.04913   1.10406    0.027
 4516.00    0.91851   1.09889    0.027
 4517.00    0.77537   1.09290    0.026
 4518.00    0.91620   1.08379    0.027
 4519.00    1.06995   1.07960    0.027
 4520.00    1.04173   1.07249    0.027
 4521.00    1.01172   1.06331    0.026
 4522.00    1.00388   1.06011    0.026
 4523.00    1.00095   1.05316    0.027
 4524.00    1.09014   1.04599    0.027
 4525.00    1.15430   1.04450    0.027
 4526.00    0.93789   1.03966    0.026
 4527.00    0.75926   1.03588    0.026
 4528.00    0.87628   1.03629    0.026
 4529.00    0.99202   1.03486    0.026
 4530.00    1.10014   1.03398    0.026
 4531.00    1.19660   1.03617    0.026
 4532.00    1.23854   1.03904    0.027
 4533.00    1.26913   1.04023    0.027
 4534.00    1.25637   1.04287    0.027
 4535.00    1.23380   1.04760    0.027
 4536.00    1.17995   1.04898    0.027
 4537.00    1.14634   1.05156    0.027
 4538.00    1.16743   1.05624    0.027
 4539.00    1.15395   1.05688    0.027
 4540.00    1.06033   1.05873    0.026
 4541.00    0.96869   1.06103    0.026
 4542.00    0.88099   1.06094    0.026
 4543.00    0.91641   1.06318    0.026
 4544.00    1.16679   1.06262    0.026
 4545.00    1.27666   1.06209    0.027
 4546.00    1.17179   1.06565    0.026
 4547.00    1.10310   1.06376    0.026
 4548.00    1.08299   1.06385    0.027
 4549.00    1.06656   1.06875    0.027
 4550.00    1.05449   1.06711    0.000
 4551.00    1.05856   1.06854    0.000
 4552.00    1.07942   1.07437    0.000
 4553.00    1.10793   1.07420    0.000
 4554.00    1.14347   1.07676    0.000
 4555.00    1.11247   1.08211    0.000
 4556.00    1.02756   1.08365    0.000
 4557.00    1.03336   1.08639    0.000
 4558.00    1.10385   1.09019    0.000
 4559.00    1.17814   1.09363    0.000
 4560.00    1.25481   1.09534    0.000
 4561.00    1.18797   1.09672    0.000
 4562.00    1.04264   1.10187    0.000
 4563.00    1.03289   1.10169    0.000
 4564.00    1.08759   1.10024    0.000
 4565.00    1.10999   1.10664    0.000
 4566.00    1.11915   1.10481    0.000
 4567.00    1.12296   1.10094    0.000
 4568.00    1.12490   1.10719    0.000
 4569.00    1.18301   1.10387    0.000
 4570.00    1.25772   1.09861    0.000
 4571.00    1.23112   1.10376    0.000
 4572.00    1.17970   1.09915    0.000
 4573.00    1.08857   1.09343    0.000
 4574.00    0.98958   1.09724    0.000
 4575.00    0.99419   1.09202    0.000
 4576.00    1.01485   1.08689    0.000
 4577.00    0.96219   1.08955    0.000
 4578.00    0.90115   1.08441    0.000
 4579.00    1.10186   1.08088    0.000
 4580.00    1.32268   1.08292    0.000
 4581.00    1.22442   1.07838    0.000
 4582.00    1.11287   1.07696    0.000
 4583.00    1.19363   1.07876    0.000
 4584.00    1.27147   1.07494    0.000
 4585.00    1.15213   1.07558    0.000
 4586.00    1.04210   1.07710    0.000
 4587.00    1.09463   1.07388    0.000
 4588.00    1.13844   1.07623    0.000
 4589.00    1.08889   1.07728    0.000
 4590.00    1.06166   1.07454    0.000
 4591.00    1.20317   1.07822    0.000
 4592.00    1.29453   1.07902    0.000
 4593.00    1.09760   1.07697    0.000
 4594.00    0.93410   1.08176    0.000
 4595.00    0.92333   1.08294    0.000
 4596.00    0.93887   1.08185    0.000
 4597.00    1.05289   1.08751    0.000
 4598.00    1.13438   1.08982    0.000
 4599.00    1.11412   1.08967    0.000
 4600.00    1.11160   1.09582    0.000
 4601.00    1.15612   1.09971    0.000
 4602.00    1.20432   1.09994    0.000
 4603.00    1.26087   1.10590    0.000
 4604.00    1.23555   1.11135    0.000
 4605.00    1.04867   1.11091    0.000
 4606.00    0.98972   1.11600    0.000
 4607.00    1.15077   1.12262    0.000
 4608.00    1.18892   1.12057    0.000
 4609.00    1.04203   1.12424    0.000
 4610.00    0.97335   1.13156    0.000
 4611.00    1.00815   1.12757    0.000
 4612.00    1.00105   1.12955    0.000
 4613.00    0.94512   1.13715    0.000
 4614.00    0.96033   1.13172    0.000
 4615.00    1.04864   1.13186    0.000
 4616.00    1.11648   1.13925    0.000
 4617.00    1.16575   1.13343    0.000
 4618.00    1.19403   1.13171    0.000
 4619.00    1.20554   1.13813    0.000
 4620.00    1.16558   1.13295    0.000
 4621.00    1.08947   1.12948    0.000
 4622.00    1.05455   1.13407    0.000
 4623.00    1.04503   1.12997    0.000
 4624.00    1.05249   1.12523    0.000
 4625.00    1.06910   1.12733    0.000
 4626.00    1.09262   1.12399    0.000
 4627.00    1.11938   1.11873    0.000
 4628.00    1.11154   1.11840    0.000
 4629.00    1.08975   1.11494    0.000
 4630.00    1.16706   1.10999    0.000
 4631.00    1.27845   1.10803    0.000
 4632.00    1.33698   1.10362    0.000
 4633.00    1.38020   1.09954    0.000
 4634.00    1.25641   1.09717    0.000
 4635.00    1.09261   1.09157    0.000
 4636.00    1.06427   1.08862    0.000
 4637.00    1.06209   1.08692    0.000
 4638.00    1.04583   1.08072    0.000
 4639.00    1.02745   1.07902    0.000
 4640.00    1.04347   1.07855    0.000
 4641.00    1.06328   1.07290    0.000
 4642.00    1.04834   1.07264    0.000
 4643.00    1.03087   1.07333    0.000
 4644.00    1.00689   1.06933    0.000
 4645.00    0.98265   1.07071    0.000
 4646.00    0.95551   1.07199    0.000
 4647.00    0.92901   1.07005    0.000
 4648.00    0.92705   1.07294    0.000
 4649.00    0.93793   1.07393    0.000
 4650.00    1.15857   1.07344    0.000
 4651.00    1.33769   1.07717    0.000
 4652.00    1.09196   1.07692    0.000
 4653.00    0.88753   1.07659    0.000
 4654.00    0.98481   1.08021    0.000
 4655.00    1.07130   1.07813    0.000
 4656.00    1.09737   1.07665    0.000
 4657.00    1.08920   1.07947    0.000
 4658.00    0.92827   1.07578    0.000
 4659.00    0.83182   1.07272    0.000
 4660.00    0.97154   1.07474    0.000
 4661.00    1.05243   1.07052    0.000
 4662.00    0.95279   1.06651    0.000
 4663.00    0.89976   1.06844    0.000
 4664.00    0.96830   1.06506    0.000
 4665.00    0.98864   1.06145    0.000
 4666.00    0.90097   1.06402    0.000
 4667.00    0.91181   1.06229    0.000
 4668.00    1.11397   1.06012    0.000
 4669.00    1.20523   1.06363    0.000
 4670.00    1.10865   1.06331    0.000
 4671.00    1.05009   1.06268    0.000
 4672.00    1.04794   1.06694    0.000
 4673.00    1.09321   1.06708    0.000
 4674.00    1.20035   1.06722    0.000
 4675.00    1.23970   1.07185    0.000
 4676.00    1.20118   1.07168    0.000
 4677.00    1.15027   1.07156    0.000
 4678.00    1.08682   1.07623    0.000
 4679.00    0.99353   1.07566    0.000
 4680.00    0.87356   1.07451    0.000
 4681.00    0.90418   1.07892    0.000
 4682.00    1.05341   1.07829    0.000
 4683.00    1.10610   1.07592    0.000
 4684.00    1.09193   1.07958    0.000
 4685.00    1.06530   1.07921    0.000
 4686.00    1.03110   1.07582    0.000
 4687.00    1.05906   1.07814    0.000
 4688.00    1.11998   1.07794    0.000
 4689.00    1.10011   1.07398    0.000
 4690.00    1.04307   1.07456    0.000
 4691.00    1.00558   1.07419    0.000
 4692.00    0.97584   1.07016    0.000
 4693.00    1.06748   1.06917    0.000
 4694.00    1.20009   1.06843    0.000
 4695.00    1.24883   1.06481    0.000
 4696.00    1.27376   1.06304    0.000
 4697.00    1.24381   1.06223    0.000
 4698.00    1.20101   1.05947    0.000
 4699.00    1.18796   1.05806    0.000
 4700.00    1.18051   1.05793    0.000
 4701.00    1.14992   1.05641    0.000
 4702.00    1.11597   1.05638    0.000
 4703.00    1.08577   1.05766    0.000
 4704.00    1.05597   1.05762    0.000
 4705.00    1.02926   1.05951    0.000
 4706.00    1.00276   1.06244    0.000
 4707.00    1.07998   1.06375    0.000
 4708.00    1.16073   1.06747    0.000
 4709.00    1.04045   1.07164    0.000
 4710.00    0.92335   1.07365    0.000
 4711.00    0.91966   1.07853    0.000
 4712.00    0.92024   1.08301    0.000
 4713.00    0.98629   1.08464    0.000
 4714.00    1.04524   1.08953    0.000
 4715.00    1.03459   1.09337    0.000
 4716.00    1.03110   1.09347    0.000
 4717.00    1.07819   1.09707    0.000
 4718.00    1.11991   1.09971    0.000
 4719.00    1.13248   1.09769    0.000
 4720.00    1.15066   1.09913    0.000
 4721.00    1.19330   1.10079    0.000
 4722.00    1.20939   1.09692    0.000
 4723.00    1.13026   1.09611    0.000
 4724.00    1.07390   1.09776    0.000
 4725.00    1.08613   1.09314    0.000
 4726.00    1.10422   1.09074    0.000
 4727.00    1.13734   1.09364    0.000
 4728.00    1.17309   1.08978    0.000
 4729.00    1.21462   1.08662    0.000
 4730.00    1.22595   1.09138    0.000
 4731.00    1.17950   1.08938    0.000
 4732.00    1.13407   1.08634    0.000
 4733.00    1.09031   1.09261    0.000
 4734.00    1.07024   1.09261    0.000
 4735.00    1.08481   1.09012    0.000
 4736.00    1.10034   1.09681    0.000
 4737.00    1.11710   1.09806    0.000
 4738.00    1.11867   1.09628    0.000
 4739.00    1.10302   1.10215    0.000
 4740.00    1.07986   1.10332    0.000
 4741.00    1.04919   1.10202    0.000
 4742.00    1.05315   1.10633    0.000
 4743.00    1.08763   1.10626    0.000
 4744.00    1.08400   1.10478    0.000
 4745.00    1.05079   1.10732    0.000
 4746.00    1.05607   1.10580    0.000
 4747.00    1.08763   1.10355    0.000
 4748.00    1.07070   1.10429    0.000
 4749.00    1.02476   1.10168    0.000
 4750.00    1.01708   1.09838    0.000
 4751.00    1.02937   1.09758    0.000
 4752.00    1.06732   1.09487    0.000
 4753.00    1.11688   1.09077    0.000
 4754.00    1.07343   1.08855    0.000
 4755.00    0.99378   1.08678    0.000
 4756.00    1.00921   1.08304    0.000
 4757.00    1.05614   1.07969    0.000
 4758.00    1.12551   1.07926    0.000
 4759.00    1.20112   1.07733    0.000
 4760.00    1.25819   1.07381    0.000
 4761.00    1.31101   1.07451    0.022
 4762.00    1.22532   1.07518    0.022
 4763.00    1.11427   1.07275    0.022
 4764.00    1.03631   1.07424    0.022
 4765.00    0.96301   1.07703    0.022
 4766.00    1.03584   1.07646    0.022
 4767.00    1.12350   1.07835    0.023
 4768.00    1.11668   1.08180    0.023
 4769.00    1.10376   1.08299    0.023
 4770.00    1.15076   1.08516    0.023
 4771.00    1.19951   1.08746    0.023
 4772.00    1.21367   1.08924    0.023
 4773.00    1.22329   1.09202    0.023
 4774.00    1.10122   1.09220    0.022
 4775.00    0.98776   1.09265    0.022
 4776.00    0.99877   1.09623    0.022
 4777.00    1.00589   1.09500    0.022
 4778.00    0.97632   1.09293    0.022
 4779.00    0.95104   1.09729    0.022
 4780.00    0.95515   1.09658    0.022
 4781.00    0.96705   1.09179    0.022
 4782.00    1.02018   1.09634    0.022
 4783.00    1.05821   1.09826    0.022
 4784.00    1.03187   1.09181    0.022
 4785.00    1.03442   1.09554    0.022
 4786.00    1.13845   1.10073    0.022
 4787.00    1.21938   1.09442    0.022
 4788.00    1.23207   1.09652    0.022
 4789.00    1.20956   1.10373    0.022
 4790.00    1.09840   1.09895    0.022
 4791.00    1.02349   1.09922    0.022
 4792.00    1.02721   1.10628    0.022
 4793.00    1.04007   1.10333    0.022
 4794.00    1.07012   1.10219    0.022
 4795.00    1.06846   1.10759    0.023
 4796.00    1.01470   1.10591    0.023
 4797.00    0.96550   1.10387    0.023
 4798.00    0.92287   1.10758    0.022
 4799.00    0.92456   1.10655    0.022
 4800.00    0.98242   1.10394    0.023
 4801.00    1.03303   1.10660    0.023
 4802.00    1.07555   1.10603    0.023
 4803.00    1.10737   1.10325    0.023
 4804.00    1.12866   1.10579    0.023
 4805.00    1.11148   1.10597    0.023
 4806.00    1.06087   1.10333    0.023
 4807.00    1.12310   1.10610    0.023
 4808.00    1.27169   1.10688    0.023
 4809.00    1.24764   1.10399    0.023
 4810.00    1.10746   1.10649    0.023
 4811.00    1.13941   1.10791    0.023
 4812.00    1.27278   1.10501    0.023
 4813.00    1.20836   1.10640    0.023
 4814.00    1.04231   1.10784    0.023
 4815.00    1.02000   1.10475    0.023
 4816.00    1.06170   1.10457    0.023
 4817.00    1.04257   1.10551    0.023
 4818.00    1.00018   1.10182    0.024
 4819.00    1.09320   1.10028    0.024
 4820.00    1.23025   1.10091    0.024
 4821.00    1.18101   1.09650    0.023
 4822.00    1.08106   1.09400    0.023
 4823.00    1.09765   1.09452    0.023
 4824.00    1.14028   1.08959    0.023
 4825.00    1.08254   1.08674    0.023
 4826.00    1.00690   1.08729    0.023
 4827.00    1.11695   1.08217    0.023
 4828.00    1.25231   1.07913    0.023
 4829.00    1.10232   1.07974    0.023
 4830.00    0.92461   1.07529    0.023
 4831.00    0.99241   1.07213    0.023
 4832.00    1.07510   1.07214    0.023
 4833.00    1.03039   1.06788    0.023
 4834.00    0.98257   1.06393    0.024
 4835.00    0.98238   1.06346    0.023
 4836.00    0.98088   1.05986    0.023
 4837.00    0.94511   1.05413    0.023
 4838.00    0.91614   1.05213    0.023
 4839.00    0.97998   1.04944    0.023
 4840.00    1.03296   1.04171    0.023
 4841.00    0.98784   1.03670    0.022
 4842.00    0.95447   1.03411    0.022
 4843.00    0.99906   1.02468    0.022
 4844.00    1.03565   1.01603    0.022
 4845.00    1.03101   1.01282    0.022
 4846.00    1.01978   1.00186    0.022
 4847.00    0.98116   0.98977    0.022
 4848.00    0.95837   0.98581    0.000
 4849.00    0.99012   0.97367    0.000
 4850.00    1.01361   0.95868    0.000
 4851.00    1.01319   0.95505    0.000
 4852.00    1.03486   0.94395    0.000
 4853.00    1.11122   0.92694    0.000
 4854.00    1.17711   0.92444    0.000
 4855.00    1.22067   0.91825    0.000
 4856.00    1.27800   0.90193    0.000
 4857.00    1.36082   0.90043    0.000
 4858.00    1.39527   0.90136    0.000
 4859.00    1.35138   0.88900    0.000
 4860.00    1.30728   0.88847    0.000
 4861.00    1.26287   0.89677    0.000
 4862.00    1.19918   0.89099    0.000
 4863.00    1.11138   0.89103    0.000
 4864.00    1.03854   0.90432    0.000
 4865.00    0.98217   0.90604    0.000
 4866.00    1.00381   0.90607    0.000
 4867.00    1.10122   0.92076    0.000
 4868.00    1.13312   0.92998    0.000
 4869.00    1.10890   0.92979    0.000
 4870.00    1.07719   0.94077    0.000
 4871.00    1.03983   0.95484    0.000
 4872.00    0.97988   0.95580    0.000
 4873.00    0.90496   0.96054    0.000
 4874.00    0.95892   0.97580    0.000
 4875.00    1.08770   0.97992    0.022
 4876.00    1.07740   0.97878    0.022
 4877.00    0.99676   0.99138    0.021
 4878.00    0.94937   0.99921    0.021
 4879.00    0.91654   0.99508    0.022
 4880.00    0.94356   1.00304    0.022
 4881.00    0.99308   1.01307    0.022
 4882.00    1.04928   1.00911    0.022
 4883.00    1.10762   1.01308    0.022
 4884.00    1.11729   1.02414    0.022
 4885.00    1.11398   1.02290    0.022
 4886.00    1.06113   1.02412    0.021
 4887.00    0.99746   1.03507    0.021
 4888.00    0.94895   1.03752    0.021
 4889.00    0.90306   1.03759    0.021
 4890.00    0.99239   1.04799    0.021
 4891.00    1.09953   1.05280    0.021
 4892.00    1.10108   1.05160    0.021
 4893.00    1.09282   1.06111    0.021
 4894.00    1.01949   1.06708    0.021
 4895.00    0.94247   1.06430    0.021
 4896.00    0.94022   1.07151    0.021
 4897.00    0.93976   1.07728    0.021
 4898.00    0.94885   1.07331    0.021
 4899.00    0.95835   1.07699    0.021
 4900.00    0.97769   1.08129    0.021
 4901.00    0.99630   1.07620    0.021
 4902.00    1.00541   1.07583    0.021
 4903.00    1.00971   1.07877    0.022
 4904.00    0.97226   1.07403    0.022
 4905.00    0.93762   1.06945    0.022
 4906.00    0.92109   1.07030    0.021
 4907.00    0.91811   1.06808    0.021
 4908.00    0.98330   1.06136    0.021
 4909.00    1.03654   1.05851    0.021
 4910.00    1.04109   1.05815    0.022
 4911.00    1.04093   1.05261    0.022
 4912.00    1.02482   1.04710    0.022
 4913.00    1.03480   1.04731    0.022
 4914.00    1.11908   1.04546    0.022
 4915.00    1.15940   1.03945    0.022
 4916.00    1.09277   1.03911    0.022
 4917.00    1.06520   1.04185    0.022
 4918.00    1.11963   1.03754    0.022
 4919.00    1.13922   1.03531    0.022
 4920.00    1.09525   1.04138    0.022
 4921.00    1.09496   1.04103    0.022
 4922.00    1.16436   1.03759    0.022
 4923.00    1.16813   1.04461    0.022
 4924.00    1.08007   1.04840    0.022
 4925.00    1.05949   1.04461    0.022
 4926.00    1.12202   1.05026    0.022
 4927.00    1.13989   1.05706    0.022
 4928.00    1.10925   1.05369    0.022
 4929.00    1.11324   1.05641    0.022
 4930.00    1.15038   1.06389    0.022
 4931.00    1.15736   1.06143    0.022
 4932.00    1.13886   1.06242    0.022
 4933.00    1.10800   1.06955    0.022
 4934.00    1.06793   1.06766    0.022
 4935.00    1.06963   1.06793    0.022
 4936.00    1.09861   1.07484    0.022
 4937.00    1.07070   1.07424    0.022
 4938.00    1.01027   1.07466    0.022
 4939.00    1.01556   1.08035    0.022
 4940.00    1.05358   1.08026    0.000
 4941.00    1.03374   1.08144    0.000
 4942.00    0.98901   1.08590    0.000
 4943.00    0.99985   1.08530    0.000
 4944.00    1.03122   1.08616    0.000
 4945.00    1.06337   1.08897    0.000
 4946.00    1.09575   1.08759    0.000
 4947.00    1.08829   1.08715    0.000
 4948.00    1.07042   1.08791    0.000
 4949.00    1.06170   1.08576    0.000
 4950.00    1.05493   1.08436    0.000
 4951.00    1.06910   1.08374    0.000
 4952.00    1.08679   1.08033    0.000
 4953.00    1.13121   1.07844    0.000
 4954.00    1.17902   1.07848    0.000
 4955.00    1.17038   1.07386    0.000
 4956.00    1.15674   1.07129    0.000
 4957.00    1.12234   1.07371    0.000
 4958.00    1.08684   1.06914    0.000
 4959.00    1.06040   1.06516    0.000
 4960.00    1.03503   1.06890    0.000
 4961.00    1.07971   1.06779    0.000
 4962.00    1.12377   1.06408    0.000
 4963.00    1.15444   1.06467    0.000
 4964.00    1.17802   1.06543    0.000
 4965.00    1.11445   1.06423    0.000
 4966.00    1.06488   1.06156    0.000
 4967.00    1.13257   1.06058    0.000
 4968.00    1.19320   1.06087    0.000
 4969.00    1.20977   1.05824    0.000
 4970.00    1.21677   1.05476    0.000
 4971.00    1.17677   1.05344    0.000
 4972.00    1.13722   1.05233    0.000
 4973.00    1.09946   1.04785    0.000
 4974.00    1.08947   1.04404    0.000
 4975.00    1.17135   1.04424    0.000
 4976.00    1.21385   1.03986    0.000
 4977.00    1.14628   1.03433    0.000
 4978.00    1.09855   1.03492    0.000
 4979.00    1.09824   1.03174    0.000
 4980.00    1.09490   1.02649    0.000
 4981.00    1.08530   1.02697    0.000
 4982.00    1.03636   1.02619    0.000
 4983.00    0.91671   1.02250    0.000
 4984.00    0.87683   1.02176    0.000
 4985.00    0.96225   1.02292    0.000
 4986.00    1.00650   1.02186    0.000
 4987.00    0.99395   1.02044    0.000
 4988.00    1.01130   1.02115    0.000
 4989.00    1.06498   1.02096    0.000
 4990.00    1.07673   1.01995    0.000
 4991.00    1.04362   1.01866    0.000
 4992.00    1.00924   1.01710    0.000
 4993.00    0.97367   1.01692    0.000
 4994.00    0.98435   1.01329    0.000
 4995.00    1.03353   1.00958    0.000
 4996.00    1.04588   1.01048    0.000
 4997.00    1.03123   1.00605    0.000
 4998.00    1.05347   1.00076    0.000
 4999.00    1.09944   1.00097    0.000
 5000.00    1.11164   0.99593    0.000
 5001.00    1.10483   0.99004    0.000
 5002.00    1.13081   0.98941    0.000
 5003.00    1.17284   0.98574    0.000
 5004.00    1.22533   0.98112    0.000
 5005.00    1.28226   0.98005    0.000
 5006.00    1.23538   0.97733    0.000
 5007.00    1.15085   0.97329    0.000
 5008.00    1.05943   0.97289    0.000
 5009.00    0.96588   0.97267    0.000
 5010.00    0.95416   0.96984    0.000
 5011.00    0.96333   0.97029    0.000
 5012.00    0.95994   0.97107    0.000
 5013.00    0.95394   0.96932    0.000
 5014.00    0.95581   0.97207    0.000
 5015.00    0.95897   0.97309    0.000
 5016.00    0.96447   0.97177    0.000
 5017.00    0.97025   0.97753    0.000
 5018.00    0.97002   0.98067    0.000
 5019.00    0.96928   0.97885    0.000
 5020.00    0.99388   0.98375    0.000
 5021.00    1.01971   0.99004    0.000
 5022.00    1.00221   0.99000    0.000
 5023.00    0.98389   0.99083    0.000
 5024.00    0.95622   0.99692    0.000
 5025.00    0.93299   0.99944    0.000
 5026.00    0.99860   0.99790    0.000
 5027.00    1.06362   1.00221    0.000
 5028.00    1.12181   1.00457    0.000
 5029.00    1.17268   1.00073    0.025
 5030.00    1.16454   1.00336    0.025
 5031.00    1.15943   1.00705    0.025
 5032.00    1.17276   1.00301    0.025
 5033.00    1.17882   1.00191    0.026
 5034.00    1.15013   1.00631    0.023
 5035.00    1.09583   1.00555    0.022
 5036.00    0.94183   1.00078    0.021
 5037.00    0.84489   1.00277    0.021
 5038.00    0.93302   1.00643    0.021
 5039.00    1.01190   1.00228    0.021
 5040.00    1.06535   1.00274    0.021
 5041.00    1.10829   1.00872    0.021
 5042.00    1.12654   1.00607    0.021
 5043.00    1.10471   1.00623    0.022
 5044.00    1.00143   1.01432    0.021
 5045.00    0.93650   1.01545    0.021
 5046.00    0.93941   1.01458    0.021
 5047.00    0.97520   1.02067    0.021
 5048.00    1.06192   1.02523    0.021
 5049.00    1.09042   1.02416    0.021
 5050.00    1.03977   1.02616    0.021
 5051.00    1.01476   1.03236    0.021
 5052.00    1.02045   1.03287    0.021
 5053.00    1.02915   1.03170    0.021
 5054.00    1.04103   1.03689    0.021
 5055.00    1.03836   1.03858    0.021
 5056.00    1.02213   1.03524    0.021
 5057.00    1.05643   1.03699    0.021
 5058.00    1.13220   1.03971    0.021
 5059.00    1.10126   1.03576    0.021
 5060.00    0.99324   1.03241    0.021
 5061.00    0.98942   1.03533    0.021
 5062.00    1.05166   1.03280    0.020
 5063.00    1.07790   1.02499    0.020
 5064.00    1.08418   1.02612    0.020
 5065.00    1.05716   1.02616    0.020
 5066.00    1.01409   1.01684    0.020
 5067.00    1.01050   1.01378    0.020
 5068.00    1.02335   1.01665    0.020
 5069.00    1.02069   1.01122    0.020
 5070.00    1.01250   1.00327    0.020
 5071.00    0.96636   1.00493    0.020
 5072.00    0.90882   1.00578    0.020
 5073.00    0.93433   0.99809    0.020
 5074.00    0.98058   0.99599    0.020
 5075.00    0.98857   1.00002    0.020
 5076.00    0.98880   0.99743    0.020
 5077.00    0.96013   0.99307    0.020
 5078.00    0.92686   0.99597    0.020
 5079.00    0.94462   0.99878    0.020
 5080.00    0.96842   0.99558    0.020
 5081.00    0.99377   0.99539    0.020
 5082.00    1.01926   1.00018    0.020
 5083.00    1.04145   1.00156    0.019
 5084.00    1.06350   1.00074    0.019
 5085.00    1.02529   1.00322    0.019
 5086.00    0.98770   1.00606    0.019
 5087.00    1.01655   1.00600    0.019
 5088.00    1.03985   1.00632    0.019
 5089.00    0.95987   1.00787    0.019
 5090.00    0.88970   1.00784    0.019
 5091.00    0.92871   1.00749    0.019
 5092.00    0.96333   1.00802    0.020
 5093.00    0.96376   1.00791    0.020
 5094.00    0.96518   1.00680    0.020
 5095.00    0.97243   1.00579    0.020
 5096.00    0.97689   1.00552    0.020
 5097.00    0.96838   1.00412    0.020
 5098.00    0.97203   1.00194    0.020
 5099.00    1.02202   1.00209    0.020
 5100.00    1.04299   1.00146    0.019
 5101.00    0.97169   0.99894    0.020
 5102.00    0.92354   1.00025    0.020
 5103.00    0.93778   1.00239    0.020
 5104.00    0.96039   0.99990    0.020
 5105.00    1.00235   0.99928    0.020
 5106.00    1.00522   1.00268    0.020
 5107.00    0.92989   1.00232    0.021
 5108.00    0.89922   0.99983    0.021
 5109.00    0.94634   1.00271    0.021
 5110.00    0.97489   1.00456    0.021
 5111.00    0.97511   1.00046    0.021
 5112.00    0.96214   1.00139    0.021
 5113.00    0.93151   1.00467    0.021
 5114.00    0.93371   1.00019    0.021
 5115.00    0.97467   0.99799    0.021
 5116.00    0.96203   1.00062    0.021
 5117.00    0.89363   0.99739    0.021
 5118.00    0.92595   0.99321    0.021
 5119.00    1.05073   0.99413    0.021
 5120.00    1.05622   0.99199    0.021
 5121.00    0.96522   0.98641    0.021
 5122.00    0.89637   0.98614    0.021
 5123.00    0.84329   0.98621    0.021
 5124.00    0.86841   0.98016    0.021
 5125.00    0.94239   0.97815    0.021
 5126.00    0.98390   0.98068    0.020
 5127.00    1.00768   0.97617    0.020
 5128.00    0.98278   0.97318    0.020
 5129.00    0.93477   0.97616    0.020
 5130.00    0.93977   0.97181    0.020
 5131.00    0.96645   0.96881    0.021
 5132.00    0.94734   0.97374    0.020
 5133.00    0.91222   0.97062    0.020
 5134.00    0.91142   0.96493    0.020
 5135.00    0.92074   0.96918    0.020
 5136.00    0.95558   0.97042    0.020
 5137.00    0.99664   0.96358    0.020
 5138.00    1.02282   0.96434    0.020
 5139.00    1.04606   0.96803    0.020
 5140.00    0.99374   0.96199    0.020
 5141.00    0.92976   0.96112    0.020
 5142.00    0.94069   0.96667    0.020
 5143.00    0.96015   0.96220    0.019
 5144.00    0.94211   0.95859    0.019
 5145.00    0.92121   0.96334    0.019
 5146.00    0.85679   0.96288    0.019
 5147.00    0.79058   0.95889    0.019
 5148.00    0.80879   0.96028    0.019
 5149.00    0.82975   0.96069    0.019
 5150.00    0.93687   0.95719    0.019
 5151.00    1.03501   0.95717    0.019
 5152.00    0.97745   0.95668    0.019
 5153.00    0.92987   0.95058    0.019
 5154.00    0.98856   0.94793    0.019
 5155.00    1.03979   0.94730    0.019
 5156.00    1.03493   0.94015    0.019
 5157.00    1.02871   0.93337    0.019
 5158.00    1.01473   0.93097    0.019
 5159.00    0.99801   0.92385    0.019
 5160.00    0.96887   0.91391    0.019
 5161.00    0.93545   0.91208    0.019
 5162.00    0.88612   0.90805    0.019
 5163.00    0.83668   0.89382    0.019
 5164.00    0.78690   0.88784    0.020
 5165.00    0.75629   0.88998    0.020
 5166.00    0.77642   0.88216    0.020
 5167.00    0.78932   0.87263    0.020
 5168.00    0.78576   0.87420    0.020
 5169.00    0.76639   0.87416    0.020
 5170.00    0.71592   0.86707    0.020
 5171.00    0.71913   0.86895    0.020
 5172.00    0.81447   0.87498    0.020
 5173.00    0.89771   0.86979    0.020
 5174.00    0.96279   0.86568    0.020
 5175.00    0.99393   0.87397    0.020
 5176.00    0.98024   0.87986    0.020
 5177.00    0.94945   0.87773    0.020
 5178.00    0.89876   0.88118    0.020
 5179.00    0.84384   0.88761    0.020
 5180.00    0.78458   0.88973    0.020
 5181.00    0.79393   0.89383    0.020
 5182.00    0.86537   0.89776    0.020
 5183.00    0.88791   0.89901    0.020
 5184.00    0.87145   0.90291    0.020
 5185.00    0.86804   0.90725    0.020
 5186.00    0.87380   0.90920    0.020
 5187.00    0.87736   0.91593    0.020
 5188.00    0.87957   0.92346    0.020
 5189.00    0.89719   0.92046    0.020
 5190.00    0.92309   0.92229    0.000
 5191.00    0.89869   0.93428    0.000
 5192.00    0.85080   0.93296    0.000
 5193.00    0.89822   0.92693    0.000
 5194.00    0.98398   0.93676    0.000
 5195.00    1.04145   0.94201    0.000
 5196.00    1.08921   0.93359    0.000
 5197.00    1.03373   0.93776    0.000
 5198.00    0.94841   0.94733    0.000
 5199.00    0.92581   0.93965    0.000
 5200.00    0.91819   0.93702    0.000
 5201.00    0.91145   0.94791    0.000
 5202.00    0.90489   0.94622    0.000
 5203.00    0.85927   0.93953    0.000
 5204.00    0.80780   0.94751    0.000
 5205.00    0.82869   0.95269    0.000
 5206.00    0.85749   0.94542    0.000
 5207.00    0.88369   0.94766    0.000
 5208.00    0.90970   0.95704    0.000
 5209.00    0.89227   0.95477    0.000
 5210.00    0.87322   0.95305    0.000
 5211.00    0.92174   0.96025    0.019
 5212.00    0.96892   0.96428    0.019
 5213.00    0.95575   0.96326    0.019
 5214.00    0.94208   0.96501    0.019
 5215.00    0.92023   0.97005    0.019
 5216.00    0.90498   0.97010    0.019
 5217.00    0.95701   0.96684    0.019
 5218.00    1.00145   0.96867    0.019
 5219.00    0.99069   0.97401    0.019
 5220.00    0.97481   0.97332    0.019
 5221.00    0.93038   0.96998    0.019
 5222.00    0.89357   0.97570    0.019
 5223.00    0.89065   0.97880    0.019
 5224.00    0.87790   0.97317    0.019
 5225.00    0.82925   0.97556    0.019
 5226.00    0.80557   0.98186    0.019
 5227.00    0.85836   0.97830    0.019
 5228.00    0.89741   0.97683    0.019
 5229.00    0.90072   0.98686    0.020
 5230.00    0.90035   0.98999    0.020
 5231.00    0.89174   0.98611    0.020
 5232.00    0.88995   0.99387    0.020
 5233.00    0.90138   0.99926    0.020
 5234.00    0.89865   0.99401    0.020
 5235.00    0.87198   0.99794    0.020
 5236.00    0.88971   1.00659    0.020
 5237.00    0.97320   1.00438    0.020
 5238.00    1.04244   1.00243    0.020
 5239.00    1.09312   1.01024    0.020
 5240.00    1.08844   1.01152    0.020
 5241.00    1.02026   1.00456    0.020
 5242.00    0.94394   1.00791    0.020
 5243.00    0.85937   1.01256    0.020
 5244.00    0.84138   1.00590    0.020
 5245.00    0.88279   1.00267    0.020
 5246.00    0.92286   1.00657    0.020
 5247.00    0.96190   1.00412    0.020
 5248.00    0.99892   0.99653    0.020
 5249.00    1.03456   0.99492    0.020
 5250.00    1.00160   0.99503    0.020
 5251.00    0.92707   0.99002    0.020
 5252.00    0.88867   0.98497    0.020
 5253.00    0.86938   0.98047    0.020
 5254.00    0.89225   0.97680    0.020
 5255.00    0.93448   0.97355    0.020
 5256.00    0.91369   0.96476    0.020
 5257.00    0.86798   0.95784    0.020
 5258.00    0.88461   0.95924    0.020
 5259.00    0.92224   0.95465    0.020
 5260.00    0.92192   0.94192    0.020
 5261.00    0.91085   0.94129    0.020
 5262.00    0.94531   0.94609    0.020
 5263.00    0.99040   0.93474    0.020
 5264.00    0.98624   0.92662    0.020
 5265.00    0.97284   0.93702    0.020
 5266.00    0.86808   0.93736    0.020
 5267.00    0.75009   0.92608    0.019
 5268.00    0.79151   0.93447    0.020
 5269.00    0.84969   0.94728    0.020
 5270.00    0.84266   0.93985    0.020
 5271.00    0.83119   0.93895    0.020
 5272.00    0.88471   0.95646    0.020
 5273.00    0.94040   0.96278    0.019
 5274.00    0.90534   0.95909    0.020
 5275.00    0.87314   0.96950    0.020
 5276.00    0.93570   0.98161    0.019
 5277.00    0.99390   0.98166    0.019
 5278.00    0.98555   0.98640    0.019
 5279.00    0.96488   0.99975    0.019
 5280.00    0.82401   1.00593    0.019
 5281.00    0.71092   1.00570    0.019
 5282.00    0.79353   1.01135    0.019
 5283.00    0.87632   1.01973    0.019
 5284.00    0.96014   1.02128    0.019
 5285.00    1.02773   1.02146    0.019
 5286.00    1.02479   1.02811    0.019
 5287.00    1.01110   1.03286    0.019
 5288.00    0.95898   1.03108    0.019
 5289.00    0.91913   1.03157    0.019
 5290.00    0.91615   1.03599    0.019
 5291.00    0.92912   1.03563    0.019
 5292.00    0.98286   1.03272    0.019
 5293.00    1.01440   1.03619    0.019
 5294.00    0.99713   1.03899    0.019
 5295.00    0.96748   1.03626    0.019
 5296.00    0.91421   1.03684    0.019
 5297.00    0.90523   1.04066    0.019
 5298.00    0.97002   1.03981    0.020
 5299.00    1.00342   1.03793    0.020
 5300.00    0.99099   1.04181    0.020
 5301.00    0.97209   1.04464    0.020
 5302.00    0.94487   1.04348    0.020
 5303.00    0.95771   1.04444    0.020
 5304.00    1.01585   1.04654    0.020
 5305.00    1.02261   1.04726    0.020
 5306.00    0.97811   1.04781    0.020
 5307.00    0.95175   1.04709    0.020
 5308.00    0.94135   1.04534    0.020
 5309.00    0.97019   1.04590    0.020
 5310.00    1.02945   1.04518    0.019
 5311.00    1.04170   1.04041    0.019
 5312.00    1.02191   1.03851    0.020
 5313.00    1.02287   1.03907    0.019
 5314.00    1.03621   1.03336    0.019
 5315.00    1.02554   1.02590    0.019
 5316.00    1.00235   1.02614    0.019
 5317.00    0.96654   1.02425    0.019
 5318.00    0.92503   1.01435    0.019
 5319.00    0.95376   1.01006    0.019
 5320.00    1.00979   1.01258    0.019
 5321.00    1.00962   1.00765    0.019
 5322.00    0.99087   0.99764    0.018
 5323.00    0.92914   0.99806    0.018
 5324.00    0.85549   1.00096    0.018
 5325.00    0.91329   0.99474    0.018
 5326.00    1.00107   0.99118    0.018
 5327.00    0.94118   0.99540    0.018
 5328.00    0.85434   0.99603    0.018
 5329.00    0.90319   0.99078    0.018
 5330.00    0.97107   0.99161    0.018
 5331.00    1.02784   0.99775    0.018
 5332.00    1.08349   0.99972    0.018
 5333.00    1.05186   0.99886    0.018
 5334.00    1.01463   1.00008    0.018
 5335.00    0.99659   1.00445    0.018
 5336.00    0.97911   1.00725    0.018
 5337.00    0.95818   1.00801    0.018
 5338.00    0.93928   1.01215    0.018
 5339.00    0.97850   1.01686    0.018
 5340.00    1.01523   1.01759    0.018
 5341.00    1.01646   1.01893    0.018
 5342.00    1.01844   1.02388    0.018
 5343.00    1.02735   1.02736    0.018
 5344.00    1.03867   1.02914    0.018
 5345.00    1.06635   1.03452    0.018
 5346.00    1.08963   1.03812    0.018
 5347.00    1.08964   1.03757    0.018
 5348.00    1.08628   1.04129    0.018
 5349.00    1.06864   1.04604    0.018
 5350.00    1.04860   1.04589    0.018
 5351.00    1.02016   1.04648    0.019
 5352.00    0.98907   1.05092    0.019
 5353.00    0.95019   1.05247    0.019
 5354.00    0.93933   1.04977    0.019
 5355.00    0.99885   1.05022    0.019
 5356.00    1.02251   1.05153    0.019
 5357.00    0.96854   1.04902    0.019
 5358.00    0.93052   1.04596    0.019
 5359.00    0.92246   1.04551    0.019
 5360.00    0.95038   1.04521    0.018
 5361.00    1.03732   1.04141    0.019
 5362.00    1.05942   1.03863    0.019
 5363.00    0.98824   1.03769    0.019
 5364.00    0.99445   1.03460    0.019
 5365.00    1.09857   1.03063    0.019
 5366.00    1.09597   1.03008    0.019
 5367.00    0.97437   1.03119    0.019
 5368.00    0.94018   1.02889   -2.000
 5369.00    0.99194   1.02814   -2.000
 5370.00    1.02777   1.02874   -2.000
 5371.00    1.04980   1.02660   -2.000
 5372.00    0.99893   1.02558   -2.000
 5373.00    0.89239   1.02735   -2.000
 5374.00    0.88892   1.02858   -2.000
 5375.00    0.95466   1.02868   -2.000
 5376.00    0.98260   1.02967   -2.000
 5377.00    0.98831   1.02787   -2.000
 5378.00    0.98145   1.02623   -2.000
 5379.00    0.96813   1.02836   -2.000
 5380.00    0.96420   1.02698   -2.000
 5381.00    0.96444   1.02348   -2.000
 5382.00    0.98722   1.02494   -2.000
 5383.00    1.01859   1.02390    0.018
 5384.00    0.98714   1.01563    0.017
 5385.00    0.93530   1.01410    0.017
 5386.00    0.98238   1.01736    0.017
 5387.00    1.05630   1.01038    0.017
 5388.00    1.06007   1.00325    0.017
 5389.00    1.04820   1.00675    0.017
 5390.00    0.99425   1.00357    0.017
 5391.00    0.93282   0.99091    0.017
 5392.00    0.92612   0.99044    0.017
 5393.00    0.92685   0.99512    0.017
 5394.00    0.92435   0.98706    0.017
 5395.00    0.92154   0.98042    0.017
 5396.00    0.92380   0.98565    0.017
 5397.00    0.92637   0.98354    0.017
 5398.00    0.90997   0.97327    0.017
 5399.00    0.89340   0.97469    0.017
 5400.00    0.93017   0.98002    0.018
 5401.00    0.96431   0.97648    0.018
 5402.00    0.93095   0.97494    0.018
 5403.00    0.90153   0.98009    0.018
 5404.00    0.92542   0.97985    0.018
 5405.00    0.94091   0.97742    0.018
 5406.00    0.88088   0.98188    0.018
 5407.00    0.83723   0.98577    0.018
 5408.00    0.90188   0.98628    0.018
 5409.00    0.95523   0.99004    0.018
 5410.00    0.95050   0.99464    0.018
 5411.00    0.95027   0.99447    0.018
 5412.00    0.96873   0.99618    0.018
 5413.00    0.98560   1.00202    0.018
 5414.00    0.99704   1.00432    0.018
 5415.00    1.00218   1.00398    0.018
 5416.00    0.98911   1.00618    0.018
 5417.00    0.96490   1.00916    0.018
 5418.00    0.91315   1.00922    0.018
 5419.00    0.89826   1.00883    0.018
 5420.00    0.96185   1.01083    0.018
 5421.00    0.99504   1.01277    0.018
 5422.00    0.97203   1.01180    0.018
 5423.00    0.97090   1.00845    0.017
 5424.00    1.00513   1.00882    0.017
 5425.00    1.03403   1.01237    0.017
 5426.00    1.05539   1.01076    0.017
 5427.00    1.03884   1.00799    0.017
 5428.00    0.97501   1.01098    0.017
 5429.00    0.95328   1.01292    0.017
 5430.00    0.97781   1.00803    0.017
 5431.00    1.00776   1.00733    0.017
 5432.00    1.04295   1.01408    0.017
 5433.00    1.01242   1.01377    0.017
 5434.00    0.92570   1.00958    0.017
 5435.00    0.91179   1.01264    0.017
 5436.00    0.95270   1.01632    0.017
 5437.00    0.97182   1.01350    0.016
 5438.00    0.97652   1.01252    0.016
 5439.00    0.97895   1.01714    0.016
 5440.00    0.98006   1.01658    0.016
 5441.00    0.98309   1.01263    0.017
 5442.00    0.98709   1.01352    0.017
 5443.00    0.99554   1.01568    0.017
 5444.00    1.00592   1.01512    0.017
 5445.00    1.03204   1.01338    0.017
 5446.00    1.06406   1.01309    0.017
 5447.00    1.03648   1.01257    0.017
 5448.00    0.98994   1.01107    0.017
 5449.00    0.95726   1.00822    0.017
 5450.00    0.92826   1.00709    0.017
 5451.00    0.89403   1.01091    0.017
 5452.00    0.85865   1.01092    0.017
 5453.00    0.89303   1.00555    0.017
 5454.00    0.93946   1.00545    0.017
 5455.00    0.93621   1.00961    0.017
 5456.00    0.92646   1.00446    0.017
 5457.00    0.93724   0.99810    0.017
 5458.00    0.94993   1.00541    0.017
 5459.00    1.03704   1.00957    0.017
 5460.00    1.12834   0.99996    0.017
 5461.00    1.09159   0.99784    0.018
 5462.00    1.05268   1.00657    0.018
 5463.00    1.08745   1.00137    0.018
 5464.00    1.11940   0.99020    0.018
 5465.00    1.08528   0.99763    0.018
 5466.00    1.05146   1.00448    0.017
 5467.00    1.02164   0.99248    0.017
 5468.00    0.99940   0.98829    0.017
 5469.00    1.04271   0.99908    0.017
 5470.00    1.07478   0.99448    0.017
 5471.00    1.03480   0.98195    0.017
 5472.00    0.99201   0.98966    0.017
 5473.00    0.93513   0.99798    0.017
 5474.00    0.88545   0.98689    0.017
 5475.00    0.86491   0.98279    0.017
 5476.00    0.86403   0.99389    0.016
 5477.00    0.92933   0.99149    0.016
 5478.00    0.99045   0.98262   -2.000
 5479.00    1.03969   0.99093   -2.000
 5480.00    1.07028   0.99812   -2.000
 5481.00    1.05559   0.99014   -2.000
 5482.00    1.07197   0.98888   -2.000
 5483.00    1.15346   0.99797   -2.000
 5484.00    1.13215   0.99600   -2.000
 5485.00    0.92363   0.99223   -2.000
 5486.00    0.84846   1.00028   -2.000
 5487.00    0.98556   1.00262   -2.000
 5488.00    1.06184   0.99555   -2.000
 5489.00    1.05314   0.99759   -2.000
 5490.00    1.09063   1.00424   -2.000
 5491.00    1.18492   0.99956   -2.000
 5492.00    1.12940   0.99657   -2.000
 5493.00    0.91154   1.00326   -2.000
 5494.00    0.82861   1.00325   -2.000
 5495.00    0.87467   0.99617   -2.000
 5496.00    0.93351   0.99687   -2.000
 5497.00    1.00314   1.00139   -2.000
 5498.00    1.05484   0.99807   -2.000
 5499.00    1.09325   0.99412   -2.000
 5500.00    1.07353   0.99620   -2.000
 5501.00    1.01592   0.99763   -2.000
 5502.00    1.00755   0.99471    0.017
 5503.00    1.02727   0.99228    0.017
 5504.00    1.00384   0.99388    0.017
 5505.00    0.95897   0.99580    0.017
 5506.00    0.96085   0.99395    0.017
 5507.00    0.98282   0.99132    0.017
 5508.00    0.98129   0.99355    0.017
 5509.00    0.97111   0.99681    0.017
 5510.00    0.97170   0.99494    0.017
 5511.00    0.97565   0.99342    0.017
 5512.00    1.00219   0.99756    0.017
 5513.00    1.03460   0.99958    0.017
 5514.00    1.02670   0.99631    0.017
 5515.00    1.01024   0.99639    0.017
 5516.00    0.97727   1.00147    0.017
 5517.00    0.94152   1.00224    0.017
 5518.00    0.97563   0.99860    0.016
 5519.00    1.01858   1.00065    0.016
 5520.00    1.00078   1.00543    0.016
 5521.00    0.97763   1.00315    0.016
 5522.00    0.95898   0.99893    0.016
 5523.00    0.94057   1.00292    0.016
 5524.00    0.99351   1.00736    0.016
 5525.00    1.04667   1.00336    0.016
 5526.00    1.01491   1.00152    0.016
 5527.00    0.98211   1.00730    0.016
 5528.00    0.92717   1.00807    0.016
 5529.00    0.87707   1.00193    0.016
 5530.00    0.88616   1.00426    0.016
 5531.00    0.89769   1.01190    0.016
 5532.00    0.92952   1.01003    0.016
 5533.00    0.95846   1.00596    0.016
 5534.00    0.96942   1.01126    0.016
 5535.00    0.98456   1.01598    0.016
 5536.00    1.02008   1.01152    0.016
 5537.00    1.04619   1.01093    0.016
 5538.00    1.03491   1.01819    0.016
 5539.00    1.01913   1.01968    0.018
 5540.00    0.98846   1.01517    0.043
 5541.00    0.97132   1.01720   -1.000
 5542.00    0.99191   1.02341   -1.000
 5543.00    1.00331   1.02195   -1.000
 5544.00    0.99275   1.01800   -1.000
 5545.00    1.00050   1.02111   -1.000
 5546.00    1.04601   1.02467   -1.000
 5547.00    1.06535   1.02127   -1.000
 5548.00    1.03777   1.01840   -1.000
 5549.00    1.01010   1.02140   -1.000
 5550.00    0.98226   1.02265   -1.000
 5551.00    0.98523   1.01866    0.078
 5552.00    1.03062   1.01594    0.023
 5553.00    1.03123   1.01762    0.017
 5554.00    0.97759   1.01761    0.017
 5555.00    0.92930   1.01280    0.016
 5556.00    0.88673   1.00963    0.016
 5557.00    0.88593   1.01179    0.016
 5558.00    0.92448   1.01165    0.016
 5559.00    0.91254   1.00536    0.016
 5560.00    0.85863   1.00309    0.016
 5561.00    0.86192   1.00691    0.016
 5562.00    0.90703   1.00466    0.016
 5563.00    0.92518   0.99728    0.016
 5564.00    0.92599   0.99840    0.016
 5565.00    0.91584   1.00304    0.016
 5566.00    0.89953   0.99725    0.015
 5567.00    0.92516   0.99172    0.015
 5568.00    0.97130   0.99704    0.015
 5569.00    0.96032   0.99802    0.015
 5570.00    0.92521   0.98995    0.015
 5571.00    0.92098   0.98958    0.015
 5572.00    0.92792   0.99500    0.015
 5573.00    0.94802   0.99053    0.015
 5574.00    0.97214   0.98456    0.015
 5575.00    0.91231   0.98812    0.015
 5576.00    0.83110   0.98866    0.015
 5577.00    0.83883   0.98156    0.015
 5578.00    0.86498   0.98023    0.016
 5579.00    0.90014   0.98339    0.016
 5580.00    0.93678   0.97939    0.016
 5581.00    0.94126   0.97386    0.016
 5582.00    0.94182   0.97518    0.016
 5583.00    0.92004   0.97557    0.016
 5584.00    0.89639   0.97033    0.016
 5585.00    0.91271   0.96854    0.016
 5586.00    0.93096   0.97194    0.016
 5587.00    0.94362   0.97062    0.016
 5588.00    0.95579   0.96484    0.016
 5589.00    0.94409   0.96603    0.016
 5590.00    0.93355   0.97115    0.016
 5591.00    0.94620   0.96950    0.016
 5592.00    0.95825   0.96639    0.016
 5593.00    0.96337   0.97047    0.017
 5594.00    0.96923   0.97484    0.017
 5595.00    0.98105   0.97208    0.017
 5596.00    0.98909   0.97235    0.017
 5597.00    0.97436   0.97905    0.017
 5598.00    0.96557   0.98113    0.017
 5599.00    0.98505   0.97859    0.017
 5600.00    0.98620   0.98164    0.017
 5601.00    0.91613   0.98698    0.017
 5602.00    0.86349   0.98665    0.017
 5603.00    0.86724   0.98653    0.016
 5604.00    0.88413   0.98966    0.016
 5605.00    0.93701   0.99076    0.016
 5606.00    0.98092   0.99016    0.016
 5607.00    1.00381   0.99276    0.016
 5608.00    1.02181   0.99421    0.016
 5609.00    1.02990   0.99105    0.016
 5610.00    1.02572   0.99044    0.015
 5611.00    0.99990   0.99337    0.015
 5612.00    0.98299   0.99300    0.015
 5613.00    0.97987   0.99013    0.015
 5614.00    0.96960   0.99062    0.015
 5615.00    0.94965   0.99159    0.015
 5616.00    0.93104   0.98886    0.015
 5617.00    0.91403   0.98706    0.015
 5618.00    0.90899   0.98892    0.015
 5619.00    0.91656   0.99009    0.015
 5620.00    0.93756   0.98833    0.015
 5621.00    0.97104   0.98676    0.015
 5622.00    0.97704   0.98795    0.015
 5623.00    0.96051   0.98987    0.015
 5624.00    0.92522   0.98919    0.015
 5625.00    0.87639   0.98757    0.015
 5626.00    0.85095   0.98830    0.016
 5627.00    0.84029   0.98957    0.016
 5628.00    0.84401   0.98903    0.016
 5629.00    0.85568   0.98912    0.016
 5630.00    0.90912   0.99043    0.016
 5631.00    0.98264   0.98985    0.016
 5632.00    1.00544   0.98902    0.016
 5633.00    1.00718   0.98996    0.016
 5634.00    0.98746   0.99005    0.016
 5635.00    0.96012   0.98883    0.016
 5636.00    0.92058   0.98904    0.016
 5637.00    0.87737   0.98920    0.016
 5638.00    0.88122   0.98755    0.016
 5639.00    0.89679   0.98757    0.016
 5640.00    0.92809   0.98852    0.016
 5641.00    0.96258   0.98683    0.015
 5642.00    0.96164   0.98552    0.015
 5643.00    0.95510   0.98715    0.015
 5644.00    0.95744   0.98568    0.015
 5645.00    0.96084   0.98206    0.015
 5646.00    0.99840   0.98437    0.015
 5647.00    1.03869   0.98636    0.015
 5648.00    1.00661   0.98036    0.015
 5649.00    0.97130   0.97753    0.015
 5650.00    0.94982   0.98352    0.015
 5651.00    0.92879   0.98324    0.015
 5652.00    0.92150   0.97493    0.015
 5653.00    0.91488   0.97585    0.015
 5654.00    0.92055   0.98316    0.015
 5655.00    0.92507   0.97945    0.015
 5656.00    0.91701   0.97259    0.015
 5657.00    0.90976   0.97781    0.015
 5658.00    0.90891   0.98332    0.015
 5659.00    0.90615   0.97753    0.015
 5660.00    0.89226   0.97486    0.015
 5661.00    0.87740   0.98182    0.015
 5662.00    0.85807   0.98502    0.015
 5663.00    0.84313   0.98168    0.015
 5664.00    0.84492   0.98204    0.015
 5665.00    0.85256   0.98637    0.015
 5666.00    0.87881   0.98855    0.015
 5667.00    0.91067   0.98919    0.015
 5668.00    0.95763   0.98953    0.015
 5669.00    0.98320   0.99032    0.015
 5670.00    0.95939   0.99299    0.016
 5671.00    0.94227   0.99543    0.016
 5672.00    0.93849   0.99352    0.016
 5673.00    0.93725   0.99274    0.016
 5674.00    0.94046   0.99720    0.016
 5675.00    0.95338   0.99890    0.016
 5676.00    0.98108   0.99433    0.016
 5677.00    1.00778   0.99332    0.016
 5678.00    1.03314   0.99826    0.016
 5679.00    1.04541   0.99796    0.016
 5680.00    1.04225   0.99268    0.016
 5681.00    1.01298   0.99281    0.016
 5682.00    0.95658   0.99738    0.016
 5683.00    0.94127   0.99526    0.015
 5684.00    0.96359   0.98961    0.015
 5685.00    0.98521   0.99081    0.015
 5686.00    1.00625   0.99513    0.015
 5687.00    1.00411   0.99216    0.015
 5688.00    0.98550   0.98596    0.015
 5689.00    0.97742   0.98767    0.015
 5690.00    0.97591   0.99107    0.015
 5691.00    0.99735   0.98662    0.015
 5692.00    1.03131   0.98137    0.015
 5693.00    1.03790   0.98441    0.015
 5694.00    1.03155   0.98609    0.015
 5695.00    0.99423   0.97959    0.015
 5696.00    0.94425   0.97609    0.015
 5697.00    0.91456   0.97993    0.015
 5698.00    0.89195   0.97907    0.016
 5699.00    0.88569   0.97213    0.016
 5700.00    0.88425   0.97231    0.016
 5701.00    0.86918   0.97589    0.016
 5702.00    0.85079   0.97243    0.016
 5703.00    0.86653   0.96890    0.016
 5704.00    0.88898   0.97256    0.015
 5705.00    0.91482   0.97490    0.015
 5706.00    0.94117   0.97184    0.015
 5707.00    0.92284   0.97213    0.015
 5708.00    0.89945   0.97682    0.015
 5709.00    0.94478   0.97797    0.016
 5710.00    0.99533   0.97691    0.016
 5711.00    0.98948   0.98111    0.016
 5712.00    0.98134   0.98575    0.015
 5713.00    0.97412   0.98549    0.015
 5714.00    0.96729   0.98726    0.015
 5715.00    0.97609   0.99345    0.015
 5716.00    0.98563   0.99654    0.015
 5717.00    1.00785   0.99533    0.016
 5718.00    1.02306   0.99802    0.016
 5719.00    0.96420   1.00434    0.015
 5720.00    0.91269   1.00612    0.015
 5721.00    0.91626   1.00396    0.015
 5722.00    0.92415   1.00659    0.015
 5723.00    0.95667   1.01202    0.015
 5724.00    0.98172   1.01181    0.015
 5725.00    0.97278   1.00981    0.015
 5726.00    0.96588   1.01295    0.015
 5727.00    0.96657   1.01615    0.015
 5728.00    0.97281   1.01347    0.015
 5729.00    0.99635   1.01179    0.015
 5730.00    1.01400   1.01558    0.015
 5731.00    1.01608   1.01760    0.015
 5732.00    1.00921   1.01394    0.015
 5733.00    0.98200   1.01194    0.015
 5734.00    0.96641   1.01477    0.015
 5735.00    0.97365   1.01620    0.015
 5736.00    0.99071   1.01389    0.015
 5737.00    1.02461   1.01202    0.015
 5738.00    1.03908   1.01238    0.015
 5739.00    1.02440   1.01269    0.015
 5740.00    1.00544   1.01147    0.000
 5741.00    0.98085   1.01032    0.000
 5742.00    0.96630   1.01035    0.000
 5743.00    0.96344   1.00980    0.000
 5744.00    0.95168   1.00759    0.000
 5745.00    0.93082   1.00642    0.000
 5746.00    0.94275   1.00769    0.000
 5747.00    0.98429   1.00797    0.000
 5748.00    1.00986   1.00536    0.000
 5749.00    1.02273   1.00321    0.000
 5750.00    1.03727   1.00467    0.000
 5751.00    1.05297   1.00559    0.000
 5752.00    1.05191   1.00356    0.000
 5753.00    1.04055   1.00225    0.000
 5754.00    1.03078   1.00375    0.000
 5755.00    1.02188   1.00380    0.000
 5756.00    0.99663   1.00224    0.000
 5757.00    0.96376   1.00310    0.000
 5758.00    0.95832   1.00482    0.000
 5759.00    0.96389   1.00383    0.000
 5760.00    0.95672   1.00194    0.000
 5761.00    0.94519   1.00350    0.000
 5762.00    0.95677   1.00504    0.000
 5763.00    0.97502   1.00299    0.000
 5764.00    1.00592   1.00088    0.000
 5765.00    1.03984   1.00283    0.000
 5766.00    1.05867   1.00358    0.000
 5767.00    1.07461   1.00009    0.000
 5768.00    1.08950   0.99841    0.000
 5769.00    1.10424   1.00016    0.000
 5770.00    1.08682   0.99894    0.000
 5771.00    1.06589   0.99407    0.000
 5772.00    1.05414   0.99303    0.000
 5773.00    1.04306   0.99466    0.000
 5774.00    1.01988   0.99223    0.000
 5775.00    0.99627   0.98744    0.000
 5776.00    1.03062   0.98723    0.000
 5777.00    1.06368   0.98866    0.000
 5778.00    1.04159   0.98573    0.000
 5779.00    1.01858   0.98280    0.000
 5780.00    0.98071   0.98426    0.000
 5781.00    0.95022   0.98526    0.000
 5782.00    0.99447   0.98246    0.000
 5783.00    1.02976   0.98135    0.000
 5784.00    1.00016   0.98434    0.000
 5785.00    0.97555   0.98654    0.000
 5786.00    0.97863   0.98525    0.000
 5787.00    0.97867   0.98478    0.000
 5788.00    0.96523   0.98812    0.000
 5789.00    0.95557   0.99181    0.000
 5790.00    0.95969   0.99220    0.000
 5791.00    0.97078   0.99160   -2.000
 5792.00    1.00310   0.99472   -2.000
 5793.00    1.03697   0.99912   -2.000
 5794.00    1.07484   0.99917   -2.000
 5795.00    1.08840   0.99838   -2.000
 5796.00    1.04770   1.00247   -2.000
 5797.00    1.02165   1.00637   -2.000
 5798.00    1.02392   1.00445   -2.000
 5799.00    1.01275   1.00379   -2.000
 5800.00    0.97890   1.00886   -2.000
 5801.00    0.95372   1.01122   -2.000
 5802.00    0.94137   1.00795   -2.000
 5803.00    0.94250   1.00862   -2.000
 5804.00    0.96114   1.01361   -2.000
 5805.00    0.97584   1.01347   -2.000
 5806.00    0.98604   1.01013   -2.000
 5807.00    0.98150   1.01247   -2.000
 5808.00    0.96209   1.01664   -2.000
 5809.00    0.94741   1.01477   -2.000
 5810.00    0.93694   1.01256   -2.000
 5811.00    0.94418   1.01632    0.000
 5812.00    0.96530   1.01902    0.000
 5813.00    0.97805   1.01603    0.000
 5814.00    0.98504   1.01556    0.000
 5815.00    0.98509   1.02019    0.000
 5816.00    0.98094   1.02101    0.000
 5817.00    0.98661   1.01744    0.000
 5818.00    0.99747   1.01885    0.000
 5819.00    1.01108   1.02355    0.000
 5820.00    1.02595   1.02242    0.000
 5821.00    1.02826   1.01922    0.000
 5822.00    1.02562   1.02216    0.000
 5823.00    1.04137   1.02553    0.000
 5824.00    1.06329   1.02251    0.000
 5825.00    1.05347   1.02039    0.000
 5826.00    1.03471   1.02429    0.000
 5827.00    1.00763   1.02569    0.000
 5828.00    0.97862   1.02145    0.000
 5829.00    0.97137   1.02061    0.000
 5830.00    0.96817   1.02435    0.000
 5831.00    0.98198   1.02354    0.000
 5832.00    0.99824   1.01895    0.000
 5833.00    0.99516   1.01931    0.000
 5834.00    0.99006   1.02189    0.000
 5835.00    1.00197   1.01883    0.000
 5836.00    1.01503   1.01471    0.000
 5837.00    1.04785   1.01619    0.000
 5838.00    1.08132   1.01691    0.000
 5839.00    1.11002   1.01174    0.000
 5840.00    1.13741   1.00838    0.000
 5841.00    1.12325   1.01035    0.000
 5842.00    1.10760   1.00937    0.000
 5843.00    1.06948   1.00345    0.000
 5844.00    1.03290   1.00070    0.000
 5845.00    1.01136   1.00206    0.000
 5846.00    0.99024   0.99999    0.000
 5847.00    0.97215   0.99498    0.000
 5848.00    0.96030   0.99296    0.000
 5849.00    0.98218   0.99334    0.000
 5850.00    0.99539   0.99100    0.000
 5851.00    0.97102   0.98752    0.000
 5852.00    0.95260   0.98684    0.000
 5853.00    0.95543   0.98695    0.000
 5854.00    0.97251   0.98466    0.000
 5855.00    1.03232   0.98236    0.000
 5856.00    1.07169   0.98329    0.000
 5857.00    1.05892   0.98427    0.000
 5858.00    1.03637   0.98248    0.000
 5859.00    0.99234   0.98028    0.000
 5860.00    0.96223   0.98168    0.000
 5861.00    0.95866   0.98378    0.000
 5862.00    0.95257   0.98292    0.000
 5863.00    0.94230   0.98037    0.000
 5864.00    0.93123   0.98092    0.000
 5865.00    0.91900   0.98291    0.000
 5866.00    0.92782   0.98173    0.000
 5867.00    0.96358   0.97859    0.000
 5868.00    1.00478   0.97799    0.000
 5869.00    1.05211   0.97840    0.000
 5870.00    1.07881   0.97540    0.000
 5871.00    1.08496   0.97113    0.000
 5872.00    1.10158   0.96902    0.000
 5873.00    1.12740   0.96710    0.000
 5874.00    1.12540   0.96183    0.000
 5875.00    1.10188   0.95604    0.000
 5876.00    1.07267   0.95244    0.000
 5877.00    1.03960   0.94803    0.000
 5878.00    1.02918   0.94066    0.000
 5879.00    1.03225   0.93461    0.000
 5880.00    1.02544   0.93118    0.000
 5881.00    1.01349   0.92487    0.000
 5882.00    0.99578   0.91603    0.000
 5883.00    0.97548   0.91136    0.000
 5884.00    0.93884   0.90982    0.000
 5885.00    0.89587   0.90384    0.000
 5886.00    0.87558   0.89586    0.000
 5887.00    0.86277   0.89386    0.000
 5888.00    0.85559   0.89513    0.000
 5889.00    0.84995   0.89153    0.000
 5890.00    0.87835   0.88686    0.000
 5891.00    0.91448   0.88826    0.000
 5892.00    0.91229   0.89145    0.000
 5893.00    0.90313   0.89082    0.000
 5894.00    0.90349   0.89244    0.000
 5895.00    0.90519   0.89826    0.000
 5896.00    0.90461   0.90043    0.000
 5897.00    0.90381   0.90086    0.000
 5898.00    0.87935   0.90838    0.000
 5899.00    0.85338   0.91693    0.000
 5900.00    0.84717   0.91793    0.000
 5901.00    0.84165   0.91980    0.014
 5902.00    0.87144   0.92876    0.014
 5903.00    0.90160   0.93536    0.014
 5904.00    0.94247   0.93632    0.014
 5905.00    0.98078   0.94045    0.014
 5906.00    0.98281   0.94743    0.014
 5907.00    0.98006   0.95002    0.014
 5908.00    0.93288   0.95112    0.014
 5909.00    0.89428   0.95625    0.014
 5910.00    0.91405   0.96066    0.014
 5911.00    0.93071   0.96022    0.014
 5912.00    0.93108   0.96092    0.014
 5913.00    0.92662   0.96597    0.014
 5914.00    0.90173   0.96884    0.014
 5915.00    0.88921   0.96673    0.014
 5916.00    0.91992   0.96659    0.015
 5917.00    0.94497   0.97101    0.015
 5918.00    0.95339   0.97323    0.015
 5919.00    0.96356   0.97051    0.014
 5920.00    0.97811   0.96976    0.014
 5921.00    0.99467   0.97389    0.015
 5922.00    1.01559   0.97559    0.015
 5923.00    1.02532   0.97224    0.015
 5924.00    1.01408   0.97152    0.015
 5925.00    0.99824   0.97589    0.015
 5926.00    0.97487   0.97669    0.015
 5927.00    0.96279   0.97252    0.015
 5928.00    0.96694   0.97261    0.014
 5929.00    0.96314   0.97746    0.014
 5930.00    0.94930   0.97687    0.014
 5931.00    0.93983   0.97182    0.014
 5932.00    0.93521   0.97331    0.014
 5933.00    0.92542   0.97861    0.019
 5934.00    0.91055   0.97635    0.060
 5935.00    0.91052   0.97098   -1.000
 5936.00    0.92333   0.97394   -1.000
 5937.00    0.93135   0.97880   -1.000
 5938.00    0.93570   0.97492   -1.000
 5939.00    0.93435   0.97060   -1.000
 5940.00    0.92918   0.97502   -1.000
 5941.00    0.92292   0.97814   -1.000
 5942.00    0.91602   0.97284   -1.000
 5943.00    0.90609   0.97060   -1.000
 5944.00    0.89461   0.97628   -1.000
 5945.00    0.89808   0.97731   -1.000
 5946.00    0.90817   0.97140   -1.000
 5947.00    0.91927   0.97144    0.038
 5948.00    0.93077   0.97763    0.016
 5949.00    0.91881   0.97704    0.014
 5950.00    0.89927   0.97143    0.014
 5951.00    0.90767   0.97331    0.014
 5952.00    0.92365   0.97946    0.014
 5953.00    0.94780   0.97808    0.014
 5954.00    0.97377   0.97322    0.015
 5955.00    0.96648   0.97585    0.014
 5956.00    0.95330   0.98133    0.014
 5957.00    0.94772   0.98012    0.014
 5958.00    0.94316   0.97647    0.014
 5959.00    0.92602   0.97866    0.014
 5960.00    0.90766   0.98276    0.014
 5961.00    0.87930   0.98200    0.014
 5962.00    0.85034   0.97937    0.014
 5963.00    0.87026   0.98065    0.014
 5964.00    0.89148   0.98327    0.014
 5965.00    0.91933   0.98249    0.014
 5966.00    0.94616   0.98028    0.014
 5967.00    0.94720   0.98095    0.014
 5968.00    0.94981   0.98247    0.014
 5969.00    0.97365   0.98086    0.014
 5970.00    0.99606   0.97865    0.014
 5971.00    1.00565   0.97948    0.014
 5972.00    1.00905   0.98019    0.013
 5973.00    0.97176   0.97737    0.014
 5974.00    0.93885   0.97550    0.014
 5975.00    0.92839   0.97723    0.014
 5976.00    0.92113   0.97707    0.014
 5977.00    0.92715   0.97314    0.014
 5978.00    0.93418   0.97216    0.014
 5979.00    0.94473   0.97500    0.014
 5980.00    0.94543   0.97406    0.014
 5981.00    0.91773   0.96953    0.014
 5982.00    0.89723   0.96972    0.014
 5983.00    0.89446   0.97342    0.014
 5984.00    0.90105   0.97178    0.014
 5985.00    0.92755   0.96716    0.014
 5986.00    0.94919   0.96843    0.014
 5987.00    0.96183   0.97238    0.014
 5988.00    0.97406   0.97009    0.014
 5989.00    0.98564   0.96566    0.014
 5990.00    1.00248   0.96737    0.014
 5991.00    1.02674   0.97075    0.014
 5992.00    1.03567   0.96826    0.014
 5993.00    1.02550   0.96463    0.014
 5994.00    1.00796   0.96597    0.014
 5995.00    0.98234   0.96810    0.014
 5996.00    0.95225   0.96593    0.014
 5997.00    0.91786   0.96302    0.014
 5998.00    0.89223   0.96330    0.013
 5999.00    0.87408   0.96455    0.013
 6000.00    0.87891   0.96340    0.013
 6001.00    0.90103   0.96079    0.013
 6002.00    0.92368   0.95977    0.013
 6003.00    0.94668   0.96103    0.014
 6004.00    0.94494   0.96112    0.014
 6005.00    0.92891   0.95813    0.013
 6006.00    0.92543   0.95637    0.014
 6007.00    0.92829   0.95889    0.014
 6008.00    0.93820   0.96012    0.014
 6009.00    0.95118   0.95611    0.014
 6010.00    0.96170   0.95403    0.014
 6011.00    0.97130   0.95856    0.014
 6012.00    0.95720   0.96091    0.014
 6013.00    0.93558   0.95590    0.014
 6014.00    0.92974   0.95419    0.015
 6015.00    0.92808   0.96045    0.015
 6016.00    0.92687   0.96328    0.015
 6017.00    0.92576   0.95844    0.014
 6018.00    0.93150   0.95795    0.014
 6019.00    0.93842   0.96461    0.014
 6020.00    0.95163   0.96689    0.014
 6021.00    0.96567   0.96314    0.014
 6022.00    0.96674   0.96463    0.014
 6023.00    0.96662   0.97082    0.014
 6024.00    0.94986   0.97175    0.014
 6025.00    0.93217   0.96951    0.014
 6026.00    0.92225   0.97262    0.014
 6027.00    0.91278   0.97738    0.014
 6028.00    0.93051   0.97716    0.013
 6029.00    0.94702   0.97652    0.013
 6030.00    0.93542   0.98014    0.013
 6031.00    0.92328   0.98305    0.013
 6032.00    0.90425   0.98221    0.013
 6033.00    0.88662   0.98275    0.013
 6034.00    0.88109   0.98565    0.013
 6035.00    0.87790   0.98677    0.014
 6036.00    0.88961   0.98617    0.014
 6037.00    0.90436   0.98714    0.014
 6038.00    0.93430   0.98853    0.014
 6039.00    0.96198   0.98837    0.014
 6040.00    0.98056   0.98844    0.014
 6041.00    0.99390   0.98930    0.014
 6042.00    0.98964   0.98898    0.014
 6043.00    0.98609   0.98803    0.014
 6044.00    0.98455   0.98888    0.014
 6045.00    0.97882   0.98943    0.014
 6046.00    0.96297   0.98761    0.014
 6047.00    0.95402   0.98622    0.014
 6048.00    0.95950   0.98782    0.014
 6049.00    0.95913   0.98818    0.014
 6050.00    0.94813   0.98533    0.014
 6051.00    0.94222   0.98382    0.014
 6052.00    0.94442   0.98604    0.014
 6053.00    0.95116   0.98640    0.014
 6054.00    0.96424   0.98308    0.014
 6055.00    0.96834   0.98158    0.014
 6056.00    0.96143   0.98427    0.014
 6057.00    0.95501   0.98504    0.014
 6058.00    0.94911   0.98171    0.013
 6059.00    0.93282   0.98001    0.013
 6060.00    0.90661   0.98291    0.013
 6061.00    0.89191   0.98437    0.013
 6062.00    0.88690   0.98132    0.013
 6063.00    0.89689   0.97908    0.013
 6064.00    0.91799   0.98168    0.014
 6065.00    0.93162   0.98392    0.014
 6066.00    0.94038   0.98123    0.014
 6067.00    0.94337   0.97799    0.014
 6068.00    0.94308   0.97972    0.014
 6069.00    0.95541   0.98264    0.014
 6070.00    0.97400   0.98032    0.014
 6071.00    0.99073   0.97572    0.014
 6072.00    1.00666   0.97632    0.014
 6073.00    0.99287   0.97994    0.014
 6074.00    0.96816   0.97808    0.014
 6075.00    0.95335   0.97207    0.014
 6076.00    0.94162   0.97159    0.014
 6077.00    0.92786   0.97599    0.014
 6078.00    0.91358   0.97457    0.014
 6079.00    0.91879   0.96747    0.014
 6080.00    0.92813   0.96648    0.014
 6081.00    0.93486   0.97170    0.014
 6082.00    0.94115   0.97060    0.014
 6083.00    0.93921   0.96297    0.013
 6084.00    0.93622   0.96200    0.013
 6085.00    0.92219   0.96786    0.013
 6086.00    0.90719   0.96715    0.013
 6087.00    0.93155   0.95962    0.013
 6088.00    0.95795   0.95868    0.013
 6089.00    0.97981   0.96468    0.013
 6090.00    1.00118   0.96473    0.013
 6091.00    0.99221   0.95788    0.013
 6092.00    0.98289   0.95648    0.013
 6093.00    0.96572   0.96208    0.013
 6094.00    0.94987   0.96336    0.013
 6095.00    0.94984   0.95760    0.014
 6096.00    0.95025   0.95519    0.014
 6097.00    0.95425   0.95995    0.014
 6098.00    0.95579   0.96273    0.014
 6099.00    0.94201   0.95833    0.014
 6100.00    0.92707   0.95475    0.014
 6101.00    0.90648   0.95828    0.014
 6102.00    0.89501   0.96222    0.014
 6103.00    0.91970   0.95932    0.014
 6104.00    0.94393   0.95494    0.014
 6105.00    0.96665   0.95699    0.014
 6106.00    0.98179   0.96126    0.014
 6107.00    0.97585   0.95953    0.014
 6108.00    0.97094   0.95499    0.014
 6109.00    0.96844   0.95568    0.014
 6110.00    0.96632   0.95923    0.014
 6111.00    0.96495   0.95809    0.014
 6112.00    0.96337   0.95419    0.013
 6113.00    0.96140   0.95394    0.013
 6114.00    0.95412   0.95579    0.013
 6115.00    0.93851   0.95473    0.013
 6116.00    0.92752   0.95238    0.013
 6117.00    0.92288   0.95179    0.013
 6118.00    0.92245   0.95132    0.013
 6119.00    0.92711   0.94977    0.013
 6120.00    0.92838   0.94953    0.013
 6121.00    0.92602   0.94937    0.013
 6122.00    0.91945   0.94645    0.013
 6123.00    0.90892   0.94420    0.013
 6124.00    0.91216   0.94642    0.013
 6125.00    0.92683   0.94707    0.013
 6126.00    0.94916   0.94182    0.013
 6127.00    0.97709   0.93899    0.014
 6128.00    0.97516   0.94371    0.014
 6129.00    0.95408   0.94533    0.014
 6130.00    0.93479   0.93818    0.014
 6131.00    0.91652   0.93486    0.014
 6132.00    0.90819   0.94172    0.014
 6133.00    0.90472   0.94441    0.014
 6134.00    0.91154   0.93613    0.014
 6135.00    0.92270   0.93227    0.014
 6136.00    0.93278   0.94029    0.014
 6137.00    0.94247   0.94402    0.014
 6138.00    0.95681   0.93549    0.014
 6139.00    0.97258   0.93078    0.014
 6140.00    0.98430   0.93860    0.014
 6141.00    0.99500   0.94307    0.014
 6142.00    0.99924   0.93500    0.013
 6143.00    1.00214   0.92897    0.013
 6144.00    1.00578   0.93533    0.013
 6145.00    1.00955   0.94028    0.013
 6146.00    1.01876   0.93285    0.013
 6147.00    1.02863   0.92514    0.013
 6148.00    1.00556   0.92956    0.013
 6149.00    0.97974   0.93484    0.013
 6150.00    0.94784   0.92785    0.013
 6151.00    0.91566   0.91847    0.013
 6152.00    0.89538   0.92157    0.013
 6153.00    0.87535   0.92751    0.013
 6154.00    0.85998   0.92070    0.014
 6155.00    0.84498   0.91020    0.014
 6156.00    0.83717   0.91321    0.014
 6157.00    0.82832   0.92025    0.014
 6158.00    0.80743   0.91360    0.014
 6159.00    0.79003   0.90300    0.014
 6160.00    0.80067   0.90709    0.014
 6161.00    0.81185   0.91529    0.014
 6162.00    0.82633   0.90910    0.014
 6163.00    0.83648   0.89963    0.014
 6164.00    0.82609   0.90510    0.014
 6165.00    0.82034   0.91378    0.014
 6166.00    0.83257   0.90860    0.014
 6167.00    0.84388   0.90124    0.014
 6168.00    0.85225   0.90724    0.014
 6169.00    0.85302   0.91511    0.013
 6170.00    0.83302   0.91154    0.013
 6171.00    0.81679   0.90683    0.013
 6172.00    0.80937   0.91175    0.013
 6173.00    0.81712   0.91744    0.013
 6174.00    0.85557   0.91603    0.013
 6175.00    0.88572   0.91397    0.013
 6176.00    0.90125   0.91622    0.013
 6177.00    0.91881   0.91892    0.013
 6178.00    0.93952   0.92010    0.013
 6179.00    0.95484   0.92038    0.013
 6180.00    0.96286   0.91916    0.013
 6181.00    0.96051   0.91882    0.013
 6182.00    0.94579   0.92267    0.013
 6183.00    0.93166   0.92498    0.013
 6184.00    0.91814   0.92059    0.014
 6185.00    0.92227   0.91784    0.014
 6186.00    0.94277   0.92390    0.014
 6187.00    0.93889   0.92789    0.014
 6188.00    0.91509   0.92156    0.014
 6189.00    0.89605   0.91723    0.014
 6190.00    0.88044   0.92442    0.014
 6191.00    0.88203   0.92956    0.014
 6192.00    0.89449   0.92279    0.014
 6193.00    0.89415   0.91768    0.014
 6194.00    0.88673   0.92457    0.014
 6195.00    0.86363   0.92997    0.014
 6196.00    0.83298   0.92385   -2.000
 6197.00    0.89448   0.91856   -2.000
 6198.00    0.99417   0.92392   -2.000
 6199.00    1.15579   0.92857   -2.000
 6200.00    1.33937   0.92348   -2.000
 6201.00    1.31034   0.91838   -2.000
 6202.00    1.21769   0.92167   -2.000
 6203.00    1.09349   0.92488   -2.000
 6204.00    0.96145   0.92061   -2.000
 6205.00    0.90239   0.91589   -2.000
 6206.00    0.85802   0.91738   -2.000
 6207.00    0.88355   0.91910   -2.000
 6208.00    0.92011   0.91532    0.014
 6209.00    0.91750   0.91109    0.014
 6210.00    0.91030   0.91152    0.014
 6211.00    0.92782   0.91222    0.014
 6212.00    0.94731   0.90879    0.014
 6213.00    0.96273   0.90517    0.014
 6214.00    0.97798   0.90526    0.014
 6215.00    0.98510   0.90550    0.014
 6216.00    0.99167   0.90245    0.014
 6217.00    0.97601   0.89964    0.014
 6218.00    0.95988   0.89984    0.014
 6219.00    0.93504   0.89986    0.014
 6220.00    0.91202   0.89718    0.013
 6221.00    0.90885   0.89533    0.013
 6222.00    0.90607   0.89584    0.013
 6223.00    0.90620   0.89558    0.013
 6224.00    0.90768   0.89310    0.013
 6225.00    0.91697   0.89213    0.013
 6226.00    0.92262   0.89303    0.013
 6227.00    0.91143   0.89245    0.013
 6228.00    0.90516   0.88986    0.013
 6229.00    0.91760   0.88941    0.013
 6230.00    0.92928   0.89071    0.013
 6231.00    0.93854   0.88994    0.013
 6232.00    0.93974   0.88709    0.013
 6233.00    0.91929   0.88665    0.013
 6234.00    0.89919   0.88816    0.013
 6235.00    0.87987   0.88747    0.013
 6236.00    0.86694   0.88457    0.013
 6237.00    0.86676   0.88385    0.013
 6238.00    0.87200   0.88515    0.013
 6239.00    0.88663   0.88467    0.014
 6240.00    0.89268   0.88234    0.014
 6241.00    0.88571   0.88145    0.014
 6242.00    0.88546   0.88197    0.013
 6243.00    0.89420   0.88169    0.014
 6244.00    0.90960   0.88079    0.014
 6245.00    0.93283   0.88020    0.014
 6246.00    0.93874   0.87944    0.014
 6247.00    0.92668   0.87924    0.013
 6248.00    0.91200   0.88054    0.013
 6249.00    0.89493   0.88084    0.013
 6250.00    0.89419   0.87864    0.013
 6251.00    0.90661   0.87834    0.013
 6252.00    0.91617   0.88206    0.013
 6253.00    0.92371   0.88375    0.013
 6254.00    0.91359   0.88049    0.013
 6255.00    0.89248   0.87994    0.013
 6256.00    0.87558   0.88554    0.013
 6257.00    0.86095   0.88865    0.013
 6258.00    0.86990   0.88503    0.013
 6259.00    0.88998   0.88416    0.014
 6260.00    0.93292   0.89063    0.015
 6261.00    0.98516   0.89469    0.016
 6262.00    1.00938   0.89131    0.017
 6263.00    1.02383   0.89024    0.017
 6264.00    1.03009   0.89647    0.017
 6265.00    1.03394   0.90065    0.016
 6266.00    0.99501   0.89790    0.016
 6267.00    0.94569   0.89685    0.015
 6268.00    0.94561   0.90207    0.014
 6269.00    0.95520   0.90567    0.014
 6270.00    0.98815   0.90354    0.014
 6271.00    1.02468   0.90270    0.014
 6272.00    1.00395   0.90671    0.013
 6273.00    0.97675   0.90943    0.013
 6274.00    0.93911   0.90765    0.013
 6275.00    0.90068   0.90704    0.013
 6276.00    0.89364   0.91009    0.013
 6277.00    0.88786   0.91185    0.013
 6278.00    0.87073   0.91002    0.013
 6279.00    0.85409   0.90956    0.013
 6280.00    0.86076   0.91212    0.000
 6281.00    0.86820   0.91303    0.000
 6282.00    0.88869   0.91055    0.000
 6283.00    0.90832   0.91003    0.000
 6284.00    0.91885   0.91281    0.000
 6285.00    0.92511   0.91321    0.000
 6286.00    0.89954   0.90957    0.000
 6287.00    0.87605   0.90849    0.000
 6288.00    0.86437   0.91191    0.000
 6289.00    0.86118   0.91262    0.000
 6290.00    0.89643   0.90785    0.000
 6291.00    0.93062   0.90556    0.000
 6292.00    0.96085   0.90958    0.000
 6293.00    0.98617   0.91150    0.000
 6294.00    0.99625   0.90631    0.000
 6295.00    0.99601   0.90237    0.000
 6296.00    0.96856   0.90636    0.000
 6297.00    0.95222   0.91010    0.000
 6298.00    0.96102   0.90571    0.000
 6299.00    0.96636   0.90003    0.000
 6300.00    0.96489   0.90283    0.000
 6301.00    0.96107   0.90849    0.000
 6302.00    0.95322   0.90617    0.000
 6303.00    0.93858   0.89902    0.000
 6304.00    0.91376   0.89957    0.000
 6305.00    0.88967   0.90681    0.000
 6306.00    0.86652   0.90732    0.000
 6307.00    0.85699   0.89921    0.000
 6308.00    0.86323   0.89718    0.000
 6309.00    0.87599   0.90541    0.000
 6310.00    0.89539   0.90873    0.000
 6311.00    0.90929   0.90043    0.000
 6312.00    0.91824   0.89617    0.000
 6313.00    0.90629   0.90459    0.000
 6314.00    0.87773   0.91024    0.000
 6315.00    0.86688   0.90276    0.000
 6316.00    0.86841   0.89673    0.000
 6317.00    0.87436   0.90433    0.000
 6318.00    0.88301   0.91177    0.000
 6319.00    0.88320   0.90585    0.000
 6320.00    0.87887   0.89838    0.000
 6321.00    0.86997   0.90430    0.013
 6322.00    0.85895   0.91303    0.013
 6323.00    0.86079   0.90901    0.013
 6324.00    0.86777   0.90036    0.013
 6325.00    0.87002   0.90396    0.013
 6326.00    0.87065   0.91333    0.013
 6327.00    0.86870   0.91149    0.013
 6328.00    0.86600   0.90203    0.013
 6329.00    0.87904   0.90294    0.013
 6330.00    0.89583   0.91216    0.013
 6331.00    0.90438   0.91230    0.013
 6332.00    0.91136   0.90302    0.013
 6333.00    0.89899   0.90193    0.013
 6334.00    0.88374   0.91020    0.013
 6335.00    0.87879   0.91142    0.013
 6336.00    0.87495   0.90309    0.013
 6337.00    0.88233   0.90087    0.013
 6338.00    0.89050   0.90763    0.013
 6339.00    0.86472   0.90900    0.013
 6340.00    0.83770   0.90213    0.013
 6341.00    0.83086   0.90024    0.013
 6342.00    0.82465   0.90530    0.013
 6343.00    0.83771   0.90548    0.013
 6344.00    0.85158   0.89999    0.013
 6345.00    0.87833   0.89948    0.013
 6346.00    0.90307   0.90320    0.014
 6347.00    0.90752   0.90146    0.013
 6348.00    0.91497   0.89677    0.013
 6349.00    0.94407   0.89819    0.013
 6350.00    0.96912   0.90140    0.013
 6351.00    0.97180   0.89787    0.013
 6352.00    0.96798   0.89362    0.013
 6353.00    0.93542   0.89686    0.013
 6354.00    0.90614   0.90017    0.013
 6355.00    0.88877   0.89576    0.013
 6356.00    0.87769   0.89199    0.013
 6357.00    0.88579   0.89653    0.013
 6358.00    0.89165   0.90046    0.013
 6359.00    0.89172   0.89627    0.013
 6360.00    0.88602   0.89298    0.013
 6361.00    0.86746   0.89813    0.013
 6362.00    0.86170   0.90282    0.013
 6363.00    0.88065   0.89951    0.013
 6364.00    0.90542   0.89652    0.013
 6365.00    0.93997   0.90142    0.013
 6366.00    0.96492   0.90662    0.014
 6367.00    0.97566   0.90463    0.014
 6368.00    0.96976   0.90187    0.014
 6369.00    0.94225   0.90551    0.014
 6370.00    0.92234   0.91037    0.013
 6371.00    0.91111   0.90983    0.013
 6372.00    0.90810   0.90752    0.013
 6373.00    0.91339   0.90915    0.013
 6374.00    0.91785   0.91262    0.013
 6375.00    0.92157   0.91349    0.013
 6376.00    0.91591   0.91209    0.013
 6377.00    0.90291   0.91152    0.013
 6378.00    0.89712   0.91295    0.013
 6379.00    0.89631   0.91482    0.013
 6380.00    0.90307   0.91452    0.013
 6381.00    0.91440   0.91237    0.013
 6382.00    0.92768   0.91190    0.013
 6383.00    0.94198   0.91406    0.013
 6384.00    0.93265   0.91461    0.013
 6385.00    0.91252   0.91175    0.012
 6386.00    0.88518   0.91018    0.013
 6387.00    0.85500   0.91229    0.013
 6388.00    0.85716   0.91292    0.013
 6389.00    0.87016   0.90974    0.013
 6390.00    0.89098   0.90869    0.013
 6391.00    0.91400   0.91121    0.013
 6392.00    0.90703   0.91061    0.013
 6393.00    0.89309   0.90658    0.013
 6394.00    0.88803   0.90746    0.013
 6395.00    0.88463   0.91125    0.014
 6396.00    0.89860   0.90882    0.014
 6397.00    0.91506   0.90368    0.014
 6398.00    0.90317   0.90641    0.014
 6399.00    0.88834   0.91153    0.014
 6400.00    0.88125   0.90783    0.014
 6401.00    0.87469   0.90192    0.013
 6402.00    0.87287   0.90566    0.013
 6403.00    0.87120   0.91173    0.013
 6404.00    0.87505   0.90772    0.013
 6405.00    0.87880   0.90124    0.013
 6406.00    0.87946   0.90478    0.012
 6407.00    0.88009   0.91135    0.012
 6408.00    0.88016   0.90860    0.013
 6409.00    0.88086   0.90237    0.013
 6410.00    0.88757   0.90408    0.013
 6411.00    0.89319   0.91015    0.013
 6412.00    0.89113   0.91004    0.013
 6413.00    0.88838   0.90495    0.013
 6414.00    0.88193   0.90404    0.013
 6415.00    0.87562   0.90865    0.013
 6416.00    0.86994   0.91126    0.013
 6417.00    0.86534   0.90831    0.013
 6418.00    0.86455   0.90549    0.013
 6419.00    0.86513   0.90751    0.013
 6420.00    0.86979   0.91131    0.013
 6421.00    0.87376   0.91153    0.013
 6422.00    0.87598   0.90880    0.013
 6423.00    0.88043   0.90752    0.013
 6424.00    0.88981   0.91003    0.013
 6425.00    0.89403   0.91322    0.013
 6426.00    0.88844   0.91254    0.013
 6427.00    0.89461   0.90878    0.013
 6428.00    0.92030   0.90860    0.013
 6429.00    0.94515   0.91332    0.013
 6430.00    0.96879   0.91512    0.013
 6431.00    0.97297   0.91058    0.013
 6432.00    0.95226   0.90811    0.013
 6433.00    0.93360   0.91266    0.013
 6434.00    0.91722   0.91585    0.013
 6435.00    0.91180   0.91164    0.013
 6436.00    0.91727   0.90823    0.013
 6437.00    0.92200   0.91173    0.013
 6438.00    0.92609   0.91459    0.013
 6439.00    0.92529   0.91130    0.013
 6440.00    0.92071   0.90902    0.013
 6441.00    0.92422   0.91148    0.014
 6442.00    0.93321   0.91230    0.014
 6443.00    0.92491   0.90913    0.014
 6444.00    0.90632   0.90865    0.014
 6445.00    0.89118   0.91134    0.013
 6446.00    0.87784   0.91069    0.013
 6447.00    0.88717   0.90681    0.013
 6448.00    0.90671   0.90697    0.013
 6449.00    0.91689   0.91048    0.013
 6450.00    0.92345   0.91041    0.013
 6451.00    0.90763   0.90629    0.013
 6452.00    0.88445   0.90545    0.013
 6453.00    0.87331   0.90958    0.013
 6454.00    0.86551   0.91079    0.013
 6455.00    0.86778   0.90617    0.013
 6456.00    0.87234   0.90422    0.013
 6457.00    0.88468   0.90951    0.013
 6458.00    0.89842   0.91203    0.013
 6459.00    0.89797   0.90678    0.013
 6460.00    0.89554   0.90347    0.013
 6461.00    0.89960   0.90879    0.013
 6462.00    0.90431   0.91234    0.013
 6463.00    0.90110   0.90809    0.013
 6464.00    0.89740   0.90417    0.013
 6465.00    0.88875   0.90765    0.013
 6466.00    0.88003   0.91117    0.013
 6467.00    0.89183   0.90811    0.013
 6468.00    0.90386   0.90389    0.013
 6469.00    0.92185   0.90550    0.013
 6470.00    0.94015   0.90848    0.013
 6471.00    0.96259   0.90575    0.013
 6472.00    0.98344   0.90173    0.013
 6473.00    0.98945   0.90251    0.013
 6474.00    0.99367   0.90389    0.013
 6475.00    0.98569   0.90017    0.013
 6476.00    0.97442   0.89686    0.013
 6477.00    0.94592   0.89803    0.013
 6478.00    0.92123   0.89772    0.013
 6479.00    0.91261   0.89222    0.013
 6480.00    0.90463   0.88899    0.013
 6481.00    0.89890   0.89107    0.013
 6482.00    0.89330   0.89063    0.013
 6483.00    0.88811   0.88412    0.013
 6484.00    0.89157   0.88015    0.013
 6485.00    0.91671   0.88290    0.013
 6486.00    0.93512   0.88363    0.013
 6487.00    0.93906   0.87710    0.013
 6488.00    0.92798   0.87210    0.013
 6489.00    0.88880   0.87529    0.013
 6490.00    0.85919   0.87822    0.013
 6491.00    0.84521   0.87328    0.013
 6492.00    0.84642   0.86765    0.013
 6493.00    0.86938   0.87025    0.013
 6494.00    0.89119   0.87522    0.013
 6495.00    0.91153   0.87399    0.013
 6496.00    0.92938   0.86930    0.013
 6497.00    0.94444   0.87042    0.013
 6498.00    0.95536   0.87588    0.013
 6499.00    0.96221   0.87748    0.013
 6500.00    0.95353   0.87494    0.013
 6501.00    0.93143   0.87493    0.013
 6502.00    0.92161   0.87924    0.013
 6503.00    0.92114   0.88235    0.013
 6504.00    0.91582   0.88194    0.013
 6505.00    0.90724   0.88148    0.013
 6506.00    0.89575   0.88415    0.019
 6507.00    0.88256   0.88704    0.074
 6508.00    0.88117   0.88763   -1.000
 6509.00    0.88579   0.88761   -1.000
 6510.00    0.89441   0.88941   -1.000
 6511.00    0.90479   0.89090   -1.000
 6512.00    0.92455   0.89096   -1.000
 6513.00    0.94788   0.89159   -1.000
 6514.00    0.96001   0.89333   -1.000
 6515.00    0.96853   0.89339   -1.000
 6516.00    0.94492   0.89245    0.033
 6517.00    0.91263   0.89354    0.015
 6518.00    0.89940   0.89551    0.013
 6519.00    0.89038   0.89512    0.013
 6520.00    0.89824   0.89331    0.013
 6521.00    0.90908   0.89358    0.013
 6522.00    0.91671   0.89524    0.013
 6523.00    0.92391   0.89521    0.013
 6524.00    0.91523   0.89348    0.013
 6525.00    0.90502   0.89250    0.012
 6526.00    0.90782   0.89263    0.012
 6527.00    0.91139   0.89303    0.012
 6528.00    0.92809   0.89271    0.000
 6529.00    0.94496   0.89087    0.000
 6530.00    0.93759   0.88830    0.000
 6531.00    0.92966   0.88756    0.000
 6532.00    0.90766   0.88867    0.000
 6533.00    0.88789   0.88758    0.000
 6534.00    0.89804   0.88269    0.000
 6535.00    0.90818   0.87908    0.000
 6536.00    0.91834   0.88021    0.000
 6537.00    0.92600   0.88058    0.000
 6538.00    0.91738   0.87450    0.000
 6539.00    0.91323   0.86735    0.000
 6540.00    0.93191   0.86734    0.000
 6541.00    0.95555   0.86921    0.000
 6542.00    0.99968   0.86248    0.000
 6543.00    1.04923   0.85175    0.000
 6544.00    1.11733   0.85020    0.000
 6545.00    1.16521   0.85363    0.000
 6546.00    1.15487   0.84783    0.000
 6547.00    1.13093   0.83542    0.000
 6548.00    1.07355   0.83136    0.000
 6549.00    1.01536   0.83539    0.000
 6550.00    0.95543   0.83203    0.000
 6551.00    0.90950   0.81904    0.000
 6552.00    0.88936   0.81253    0.000
 6553.00    0.90090   0.81805    0.000
 6554.00    0.96343   0.81893    0.000
 6555.00    1.10508   0.80638    0.000
 6556.00    1.35844   0.79773    0.000
 6557.00    1.68334   0.80558    0.000
 6558.00    2.09712   0.81184    0.000
 6559.00    2.39038   0.80066    0.000
 6560.00    2.55163   0.79004    0.000
 6561.00    2.50024   0.79886    0.000
 6562.00    2.24345   0.80992    0.000
 6563.00    1.91470   0.80516    0.000
 6564.00    1.52464   0.79727    0.000
 6565.00    1.24378   0.80273    0.000
 6566.00    1.04483   0.81303    0.000
 6567.00    0.93139   0.81463    0.000
 6568.00    0.87430   0.81088    0.000
 6569.00    0.84911   0.81339    0.000
 6570.00    0.84233   0.82220    0.000
 6571.00    0.83339   0.82772    0.000
 6572.00    0.82337   0.82660    0.000
 6573.00    0.82780   0.82708    0.000
 6574.00    0.83852   0.83401    0.000
 6575.00    0.89147   0.84107    0.000
 6576.00    0.96018   0.84204    0.000
 6577.00    1.09615   0.84104    0.000
 6578.00    1.25342   0.84458    0.000
 6579.00    1.40112   0.85089    0.000
 6580.00    1.54630   0.85398    0.000
 6581.00    1.57095   0.85324    0.000
 6582.00    1.56954   0.85354    0.000
 6583.00    1.43492   0.85741    0.000
 6584.00    1.27746   0.86152    0.000
 6585.00    1.13697   0.86129    0.000
 6586.00    0.99868   0.85930    0.000
 6587.00    0.94002   0.86166    0.000
 6588.00    0.88862   0.86639    0.000
 6589.00    0.88882   0.86605    0.000
 6590.00    0.89188   0.86246    0.000
 6591.00    0.89862   0.86374    0.000
 6592.00    0.90545   0.86866    0.000
 6593.00    0.91267   0.86922    0.000
 6594.00    0.92011   0.86611    0.000
 6595.00    0.93284   0.86626    0.000
 6596.00    0.94521   0.86978    0.000
 6597.00    0.95310   0.87083    0.000
 6598.00    0.95925   0.86885    0.000
 6599.00    0.95057   0.86913    0.000
 6600.00    0.94336   0.87198    0.000
 6601.00    0.94549   0.87262    0.000
 6602.00    0.94309   0.87048    0.000
 6603.00    0.91813   0.87104    0.000
 6604.00    0.89416   0.87445    0.000
 6605.00    0.87416   0.87507    0.000
 6606.00    0.85740   0.87205    0.000
 6607.00    0.85144   0.87215    0.000
 6608.00    0.85064   0.87620    0.000
 6609.00    0.86447   0.87730    0.013
 6610.00    0.87634   0.87418    0.013
 6611.00    0.88352   0.87338    0.013
 6612.00    0.89149   0.87685    0.013
 6613.00    0.90113   0.87806    0.013
 6614.00    0.90900   0.87524    0.013
 6615.00    0.91365   0.87397    0.013
 6616.00    0.91024   0.87640    0.013
 6617.00    0.89401   0.87728    0.013
 6618.00    0.88513   0.87476    0.013
 6619.00    0.88650   0.87334    0.013
 6620.00    0.90587   0.87496    0.013
 6621.00    0.94730   0.87559    0.013
 6622.00    0.96733   0.87305    0.013
 6623.00    0.96426   0.87115    0.013
 6624.00    0.95821   0.87233    0.013
 6625.00    0.94930   0.87382    0.013
 6626.00    0.93763   0.87182    0.013
 6627.00    0.92365   0.86849    0.013
 6628.00    0.90672   0.86889    0.013
 6629.00    0.88761   0.87167    0.013
 6630.00    0.89041   0.87085    0.013
 6631.00    0.90745   0.86663    0.013
 6632.00    0.90889   0.86570    0.013
 6633.00    0.90146   0.86894    0.013
 6634.00    0.89856   0.87049    0.013
 6635.00    0.89791   0.86729    0.013
 6636.00    0.91211   0.86407    0.013
 6637.00    0.93267   0.86570    0.013
 6638.00    0.94324   0.86959    0.013
 6639.00    0.95015   0.86883    0.013
 6640.00    0.94682   0.86401    0.013
 6641.00    0.94030   0.86336    0.013
 6642.00    0.91767   0.86795    0.013
 6643.00    0.89087   0.86928    0.013
 6644.00    0.87988   0.86495    0.013
 6645.00    0.87223   0.86286    0.013
 6646.00    0.87187   0.86600    0.013
 6647.00    0.87272   0.86785    0.013
 6648.00    0.88707   0.86525    0.013
 6649.00    0.90311   0.86291    0.013
 6650.00    0.91337   0.86408    0.013
 6651.00    0.92313   0.86574    0.013
 6652.00    0.91330   0.86456    0.013
 6653.00    0.90246   0.86225    0.013
 6654.00    0.91751   0.86242    0.013
 6655.00    0.93277   0.86393    0.013
 6656.00    0.93003   0.86291    0.013
 6657.00    0.92661   0.86057    0.013
 6658.00    0.90898   0.86083    0.013
 6659.00    0.89275   0.86255    0.012
 6660.00    0.89343   0.86135    0.012
 6661.00    0.89482   0.85861    0.012
 6662.00    0.90215   0.85849    0.012
 6663.00    0.90686   0.86077    0.013
 6664.00    0.89538   0.86099    0.013
 6665.00    0.88259   0.85824    0.013
 6666.00    0.86349   0.85671    0.013
 6667.00    0.84694   0.85872    0.013
 6668.00    0.84046   0.86090    0.013
 6669.00    0.83903   0.85937    0.013
 6670.00    0.85422   0.85631    0.013
 6671.00    0.86620   0.85648    0.013
 6672.00    0.86930   0.85993    0.013
 6673.00    0.86604   0.86107    0.013
 6674.00    0.84767   0.85756    0.013
 6675.00    0.82517   0.85492    0.013
 6676.00    0.79419   0.85788    0.013
 6677.00    0.78040   0.86156    0.013
 6678.00    0.79732   0.85982    0.013
 6679.00    0.81067   0.85604    0.013
 6680.00    0.81847   0.85651    0.012
 6681.00    0.82221   0.86023    0.012
 6682.00    0.82039   0.86104    0.013
 6683.00    0.82678   0.85796    0.013
 6684.00    0.84308   0.85614    0.012
 6685.00    0.85463   0.85824    0.012
 6686.00    0.86112   0.86072    0.013
 6687.00    0.86481   0.85913    0.013
 6688.00    0.86588   0.85596    0.013
 6689.00    0.85541   0.85603    0.013
 6690.00    0.83539   0.85877    0.013
 6691.00    0.83826   0.85898    0.013
 6692.00    0.85780   0.85596    0.013
 6693.00    0.85876   0.85407    0.013
 6694.00    0.84783   0.85559    0.013
 6695.00    0.83297   0.85705    0.013
 6696.00    0.81591   0.85504    0.000
 6697.00    0.82655   0.85224    0.000
 6698.00    0.85067   0.85241    0.000
 6699.00    0.87925   0.85439    0.000
 6700.00    0.90970   0.85333    0.000
 6701.00    0.92304   0.84964    0.000
 6702.00    0.93022   0.84854    0.000
 6703.00    0.92802   0.85107    0.000
 6704.00    0.92296   0.85153    0.000
 6705.00    0.92026   0.84781    0.000
 6706.00    0.91815   0.84521    0.000
 6707.00    0.93927   0.84727    0.000
 6708.00    0.96518   0.84943    0.000
 6709.00    1.02105   0.84685    0.000
 6710.00    1.08177   0.84290    0.000
 6711.00    1.13479   0.84392    0.000
 6712.00    1.18688   0.84758    0.000
 6713.00    1.20933   0.84662    0.000
 6714.00    1.22931   0.84188    0.000
 6715.00    1.20044   0.84134    0.000
 6716.00    1.16926   0.84595    0.000
 6717.00    1.09376   0.84717    0.000
 6718.00    1.01816   0.84305    0.000
 6719.00    0.97245   0.84086    0.000
 6720.00    0.92720   0.84464    0.000
 6721.00    0.89110   0.84752    0.000
 6722.00    0.85885   0.84481    0.000
 6723.00    0.87094   0.84143    0.000
 6724.00    0.89306   0.84370    0.000
 6725.00    0.99515   0.84745    0.000
 6726.00    1.09241   0.84606    0.000
 6727.00    1.16065   0.84233    0.000
 6728.00    1.21169   0.84301    0.000
 6729.00    1.18125   0.84682    0.000
 6730.00    1.13580   0.84655    0.000
 6731.00    1.03237   0.84302    0.000
 6732.00    0.94279   0.84224    0.000
 6733.00    0.89781   0.84533    0.000
 6734.00    0.86523   0.84620    0.000
 6735.00    0.86644   0.84334    0.000
 6736.00    0.85811   0.84119    0.000
 6737.00    0.82749   0.84295    0.000
 6738.00    0.80575   0.84507    0.000
 6739.00    0.80197   0.84356    0.000
 6740.00    0.80453   0.84097    0.000
 6741.00    0.81825   0.84127    0.000
 6742.00    0.83554   0.84356    0.000
 6743.00    0.85835   0.84346    0.000
 6744.00    0.86714   0.84186    0.000
 6745.00    0.85698   0.84125    0.000
 6746.00    0.84028   0.84225    0.000
 6747.00    0.81577   0.84318    0.000
 6748.00    0.79935   0.84342    0.000
 6749.00    0.79141   0.84281    0.000
 6750.00    0.78693   0.84216    0.000
 6751.00    0.78566   0.84319    0.000
 6752.00    0.82061   0.84457    0.000
 6753.00    0.88514   0.84505    0.014
 6754.00    0.94298   0.84423    0.015
 6755.00    0.99600   0.84377    0.015
 6756.00    0.99512   0.84481    0.016
 6757.00    0.96026   0.84691    0.016
 6758.00    0.88613   0.84707    0.015
 6759.00    0.79038   0.84509    0.015
 6760.00    0.82134   0.84487    0.015
 6761.00    0.91302   0.84731    0.016
 6762.00    0.97935   0.84894    0.016
 6763.00    1.03518   0.84731    0.016
 6764.00    1.02991   0.84552    0.015
 6765.00    1.00304   0.84645    0.015
 6766.00    1.02174   0.84904    0.015
 6767.00    1.05405   0.84915    0.015
 6768.00    1.04018   0.84649    0.015
 6769.00    1.01488   0.84568    0.014
 6770.00    0.99487   0.84787    0.014
 6771.00    0.97593   0.84916    0.014
 6772.00    0.95854   0.84737    0.014
 6773.00    0.94140   0.84560    0.014
 6774.00    0.91590   0.84604    0.014
 6775.00    0.88943   0.84770    0.014
 6776.00    0.86414   0.84780    0.014
 6777.00    0.83894   0.84566    0.014
 6778.00    0.88279   0.84451    0.014
 6779.00    0.92964   0.84584    0.015
 6780.00    0.89272   0.84680    0.015
 6781.00    0.85493   0.84517    0.015
 6782.00    0.81757   0.84357    0.015
 6783.00    0.78499   0.84391    0.014
 6784.00    0.83868   0.84507    0.014
 6785.00    0.89027   0.84513    0.014
 6786.00    0.91881   0.84362    0.014
 6787.00    0.94258   0.84269    0.014
 6788.00    0.92965   0.84369    0.014
 6789.00    0.92287   0.84481    0.014
 6790.00    0.95204   0.84362    0.014
 6791.00    0.97054   0.84228    0.014
 6792.00    0.93972   0.84301    0.014
 6793.00    0.91927   0.84412    0.014
 6794.00    0.93808   0.84358    0.014
 6795.00    0.95589   0.84237    0.014
 6796.00    0.97060   0.84289    0.014
 6797.00    0.98372   0.84408    0.014
 6798.00    0.99257   0.84402    0.014
 6799.00    0.99913   0.84283    0.014
 6800.00    1.00037   0.84297    0.014
 6801.00    0.99110   0.84452    0.014
 6802.00    0.96088   0.84470    0.014
 6803.00    0.93656   0.84284    0.014
 6804.00    0.92244   0.84246    0.014
 6805.00    0.89781   0.84501    0.014
 6806.00    0.85724   0.84594    0.014
 6807.00    0.83095   0.84356    0.014
 6808.00    0.82370   0.84202    0.013
 6809.00    0.85426   0.84450    0.013
 6810.00    0.92921   0.84705    0.014
 6811.00    0.97586   0.84529    0.014
 6812.00    0.99323   0.84210    0.014
 6813.00    0.98194   0.84316    0.014
 6814.00    0.94448   0.84715    0.015
 6815.00    0.91678   0.84727    0.015
 6816.00    0.89693   0.84296    0.014
 6817.00    0.89912   0.84140    0.014
 6818.00    0.91691   0.84539    0.014
 6819.00    0.91560   0.84805    0.014
 6820.00    0.90241   0.84469    0.014
 6821.00    0.88868   0.84080    0.014
 6822.00    0.87466   0.84259    0.014
 6823.00    0.85935   0.84676    0.014
 6824.00    0.84344   0.84575    0.014
 6825.00    0.84408   0.84069    0.014
 6826.00    0.85145   0.83956    0.014
 6827.00    0.86308   0.84336    0.014
 6828.00    0.87618   0.84500    0.014
 6829.00    0.88485   0.84088    0.014
 6830.00    0.89222   0.83715    0.014
 6831.00    0.86845   0.83897    0.014
 6832.00    0.83714   0.84240    0.014
 6833.00    0.82861   0.84086    0.014
 6834.00    0.82453   0.83632    0.014
 6835.00    0.81406   0.83555    0.014
 6836.00    0.80262   0.83853    0.014
 6837.00    0.81818   0.83925    0.014
 6838.00    0.83677   0.83566    0.015
 6839.00    0.84647   0.83300    0.015
 6840.00    0.85550   0.83454    0.015
 6841.00    0.88063   0.83704    0.015
 6842.00    0.90639   0.83552    0.015
 6843.00    0.90420   0.83202    0.015
 6844.00    0.90285   0.83187    0.014
 6845.00    0.94215   0.83423    0.014
 6846.00    0.97533   0.83425    0.014
 6847.00    0.90507   0.83190    0.013
 6848.00    0.84011   0.83078    0.013
 6849.00    0.83070   0.83161    0.013
 6850.00    0.82463   0.83240    0.013
 6851.00    0.84331   0.83128    0.013
 6852.00    0.86088   0.82989    0.013
 6853.00    0.87215   0.83042    0.013
 6854.00    0.87804   0.83144    0.013
 6855.00    0.85973   0.83032    0.013
 6856.00    0.84386   0.82892    0.013
 6857.00    0.83700   0.82974    0.014
 6858.00    0.83715   0.83082    0.014
 6859.00    0.85897   0.82987    0.014
 6860.00    0.87550   0.82839    0.014
 6861.00    0.87808   0.82895    0.014
 6862.00    0.87586   0.83065    0.014
 6863.00    0.86280   0.83082    0.014
 6864.00    0.85715   0.82889    0.014
 6865.00    0.86603   0.82810    0.014
 6866.00    0.87999   0.83034    0.014
 6867.00    0.90261   0.83222    0.014
 6868.00    0.90964   0.83105    0.014
 6869.00    0.89339   0.82913    0.014
 6870.00    0.86998   0.82998    0.014
 6871.00    0.83719   0.83252    0.013
 6872.00    0.82466   0.83362    0.013
 6873.00    0.83557   0.83224    0.013
 6874.00    0.85091   0.83102    0.013
 6875.00    0.87075   0.83292    0.013
 6876.00    0.88058   0.83579    0.014
 6877.00    0.88140   0.83615    0.014
 6878.00    0.88929   0.83433    0.014
 6879.00    0.90279   0.83410    0.014
 6880.00    0.89198   0.83648    0.014
 6881.00    0.86420   0.83915    0.014
 6882.00    0.86217   0.83912    0.014
 6883.00    0.87589   0.83700    0.014
 6884.00    0.88275   0.83736    0.014
 6885.00    0.88596   0.84079    0.014
 6886.00    0.88658   0.84305    0.014
 6887.00    0.88601   0.84135    0.014
 6888.00    0.87884   0.83959    0.014
 6889.00    0.86905   0.84135    0.013
 6890.00    0.88048   0.84496    0.013
 6891.00    0.89915   0.84561    0.014
 6892.00    0.90443   0.84272    0.013
 6893.00    0.90586   0.84166    0.013
 6894.00    0.89126   0.84492    0.013
 6895.00    0.87286   0.84791    0.013
 6896.00    0.86495   0.84595    0.013
 6897.00    0.85904   0.84313    0.013
 6898.00    0.88578   0.84424    0.014
 6899.00    0.91734   0.84766    0.014
 6900.00    0.95074   0.84803    0.014
 6901.00    0.98434   0.84502    0.015
 6902.00    0.96902   0.84338    0.015
 6903.00    0.95026   0.84558    0.015
 6904.00    0.91690   0.84783    0.014
 6905.00    0.88303   0.84600    0.014
 6906.00    0.83277   0.84347    0.014
 6907.00    0.78397   0.84382    0.014
 6908.00    0.78735   0.84580    0.014
 6909.00    0.79112   0.84580    0.015
 6910.00    0.80116   0.84406    0.015
 6911.00    0.81155   0.84276    0.016
 6912.00    0.82539   0.84304    0.016
 6913.00    0.83306   0.84388    0.016
 6914.00    0.79639   0.84342    0.015
 6915.00    0.77492   0.84248    0.014
 6916.00    0.83725   0.84186    0.014
 6917.00    0.88683   0.84182    0.014
 6918.00    0.88023   0.84213    0.014
 6919.00    0.87374   0.84258    0.014
 6920.00    0.86769   0.84194    0.014
 6921.00    0.86131   0.84034    0.014
 6922.00    0.85396   0.84024    0.014
 6923.00    0.85867   0.84158    0.014
 6924.00    0.89458   0.84199    0.014
 6925.00    0.91560   0.84050    0.014
 6926.00    0.90350   0.83935    0.014
 6927.00    0.89367   0.84032    0.014
 6928.00    0.88819   0.84189    0.014
 6929.00    0.88078   0.84142    0.014
 6930.00    0.87012   0.83927    0.014
 6931.00    0.87504   0.83918    0.013
 6932.00    0.90288   0.84103    0.014
 6933.00    0.90586   0.84129    0.014
 6934.00    0.87665   0.83966    0.014
 6935.00    0.86613   0.83899    0.014
 6936.00    0.87695   0.84014    0.014
 6937.00    0.86338   0.84100    0.014
 6938.00    0.82526   0.84045    0.014
 6939.00    0.82166   0.83917    0.014
 6940.00    0.84867   0.83951    0.014
 6941.00    0.85073   0.84065    0.014
 6942.00    0.83327   0.84034    0.014
 6943.00    0.83551   0.83941    0.014
 6944.00    0.85128   0.83966    0.014
 6945.00    0.84633   0.84045    0.014
 6946.00    0.82888   0.84060    0.014
 6947.00    0.81886   0.84060    0.014
 6948.00    0.81277   0.84024    0.014
 6949.00    0.83619   0.84042    0.014
 6950.00    0.87309   0.84095    0.014
 6951.00    0.88842   0.84126    0.014
 6952.00    0.89527   0.84127    0.014
 6953.00    0.89856   0.84116    0.014
 6954.00    0.90066   0.84097    0.014
 6955.00    0.91084   0.84151    0.014
 6956.00    0.92328   0.84279    0.014
 6957.00    0.91103   0.84223    0.014
 6958.00    0.89305   0.84084    0.014
 6959.00    0.91961   0.84093    0.014
 6960.00    0.95444   0.84267    0.014
 6961.00    0.90080   0.84319    0.014
 6962.00    0.83450   0.84133    0.014
 6963.00    0.84561   0.83969    0.015
 6964.00    0.86473   0.84105    0.015
 6965.00    0.85358   0.84332    0.014
 6966.00    0.84040   0.84182    0.014
 6967.00    0.84736   0.83870    0.014
 6968.00    0.85498   0.83871    0.014
 6969.00    0.87460   0.84143    0.014
 6970.00    0.89292   0.84195    0.014
 6971.00    0.87138   0.83915    0.014
 6972.00    0.85122   0.83724    0.014
 6973.00    0.85159   0.83900    0.014
 6974.00    0.85203   0.84131    0.014
 6975.00    0.85323   0.83997    0.014
 6976.00    0.85772   0.83729    0.014
 6977.00    0.88508   0.83746    0.014
 6978.00    0.89940   0.83966    0.014
 6979.00    0.84368   0.84037    0.014
 6980.00    0.80047   0.83911    0.014
 6981.00    0.81119   0.83815    0.014
 6982.00    0.83478   0.83871    0.014
 6983.00    0.90405   0.83983    0.015
 6984.00    0.95808   0.84014    0.015
 6985.00    0.96667   0.83965    0.015
 6986.00    0.95196   0.83913    0.015
 6987.00    0.87805   0.83890    0.015
 6988.00    0.81488   0.83950    0.015
 6989.00    0.77519   0.84047    0.014
 6990.00    0.76291   0.84027    0.014
 6991.00    0.80262   0.83875    0.014
 6992.00    0.83494   0.83807    0.014
 6993.00    0.85503   0.83928    0.014
 6994.00    0.86704   0.84006    0.014
 6995.00    0.86734   0.83871    0.014
 6996.00    0.88065   0.83687    0.014
 6997.00    0.91058   0.83714    0.014
 6998.00    0.90645   0.83830    0.014
 6999.00    0.86398   0.83759    0.014
 7000.00    0.84883   0.83573    0.015
 7001.00    0.86077   0.83547    0.015
 7002.00    0.86830   0.83655    0.015
 7003.00    0.87196   0.83601    0.015
 7004.00    0.87641   0.83405    0.021
 7005.00    0.88145   0.83364    0.072
 7006.00    0.90043   0.83516   -1.000
 7007.00    0.92886   0.83501   -1.000
 7008.00    0.93243   0.83251   -1.000
 7009.00    0.92123   0.83182   -1.000
 7010.00    0.89175   0.83421   -1.000
 7011.00    0.85280   0.83540   -1.000
 7012.00    0.84624   0.83281   -1.000
 7013.00    0.85422   0.83054   -1.000
 7014.00    0.85132   0.83261   -1.000
 7015.00    0.84421   0.83579   -1.000
 7016.00    0.84993   0.83472   -1.000
 7017.00    0.85987   0.83138   -1.000
 7018.00    0.85346   0.83210    0.038
 7019.00    0.84257   0.83638    0.017
 7020.00    0.83391   0.83758    0.015
 7021.00    0.82576   0.83416    0.015
 7022.00    0.85869   0.83250    0.015
 7023.00    0.89905   0.83625    0.015
 7024.00    0.87378   0.84014    0.015
 7025.00    0.83943   0.83895    0.016
 7026.00    0.85446   0.83568    0.015
 7027.00    0.87439   0.83682    0.015
 7028.00    0.86963   0.84158    0.015
 7029.00    0.86333   0.84311    0.015
 7030.00    0.86451   0.84002    0.015
 7031.00    0.86591   0.83838    0.015
 7032.00    0.87055   0.84165    0.015
 7033.00    0.87471   0.84534    0.015
 7034.00    0.86552   0.84489    0.015
 7035.00    0.85740   0.84175    0.015
 7036.00    0.86410   0.84126    0.015
 7037.00    0.86979   0.84425    0.015
 7038.00    0.86609   0.84589    0.015
 7039.00    0.86008   0.84420    0.016
 7040.00    0.83856   0.84211    0.015
 7041.00    0.82563   0.84219    0.015
 7042.00    0.85761   0.84320    0.015
 7043.00    0.88917   0.84309    0.016
 7044.00    0.91903   0.84125    0.016
 7045.00    0.93581   0.83927    0.016
 7046.00    0.90710   0.83848    0.016
 7047.00    0.89268   0.83815    0.016
 7048.00    0.92007   0.83775    0.016
 7049.00    0.92441   0.83647    0.016
 7050.00    0.87121   0.83401   -2.000
 7051.00    0.84503   0.83137   -2.000
 7052.00    0.87697   0.83037   -2.000
 7053.00    0.90485   0.83064   -2.000
 7054.00    0.92511   0.82956   -2.000
 7055.00    0.93245   0.82659   -2.000
 7056.00    0.91871   0.82401   -2.000
 7057.00    0.89232   0.82390   -2.000
 7058.00    0.84785   0.82428   -2.000
 7059.00    0.81433   0.82235   -2.000
 7060.00    0.79457   0.81874   -2.000
 7061.00    0.82951   0.81716   -2.000
 7062.00    0.92510   0.81834   -2.000
 7063.00    0.99188   0.81864   -2.000
 7064.00    1.03048   0.81639   -2.000
 7065.00    1.02219   0.81365   -2.000
 7066.00    0.97344   0.81295   -2.000
 7067.00    0.94629   0.81328   -2.000
 7068.00    0.93553   0.81260   -2.000
 7069.00    0.91382   0.81075   -2.000
 7070.00    0.88478   0.80936   -2.000
 7071.00    0.96583   0.80886   -2.000
 7072.00    1.11126   0.80814   -2.000
 7073.00    1.14513   0.80720   -2.000
 7074.00    1.12214   0.80609   -2.000
 7075.00    1.07260   0.80460   -2.000
 7076.00    1.01132   0.80240   -2.000
 7077.00    0.97173   0.80132   -2.000
 7078.00    0.94036   0.80162   -2.000
 7079.00    1.02597   0.80110   -2.000
 7080.00    1.14926   0.79845   -2.000
 7081.00    1.15421   0.79521   -2.000
 7082.00    1.12729   0.79504   -2.000
 7083.00    1.01798   0.79624   -2.000
 7084.00    0.89048   0.79504   -2.000
 7085.00    0.89457   0.79085   -2.000
 7086.00    0.92180   0.78890   -2.000
 7087.00    0.94348   0.79085   -2.000
 7088.00    0.96441   0.79204   -2.000
 7089.00    0.94066   0.78928   -2.000
 7090.00    0.91267   0.78491   -2.000
 7091.00    0.93275   0.78539   -2.000
 7092.00    0.95565   0.78873   -2.000
 7093.00    0.95870   0.78879   -2.000
 7094.00    0.96130   0.78448   -2.000
 7095.00    0.96728   0.78219   -2.000
 7096.00    0.97075   0.78526   -2.000
 7097.00    0.91173   0.78827   -2.000
 7098.00    0.85657   0.78654   -2.000
 7099.00    0.85282   0.78208   -2.000
 7100.00    0.84715   0.78219   -2.000
 7101.00    0.82462   0.78642   -2.000
 7102.00    0.80638   0.78810   -2.000
 7103.00    0.81622   0.78457   -2.000
 7104.00    0.82562   0.78130   -2.000
 7105.00    0.83271   0.78332   -2.000
 7106.00    0.83978   0.78742   -2.000
 7107.00    0.84676   0.78751   -2.000
 7108.00    0.84671   0.78314   -2.000
 7109.00    0.82271   0.78100   -2.000
 7110.00    0.81720   0.78396   -2.000
 7111.00    0.86480   0.78748   -2.000
 7112.00    0.88839   0.78594   -2.000
 7113.00    0.85310   0.78148   -2.000
 7114.00    0.84252   0.78024   -2.000
 7115.00    0.88424   0.78409   -2.000
 7116.00    0.90239   0.78680   -2.000
 7117.00    0.87718   0.78364   -2.000
 7118.00    0.88292   0.77931   -2.000
 7119.00    0.93838   0.77963   -2.000
 7120.00    0.95471   0.78424   -2.000
 7121.00    0.91588   0.78553   -2.000
 7122.00    0.88871   0.78105   -2.000
 7123.00    0.87601   0.77734   -2.000
 7124.00    0.96479   0.78010   -2.000
 7125.00    1.16453   0.78452   -2.000
 7126.00    1.19076   0.78350   -2.000
 7127.00    1.04967   0.77891   -2.000
 7128.00    0.98610   0.77739   -2.000
 7129.00    0.98844   0.78184   -2.000
 7130.00    1.00153   0.78482   -2.000
 7131.00    1.02267   0.78153   -2.000
 7132.00    1.07048   0.77795   -2.000
 7133.00    1.13584   0.77970   -2.000
 7134.00    1.07613   0.78375   -2.000
 7135.00    0.94439   0.78426   -2.000
 7136.00    0.89238   0.78114   -2.000
 7137.00    0.88038   0.77960   -2.000
 7138.00    0.89159   0.78240   -2.000
 7139.00    0.91289   0.78483   -2.000
 7140.00    0.94022   0.78386   -2.000
 7141.00    0.96979   0.78235   -2.000
 7142.00    0.94658   0.78256   -2.000
 7143.00    0.90670   0.78403   -2.000
 7144.00    0.86024   0.78537   -2.000
 7145.00    0.81204   0.78546   -2.000
 7146.00    0.84080   0.78500   -2.000
 7147.00    0.88614   0.78441   -2.000
 7148.00    0.89624   0.78429   -2.000
 7149.00    0.90032   0.78635   -2.000
 7150.00    0.85829   0.78833   -2.000
 7151.00    0.81028   0.78747   -2.000
 7152.00    0.81106   0.78501   -2.000
 7153.00    0.81626   0.78517   -2.000
 7154.00    0.86979   0.78851   -2.000
 7155.00    0.92596   0.79071   -2.000
 7156.00    0.86791   0.78835   -2.000
 7157.00    0.80702   0.78484   -2.000
 7158.00    0.70573   0.78646   -2.000
 7159.00    0.62050   0.79088   -2.000
 7160.00    0.89985   0.79207   -2.000
 7161.00    1.16451   0.78860   -2.000
 7162.00    1.24425   0.78579   -2.000
 7163.00    1.31271   0.78803   -2.000
 7164.00    1.28490   0.79157   -2.000
 7165.00    1.22735   0.79155   -2.000
 7166.00    0.98136   0.78852   -2.000
 7167.00    0.79337   0.78685   -2.000
 7168.00    0.89334   0.78832   -2.000
 7169.00    0.96670   0.79087   -2.000
 7170.00    0.93293   0.79073   -2.000
 7171.00    0.90571   0.78797   -2.000
 7172.00    0.90039   0.78632   -2.000
 7173.00    0.88665   0.78713   -2.000
 7174.00    0.84915   0.78904   -2.000
 7175.00    0.83737   0.78913   -2.000
 7176.00    0.88764   0.78681   -2.000
 7177.00    0.93009   0.78529   -2.000
 7178.00    0.95626   0.78647   -2.000
 7179.00    0.96200   0.78722   -2.000
 7180.00    0.93075   0.78584   -2.000
 7181.00    0.91698   0.78405   -2.000
 7182.00    0.93089   0.78412   -2.000
 7183.00    0.90121   0.78609   -2.000
 7184.00    0.81098   0.78570   -2.000
 7185.00    0.75639   0.78279   -2.000
 7186.00    0.74539   0.78208   -2.000
 7187.00    0.78909   0.78469   -2.000
 7188.00    0.89175   0.78591   -2.000
 7189.00    0.92201   0.78313   -2.000
 7190.00    0.88343   0.78069   -2.000
 7191.00    0.85390   0.78295   -2.000
 7192.00    0.83194   0.78699   -2.000
 7193.00    0.82246   0.78581   -2.000
 7194.00    0.82220   0.78088   -2.000
 7195.00    0.80726   0.78027   -2.000
 7196.00    0.78281   0.78539   -2.000
 7197.00    0.75528   0.78918   -2.000
 7198.00    0.72601   0.78614   -2.000
 7199.00    0.78134   0.78096   -2.000
 7200.00    0.87846   0.78238   -2.000
 7201.00    0.93234   0.78833   -2.000
 7202.00    0.96775   0.79011   -2.000
 7203.00    1.02444   0.78659   -2.000
 7204.00    1.08891   0.78405   -2.000
 7205.00    0.95685   0.78721   -2.000
 7206.00    0.76391   0.79142   -2.000
 7207.00    0.75413   0.79116   -2.000
 7208.00    0.79163   0.78817   -2.000
 7209.00    0.81962   0.78840   -2.000
 7210.00    0.84560   0.79234   -2.000
 7211.00    0.78079   0.79476   -2.000
 7212.00    0.70089   0.79397   -2.000
 7213.00    0.75673   0.79230   -2.000
 7214.00    0.82952   0.79376   -2.000
 7215.00    0.84825   0.79650   -2.000
 7216.00    0.86229   0.79747   -2.000
 7217.00    0.83327   0.79775   -2.000
 7218.00    0.80207   0.79817   -2.000
