###################################################################
## OUTPUT of StarlightChains_v04.for    [Cid@UFSC - 01/Apr/2007] ##
###################################################################

## Some input info
KUG0210-078._28_38.txt                   [arq_obs]
Base.CB07.vall.4m                        [arq_base]
Masks.EmLines.NEW.gm                     [arq_masks]
StCv04.C11.config                        [arq_config]
   66                                    [N_base]
    0                                    [N_YAV_components = # of components with extra extinction!]
    0                                    [i_FitPowerLaw (1/0 = Yes/No)]
-9.99                                    [alpha_PowerLaw]
CCM                                      [red_law_option]
 1.458241                                [q_norm = A(l_norm)/A(V)]

## (Re)Sampling Parameters
 3741.00                                 [l_ini (A)]
 7218.00                                 [l_fin (A)]
    1.00                                 [dl    (A)]     (OBS: dl_cushion =    50.00 A)

## Normalization info
 4020.00                                 [l_norm (A) - for base]
 4010.00                                 [llow_norm (A) - window for f_obs]
 4060.00                                 [lupp_norm (A) - window for f_obs]
2.569100E-17                             [fobs_norm (in input units)]

## S/N
 3691.00                                 [llow_SN (A) - window for S/N]
 7268.00                                 [lupp_SN (A) - window for S/N]
   3.725                                 [S/N in S/N window]
   2.480                                 [S/N in norm. window]
   0.056                                 [S/N_err in S/N window]
   0.037                                 [S/N_err in norm. window]
  1.0000                                 [fscale_chi2]

## etc...
    -2007386                             [idum_orig]
  2432                                   [NOl_eff]
  2240                                   [Nl_eff]
   192    NSIGMA                         [Ntot_cliped & clip_method]
  5637660                                [Nglobal_steps]
   7                                     [N_chains]
  33                                     [NEX0s_base = N_base in EX0s-fits]
 0   0   1      192   2.0   1.564E+04    [Clip-Bug, RC-Crash & Burn-In warning-flags, n_censored_weights, wei_nsig_threshold & wei_limit]
    50     48.517     47.832      0.684  [idt_all, wdt_TotTime, wdt_UsrTime & wdt_SysTime (sec)]

## Synthesis Results - Best model ##

 1.36747E-04                             [chi2/Nl_eff]
    10.25890                             [adev (%)]

    98.15223                             [sum-of-x (%)]
 7.09298E-16                             [Flux_tot (units of input spectrum!)]
 1.29736E-11                             [Mini_tot (???)]
 6.49774E-12                             [Mcor_tot (???)]

 180.87                                  [v0_min  (km/s)]
 161.58                                  [vd_min  (km/s)]
 2.4844                                  [AV_min  (mag)]
 0.0000                                  [YAV_min (mag)]

# j     x_j(%)      Mini_j(%)     Mcor_j(%)     age_j(yr)     Z_j      (L/M)_j    YAV?  Mstars   component_j        a/Fe...       SSP_chi2r SSP_adev(%)   SSP_AV   SSP_x(%)
  1      0.0000     0.0000E+00    0.0000E+00    1.000000E+06  0.00400  1.094E-02    0   1.0000   age020_m42            0.0000     1.9455E-04    15.8808   4.0000    92.8701
  2      0.0000     0.0000E+00    0.0000E+00    3.160000E+06  0.00400  4.007E-02    0   0.9999   age045_m42            0.0000     1.8571E-04    13.8962   3.5492    89.6671
  3      0.0000     0.0000E+00    0.0000E+00    5.010000E+06  0.00400  2.539E-02    0   0.9488   age055_m42            0.0000     1.8372E-04    14.2671   3.8374    88.7854
  4      0.0000     0.0000E+00    0.0000E+00    6.610000E+06  0.00400  2.620E-02    0   0.9220   age061_m42            0.0000     1.8049E-04    13.6535   3.4715    89.9775
  5      0.0000     0.0000E+00    0.0000E+00    1.000000E+07  0.00400  1.322E-02    0   0.8862   age070_m42            0.0000     1.6139E-04    12.2585   3.1639    92.8191
  6      0.0000     0.0000E+00    0.0000E+00    1.445000E+07  0.00400  7.883E-03    0   0.8571   age078_m42            0.0000     1.6354E-04    12.6974   3.4738    91.2011
  7      0.0000     0.0000E+00    0.0000E+00    2.512000E+07  0.00400  5.251E-03    0   0.8174   age090_m42            0.0000     1.5831E-04    11.9552   3.0327    93.3567
  8      0.0000     0.0000E+00    0.0000E+00    4.000000E+07  0.00400  3.649E-03    0   0.7851   age104_m42            0.0000     1.6050E-04    11.9659   2.8197    93.5484
  9      0.0000     0.0000E+00    0.0000E+00    5.500000E+07  0.00400  3.098E-03    0   0.7629   age110_m42            0.0000     1.6925E-04    12.4056   2.9941    92.6811
 10      0.0000     0.0000E+00    0.0000E+00    1.015200E+08  0.00400  2.228E-03    0   0.7207   age116_m42            0.0000     1.7433E-04    12.6320   3.0309    92.1875
 11      0.0000     0.0000E+00    0.0000E+00    2.861200E+08  0.00400  1.093E-03    0   0.6648   age125_m42            0.0000     1.6653E-04    11.4993   2.4611    94.6068
 12      0.0000     0.0000E+00    0.0000E+00    5.088000E+08  0.00400  6.597E-04    0   0.6365   age130_m42            0.0000     1.7644E-04    12.0367   2.4789    94.3430
 13      0.0000     0.0000E+00    0.0000E+00    1.434000E+09  0.00400  2.132E-04    0   0.5798   age139_m42            0.0000     1.8156E-04    12.4515   1.5411    95.0605
 14      0.0000     0.0000E+00    0.0000E+00    4.250000E+09  0.00400  5.895E-05    0   0.5377   age158_m42            0.0000     1.9165E-04    13.8891   1.0990    91.7514
 15      0.1119     1.7760E-01    1.8482E-01    7.500000E+09  0.00400  3.510E-05    0   0.5212   age171_m42            0.0000     1.9699E-04    14.2690   0.9194    90.8286
 16      0.0000     0.0000E+00    0.0000E+00    1.300000E+10  0.00400  2.005E-05    0   0.5034   age193_m42            0.0000     2.0153E-04    14.5956   0.7591    90.1278
 17      0.0000     0.0000E+00    0.0000E+00    1.800000E+10  0.00400  1.525E-05    0   0.4967   age213_m42            0.0000     2.0128E-04    14.5431   0.7326    89.8875
 18     20.8425     9.3777E-02    1.8724E-01    1.000000E+06  0.00800  1.238E-02    0   1.0000   age020_m52            0.0000     1.9420E-04    15.8727   4.0000    92.9535
 19      0.0000     0.0000E+00    0.0000E+00    3.160000E+06  0.00800  3.074E-02    0   0.9966   age045_m52            0.0000     1.9062E-04    15.4889   4.0000    91.4205
 20      0.0000     0.0000E+00    0.0000E+00    5.010000E+06  0.00800  2.668E-02    0   0.9443   age055_m52            0.0000     1.8252E-04    14.3933   3.9105    88.4009
 21      0.0000     0.0000E+00    0.0000E+00    6.610000E+06  0.00800  2.136E-02    0   0.9177   age061_m52            0.0000     1.6299E-04    12.7151   2.6675    93.9082
 22      0.0000     0.0000E+00    0.0000E+00    1.000000E+07  0.00800  1.215E-02    0   0.8827   age070_m52            0.0000     1.5614E-04    11.9600   3.3208    93.4489
 23      0.0000     0.0000E+00    0.0000E+00    1.445000E+07  0.00800  8.717E-03    0   0.8552   age078_m52            0.0000     1.6271E-04    12.5707   3.4450    92.2340
 24      0.0000     0.0000E+00    0.0000E+00    2.512000E+07  0.00800  5.592E-03    0   0.8162   age090_m52            0.0000     1.5741E-04    11.7467   3.0977    94.3585
 25      0.0000     0.0000E+00    0.0000E+00    4.000000E+07  0.00800  3.896E-03    0   0.7841   age104_m52            0.0000     1.6059E-04    11.7923   3.0261    94.3525
 26      0.0000     0.0000E+00    0.0000E+00    1.015200E+08  0.00800  2.148E-03    0   0.7226   age116_m52            0.0000     1.6781E-04    12.3031   2.9882    93.2784
 27      0.0000     0.0000E+00    0.0000E+00    2.861200E+08  0.00800  9.925E-04    0   0.6683   age125_m52            0.0000     1.7554E-04    12.0461   2.5447    95.1730
 28      0.0000     0.0000E+00    0.0000E+00    9.047900E+08  0.00800  3.141E-04    0   0.6138   age135_m52            0.0000     1.8898E-04    12.5542   1.7937    97.1396
 29      0.0000     0.0000E+00    0.0000E+00    1.434000E+09  0.00800  1.719E-04    0   0.5853   age139_m52            0.0000     1.8628E-04    13.0145   1.2003    95.8639
 30      0.0000     0.0000E+00    0.0000E+00    2.500000E+09  0.00800  7.872E-05    0   0.5600   age150_m52            0.0000     2.0160E-04    14.3398   0.9496    92.8968
 31      0.0000     0.0000E+00    0.0000E+00    4.250000E+09  0.00800  4.336E-05    0   0.5426   age158_m52            0.0000     2.0247E-04    14.4392   0.9327    92.1134
 32      0.0000     0.0000E+00    0.0000E+00    6.250000E+09  0.00800  3.159E-05    0   0.5319   age166_m52            0.0000     2.1209E-04    14.9295   0.7458    91.5377
 33      8.5388     3.4947E+01    3.5397E+01    1.300000E+10  0.00800  1.361E-05    0   0.5073   age193_m52            0.0000     2.2458E-04    15.6378   0.2986    90.2206
 34      0.0000     0.0000E+00    0.0000E+00    1.800000E+10  0.00800  9.886E-06    0   0.4990   age213_m52            0.0000     2.3541E-04    16.1456   0.2041    89.2952
 35      0.0000     0.0000E+00    0.0000E+00    1.000000E+06  0.02000  1.544E-02    0   1.0000   age020_m62            0.0000     1.9386E-04    15.8634   4.0000    93.0828
 36      0.0000     0.0000E+00    0.0000E+00    3.160000E+06  0.02000  3.762E-02    0   0.9858   age045_m62            0.0000     1.9074E-04    15.5666   4.0000    92.0436
 37      0.0000     0.0000E+00    0.0000E+00    5.010000E+06  0.02000  3.296E-02    0   0.9342   age055_m62            0.0000     1.8477E-04    14.2782   3.8100    89.3675
 38      0.0000     0.0000E+00    0.0000E+00    8.710000E+06  0.02000  1.154E-02    0   0.8861   age067_m62            0.0000     1.2943E-04     9.4566   2.7000    98.9516
 39      0.0000     0.0000E+00    0.0000E+00    1.445000E+07  0.02000  7.663E-03    0   0.8472   age078_m62            0.0000     1.4745E-04    10.9589   2.9512    96.0973
 40      0.0000     0.0000E+00    0.0000E+00    2.512000E+07  0.02000  4.532E-03    0   0.8099   age090_m62            0.0000     1.4493E-04    10.7023   2.9416    95.8199
 41      0.0000     0.0000E+00    0.0000E+00    5.500000E+07  0.02000  2.733E-03    0   0.7595   age110_m62            0.0000     1.5957E-04    11.9189   3.0015    94.0201
 42      0.0000     0.0000E+00    0.0000E+00    1.609000E+08  0.02000  1.369E-03    0   0.6985   age120_m62            0.0000     1.7008E-04    12.1590   2.8863    94.6101
 43      0.0000     0.0000E+00    0.0000E+00    2.861200E+08  0.02000  9.013E-04    0   0.6714   age125_m62            0.0000     1.7817E-04    12.2281   2.6666    96.0035
 44      0.3651     4.0445E-02    5.2078E-02    5.088000E+08  0.02000  5.028E-04    0   0.6449   age130_m62            0.0000     1.9429E-04    12.8560   2.3318    96.7782
 45      0.0000     0.0000E+00    0.0000E+00    9.047900E+08  0.02000  2.428E-04    0   0.6179   age135_m62            0.0000     1.9733E-04    13.4904   1.7508    96.1347
 46      0.0000     0.0000E+00    0.0000E+00    1.434000E+09  0.02000  1.263E-04    0   0.5908   age139_m62            0.0000     2.0029E-04    14.0679   1.3031    95.0226
 47      0.0000     0.0000E+00    0.0000E+00    2.500000E+09  0.02000  5.985E-05    0   0.5673   age150_m62            0.0000     2.1299E-04    15.0274   0.9491    93.3907
 48      0.0000     0.0000E+00    0.0000E+00    4.250000E+09  0.02000  3.271E-05    0   0.5468   age158_m62            0.0000     2.2745E-04    15.8880   0.6645    91.8851
 49      0.0000     0.0000E+00    0.0000E+00    1.000000E+10  0.02000  1.360E-05    0   0.5167   age181_m62            0.0000     2.4616E-04    16.6688   0.3416    90.5780
 50      0.0000     0.0000E+00    0.0000E+00    1.800000E+10  0.02000  7.124E-06    0   0.5013   age213_m62            0.0000     2.6225E-04    17.3284   0.1472    89.2973
 51     23.0371     4.9506E-02    9.8826E-02    1.000000E+06  0.05000  2.592E-02    0   0.9998   age020_m72            0.0000     1.9242E-04    15.8167   4.0000    92.9502
 52      0.0000     0.0000E+00    0.0000E+00    3.160000E+06  0.05000  4.845E-02    0   0.9577   age045_m72            0.0000     1.8786E-04    15.0113   4.0000    89.4216
 53     10.2594     1.8602E-02    3.3974E-02    5.010000E+06  0.05000  3.072E-02    0   0.9147   age055_m72            0.0000     1.5934E-04    12.1937   3.5254    92.8896
 54      0.0000     0.0000E+00    0.0000E+00    6.610000E+06  0.05000  1.455E-02    0   0.8877   age061_m72            0.0000     1.3038E-04     9.5291   2.6867   101.4059
 55     11.5170     7.0698E-02    1.2032E-01    1.000000E+07  0.05000  9.074E-03    0   0.8524   age070_m72            0.0000     1.6293E-04    12.2934   3.6813    93.0794
 56     18.2495     2.3918E-01    3.7737E-01    2.512000E+07  0.05000  4.250E-03    0   0.7902   age090_m72            0.0000     1.5774E-04    11.6017   3.4235    93.4047
 57      0.0000     0.0000E+00    0.0000E+00    4.000000E+07  0.05000  3.087E-03    0   0.7618   age104_m72            0.0000     1.5555E-04    11.2128   3.2041    94.5637
 58      0.0000     0.0000E+00    0.0000E+00    1.015200E+08  0.05000  1.700E-03    0   0.7096   age116_m72            0.0000     1.6462E-04    11.7015   3.0111    94.8229
 59      0.0000     0.0000E+00    0.0000E+00    2.861200E+08  0.05000  7.384E-04    0   0.6633   age125_m72            0.0000     1.8701E-04    12.5553   2.5557    96.4432
 60      0.0000     0.0000E+00    0.0000E+00    5.088000E+08  0.05000  3.819E-04    0   0.6372   age130_m72            0.0000     1.9883E-04    13.5439   2.0916    97.0429
 61      0.0000     0.0000E+00    0.0000E+00    9.047900E+08  0.05000  1.676E-04    0   0.6110   age135_m72            0.0000     2.1592E-04    15.0395   1.4118    94.9798
 62      0.0000     0.0000E+00    0.0000E+00    1.434000E+09  0.05000  8.837E-05    0   0.5874   age139_m72            0.0000     2.1773E-04    15.1302   0.9522    94.5749
 63      0.0000     0.0000E+00    0.0000E+00    2.500000E+09  0.05000  4.233E-05    0   0.5598   age150_m72            0.0000     2.3390E-04    16.1903   0.6699    92.4660
 64      0.0000     0.0000E+00    0.0000E+00    6.250000E+09  0.05000  1.435E-05    0   0.5249   age166_m72            0.0000     2.5381E-04    17.0127   0.2489    90.0848
 65      0.0000     0.0000E+00    0.0000E+00    1.300000E+10  0.05000  6.513E-06    0   0.5036   age193_m72            0.0000     2.7199E-04    17.8527  -0.0124    90.2445
 66      5.2309     6.4363E+01    6.3548E+01    1.800000E+10  0.05000  4.527E-06    0   0.4945   age213_m72            0.0000     2.8562E-04    18.3854  -0.1641    89.6903


## Synthesis Results - Average & Chains ##

# j      x_j: min, <> & last-chain-values for 1 ...  7 chains
  1      0.0000      0.2118      0.8036      0.5513      0.2600      0.1050      0.0000      0.3326      0.1449
  2      0.0000      0.0895      0.2644      0.5193      0.0000      0.8039      0.0000      0.0988      0.0799
  3      0.0000      0.1423      0.9379      0.3393      0.1340      0.3698      0.0701      0.4752      0.0779
  4      0.0000      0.0881      0.0763      0.0000      0.0470      0.1234      0.2147      0.3933      0.1893
  5      0.0000      0.0944      0.4735      0.0000      0.3293      0.2162      0.0216      0.0245      0.0952
  6      0.0000      0.1454      0.1725      0.8911      0.0000      0.0000      0.5569      0.0000      0.4845
  7      0.0000      0.0599      0.0000      0.1486      0.0000      0.0457      0.0000      0.1119      0.0000
  8      0.0000      0.1199      0.4195      0.0000      0.0000      0.7636      0.0000      0.4236      0.8459
  9      0.0000      0.1355      0.2453      1.2911      0.5639      0.0000      0.1245      0.2539      0.0000
 10      0.0000      0.0966      0.3183      0.0912      0.3614      0.6211      0.0000      0.0000      0.1285
 11      0.0000      0.0893      0.0000      0.0000      0.0000      0.0000      0.1164      0.6838      0.0720
 12      0.0000      0.1385      0.8269      1.3980      0.9616      0.3473      0.3806      0.3515      0.6219
 13      0.0000      0.1280      0.1911      0.6304      1.1731      0.0000      0.1090      0.0000      0.8815
 14      0.0000      0.0895      0.8085      0.1754      1.0907      0.0000      0.1711      1.1129      0.0017
 15      0.1119      0.1133      0.2291      0.9812      1.1158      0.2039      0.2195      0.0595      0.3543
 16      0.0000      0.0693      0.1780      0.0000      0.2412      0.0109      0.5052      0.0000      0.1028
 17      0.0000      0.1113      0.2001      0.0000      0.5526      0.0217      0.5090      0.2728      0.8138
 18     20.8425      0.1402      0.3121      0.4629      0.8527      0.0734      0.3026      0.2954      0.0000
 19      0.0000      0.1207      0.3403      0.6028      0.3285      0.6408      0.3479      0.1285      0.3471
 20      0.0000      0.1064      0.0337      0.0754      0.0000      0.4881      0.8417      0.5768      0.0000
 21      0.0000      0.0859      0.2478      0.0000      0.2319      0.1403      0.2932      0.1500      0.3058
 22      0.0000      0.1072      0.3144      0.0450      0.0000      0.0985      0.1254      0.6209      0.4266
 23      0.0000      0.1273      1.0794      1.4724      0.2422      0.4807      0.1789      0.0218      0.0000
 24      0.0000      0.0938      0.0000      0.3762      0.3329      0.0000      0.0202      0.0109      0.2724
 25      0.0000      0.0909      0.7669      0.3182      0.2754      0.5122      0.0000      0.0000      0.0144
 26      0.0000      0.1042      0.3723      0.0000      0.0000      0.2912      0.2787      0.0779      0.9151
 27      0.0000      0.1237      0.6667      0.0000      0.3134      0.4396      0.0743      0.1840      0.0000
 28      0.0000      0.1316      0.7707      0.0449      0.8804      0.0000      0.7230      0.0000      0.8409
 29      0.0000      0.1380      0.2256      0.0000      0.0000      0.1829      1.0607      1.0376      0.1098
 30      0.0000      0.1095      0.2131      0.0342      0.9412      0.0863      0.0000      0.0000      0.2154
 31      0.0000      0.0806      0.0854      0.0885      0.3094      0.3862      0.8799      0.0713      0.2373
 32      0.0000      0.1116      0.3948      0.2974      0.0981      0.1559      0.4502      0.0000      0.2134
 33      8.5388      0.1279      0.3837      0.5305      0.3368      1.2960      0.9784      0.5451      1.0777
 34      0.0000      0.1587      0.1473      0.7807      0.2526      0.4509      0.8098      0.3928      1.4366
 35      0.0000      0.1006      0.0167      0.4172      0.0000      0.4800      0.1238      0.1526      0.0140
 36      0.0000      0.1095      0.1460      0.2142      0.2412      0.5978      0.0000      0.2332      1.1146
 37      0.0000      0.1564      0.0978      0.7585      1.1955      1.0166      1.1598      0.0811      0.2797
 38      0.0000      0.0931      0.1946      0.0000      0.0000      0.6994      0.0145      0.2187      0.5843
 39      0.0000      0.1280      0.1552      0.3694      0.0000      0.6272      0.0000      0.8619      0.0826
 40      0.0000      0.0936      0.0000      0.3287      0.0023      0.5110      0.0000      0.5555      0.3874
 41      0.0000      0.1089      0.4437      0.3705      0.0000      0.4705      0.4674      0.3386      0.6869
 42      0.0000      0.1236      0.5309      1.2993      0.2179      0.6734      0.2370      0.4577      0.6888
 43      0.0000      0.0802      0.0000      0.0000      0.2829      0.4466      0.0000      0.0000      0.0000
 44      0.3651      0.0961      0.0000      0.3096      0.5983      0.0000      0.9306      0.0757      0.1237
 45      0.0000      0.1204      0.0000      0.0000      0.2919      0.0000      0.0034      0.3766      0.8132
 46      0.0000      0.1317      1.1462      0.0000      0.8113      0.5663      0.2121      0.2812      0.0000
 47      0.0000      0.0978      0.2940      0.1736      0.2138      1.0102      0.4626      0.6305      0.0000
 48      0.0000      0.1274      0.0000      0.3649      0.3989      0.2404      0.5233      0.1808      0.0000
 49      0.0000      0.1291      0.2328      1.1271      0.4445      0.7025      0.6659      0.0000      0.3132
 50      0.0000      0.1036      0.4521      0.9373      0.5582      1.0239      0.0000      0.4247      0.0000
 51     23.0371    122.6091    107.6052    104.2822    108.1907    107.7249    111.5772    112.3568    108.5952
 52      0.0000      0.0998      0.2306      0.3421      0.0000      0.0000      0.0760      0.0377      0.0000
 53     10.2594      0.1069      0.4831      0.1399      0.8140      0.0000      0.0860      0.0000      0.1963
 54      0.0000      0.0995      0.2331      0.1544      0.1240      0.1029      0.0000      0.0952      0.7826
 55     11.5170      0.1222      0.1925      1.0429      0.8659      0.2031      0.0000      0.2612      0.3195
 56     18.2495      0.1168      0.8186      0.4569      0.5891      0.0209      0.5566      0.1405      0.0000
 57      0.0000      0.1239      1.2255      0.5286      0.1299      0.0767      0.0564      0.2741      0.3747
 58      0.0000      0.1139      0.0000      0.1830      0.0000      0.5810      0.3846      0.3133      0.1320
 59      0.0000      0.0992      0.2960      0.1722      0.0000      0.4825      0.3783      0.5329      0.0273
 60      0.0000      0.0933      0.0000      0.2334      0.0000      0.0707      0.2934      0.1609      1.0571
 61      0.0000      0.1157      0.0000      0.9381      0.4835      0.2176      0.0110      0.5555      0.4064
 62      0.0000      0.0844      0.7361      0.7738      0.0000      0.0000      0.1606      1.0340      0.0379
 63      0.0000      0.1214      0.3986      0.0000      0.2657      0.8658      0.1569      0.0000      0.1450
 64      0.0000      0.1340      0.4308      0.7307      0.5716      0.8763      0.0000      0.1424      0.0000
 65      0.0000      0.1362      0.7726      0.9744      0.0525      0.0651      0.9830      0.3199      1.1838
 66      5.2309      0.0924      0.2393      0.0995      0.3550      0.2913      0.0000      0.0000      0.0000

# j      m_j: min, <> & last-chain-values for 1 ...  7 chains
  1  0.0000E+00  2.5602E-02  3.2848E-02  1.5268E-02  9.9583E-03  3.3403E-03  0.0000E+00  2.0039E-02  4.7790E-03
  2  0.0000E+00  2.9537E-03  2.9510E-03  3.9262E-03  0.0000E+00  6.9808E-03  0.0000E+00  1.6248E-03  7.1899E-04
  3  0.0000E+00  7.0324E-03  1.5675E-02  3.8421E-03  2.0988E-03  4.8086E-03  1.0010E-03  1.1703E-02  1.0510E-03
  4  0.0000E+00  4.0989E-03  1.2002E-03  0.0000E+00  6.9286E-04  1.5109E-03  2.8875E-03  9.1224E-03  2.4039E-03
  5  0.0000E+00  8.3715E-03  1.4194E-02  0.0000E+00  9.2503E-03  5.0433E-03  5.5465E-04  1.0846E-03  2.3032E-03
  6  0.0000E+00  2.0898E-02  8.3880E-03  2.9356E-02  0.0000E+00  0.0000E+00  2.3141E-02  0.0000E+00  1.9009E-02
  7  0.0000E+00  1.2320E-02  0.0000E+00  7.0078E-03  0.0000E+00  2.4779E-03  0.0000E+00  1.1485E-02  0.0000E+00
  8  0.0000E+00  3.4117E-02  4.0363E-02  0.0000E+00  0.0000E+00  5.7173E-02  0.0000E+00  6.0071E-02  6.5672E-02
  9  0.0000E+00  4.4135E-02  2.7019E-02  9.6330E-02  5.8186E-02  0.0000E+00  1.1718E-02  4.1204E-02  0.0000E+00
 10  0.0000E+00  4.1303E-02  4.6040E-02  8.9398E-03  4.8983E-02  6.9916E-02  0.0000E+00  0.0000E+00  1.5004E-02
 11  0.0000E+00  7.1826E-02  0.0000E+00  0.0000E+00  0.0000E+00  0.0000E+00  2.7066E-02  2.7412E-01  1.5810E-02
 12  0.0000E+00  1.7673E-01  3.5679E-01  4.0869E-01  3.8875E-01  1.1659E-01  1.4034E-01  2.2350E-01  2.1650E-01
 13  0.0000E+00  4.6020E-01  2.3235E-01  5.1943E-01  1.3369E+00  0.0000E+00  1.1325E-01  0.0000E+00  8.6504E-01
 14  0.0000E+00  1.0791E+00  3.2981E+00  4.8486E-01  4.1687E+00  0.0000E+00  5.9656E-01  6.6902E+00  5.5740E-03
 15  1.8482E-01  2.2240E+00  1.5211E+00  4.4143E+00  6.9425E+00  1.0537E+00  1.2458E+00  5.8187E-01  1.8984E+00
 16  0.0000E+00  2.3022E+00  1.9984E+00  0.0000E+00  2.5379E+00  9.4851E-02  4.8478E+00  0.0000E+00  9.3119E-01
 17  0.0000E+00  4.7946E+00  2.9145E+00  0.0000E+00  7.5416E+00  2.4579E-01  6.3357E+00  5.8560E+00  9.5637E+00
 18  1.8724E-01  1.4976E-02  1.1274E-02  1.1330E-02  2.8861E-02  2.0636E-03  9.3410E-03  1.5728E-02  0.0000E+00
 19  0.0000E+00  5.1749E-03  4.9334E-03  5.9212E-03  4.4620E-03  7.2294E-03  4.3104E-03  2.7462E-03  4.0608E-03
 20  0.0000E+00  4.9772E-03  5.3271E-04  8.0907E-04  0.0000E+00  6.0115E-03  1.1386E-02  1.3455E-02  0.0000E+00
 21  0.0000E+00  4.8816E-03  4.7616E-03  0.0000E+00  4.1754E-03  2.0981E-03  4.8146E-03  4.2485E-03  4.7403E-03
 22  0.0000E+00  1.0298E-02  1.0213E-02  9.9159E-04  0.0000E+00  2.4911E-03  3.4813E-03  2.9728E-02  1.1183E-02
 23  0.0000E+00  1.6510E-02  4.7359E-02  4.3768E-02  9.9572E-03  1.6412E-02  6.7088E-03  1.4107E-03  0.0000E+00
 24  0.0000E+00  1.8109E-02  0.0000E+00  1.6635E-02  2.0359E-02  0.0000E+00  1.1279E-03  1.0501E-03  1.4349E-02
 25  0.0000E+00  2.4187E-02  6.9027E-02  1.9403E-02  2.3227E-02  3.5869E-02  0.0000E+00  0.0000E+00  1.0480E-03
 26  0.0000E+00  4.6365E-02  5.6010E-02  0.0000E+00  0.0000E+00  3.4088E-02  3.5827E-02  1.7268E-02  1.1108E-01
 27  0.0000E+00  1.1015E-01  2.0075E-01  0.0000E+00  8.8438E-02  1.0300E-01  1.9109E-02  8.1647E-02  0.0000E+00
 28  0.0000E+00  3.3993E-01  6.7349E-01  2.6614E-02  7.2094E-01  0.0000E+00  5.3996E-01  0.0000E+00  5.9296E-01
 29  0.0000E+00  6.2143E-01  3.4347E-01  0.0000E+00  0.0000E+00  2.1666E-01  1.3803E+00  2.3284E+00  1.3486E-01
 30  0.0000E+00  1.0303E+00  6.7810E-01  7.3757E-02  2.8055E+00  2.1355E-01  0.0000E+00  0.0000E+00  5.5289E-01
 31  0.0000E+00  1.3344E+00  4.7784E-01  3.3559E-01  1.6226E+00  1.6817E+00  4.2080E+00  5.8825E-01  1.0715E+00
 32  0.0000E+00  2.4848E+00  2.9727E+00  1.5172E+00  6.9186E-01  9.1370E-01  2.8971E+00  0.0000E+00  1.2966E+00
 33  3.5397E+01  6.3021E+00  6.3961E+00  5.9910E+00  5.2611E+00  1.6810E+01  1.3938E+01  1.3392E+01  1.4495E+01
 34  0.0000E+00  1.0593E+01  3.3245E+00  1.1940E+01  5.3431E+00  7.9206E+00  1.5622E+01  1.3067E+01  2.6165E+01
 35  0.0000E+00  8.6112E-03  4.8351E-04  8.1878E-03  0.0000E+00  1.0818E-02  3.0646E-03  6.5156E-03  3.2795E-04
 36  0.0000E+00  3.7954E-03  1.7113E-03  1.7005E-03  2.6481E-03  5.4508E-03  0.0000E+00  4.0278E-03  1.0539E-02
 37  0.0000E+00  5.8602E-03  1.2391E-03  6.5139E-03  1.4198E-02  1.0026E-02  1.2563E-02  1.5148E-03  2.8603E-03
 38  0.0000E+00  9.4561E-03  6.6830E-03  0.0000E+00  0.0000E+00  1.8687E-02  4.2494E-04  1.1068E-02  1.6190E-02
 39  0.0000E+00  1.8710E-02  7.6743E-03  1.2375E-02  0.0000E+00  2.4128E-02  0.0000E+00  6.2804E-02  3.2970E-03
 40  0.0000E+00  2.2106E-02  0.0000E+00  1.7799E-02  1.7184E-04  3.1778E-02  0.0000E+00  6.5428E-02  2.4982E-02
 41  0.0000E+00  3.9999E-02  5.5142E-02  3.1197E-02  0.0000E+00  4.5498E-02  4.9637E-02  6.2026E-02  6.8880E-02
 42  0.0000E+00  8.3391E-02  1.2114E-01  2.0086E-01  4.6577E-02  1.1956E-01  4.6207E-02  1.5391E-01  1.2681E-01
 43  0.0000E+00  7.8966E-02  0.0000E+00  0.0000E+00  8.8308E-02  1.1576E-01  0.0000E+00  0.0000E+00  0.0000E+00
 44  5.2078E-02  1.6302E-01  0.0000E+00  1.2031E-01  3.2156E-01  0.0000E+00  4.5618E-01  6.3986E-02  5.7245E-02
 45  0.0000E+00  4.0530E-01  0.0000E+00  0.0000E+00  3.1124E-01  0.0000E+00  3.2693E-03  6.3158E-01  7.4672E-01
 46  0.0000E+00  8.1461E-01  2.3978E+00  0.0000E+00  1.5902E+00  9.2175E-01  3.7923E-01  8.6682E-01  0.0000E+00
 47  0.0000E+00  1.2252E+00  1.2462E+00  4.9854E-01  8.4900E-01  3.3322E+00  1.6757E+00  3.9389E+00  0.0000E+00
 48  0.0000E+00  2.8150E+00  0.0000E+00  1.8482E+00  2.7945E+00  1.3986E+00  3.3434E+00  1.9917E+00  0.0000E+00
 49  0.0000E+00  6.4871E+00  3.9550E+00  1.2974E+01  7.0762E+00  9.2877E+00  9.6687E+00  0.0000E+00  4.2939E+00
 50  0.0000E+00  9.6363E+00  1.4228E+01  1.9984E+01  1.6458E+01  2.5072E+01  0.0000E+00  1.9698E+01  0.0000E+00
 51  9.8826E-02  6.2534E+00  1.8562E+00  1.2187E+00  1.7487E+00  1.4459E+00  1.6448E+00  2.8564E+00  1.5114E+00
 52  0.0000E+00  2.6075E-03  2.0386E-03  2.0491E-03  0.0000E+00  0.0000E+00  5.7446E-04  4.9116E-04  0.0000E+00
 53  3.3974E-02  4.2075E-03  6.4328E-03  1.2622E-03  1.0155E-02  0.0000E+00  9.7909E-04  0.0000E+00  2.1093E-03
 54  0.0000E+00  8.0232E-03  6.3612E-03  2.8543E-03  3.1699E-03  2.1844E-03  0.0000E+00  3.8265E-03  1.7228E-02
 55  1.2032E-01  1.5176E-02  8.0853E-03  2.9682E-02  3.4085E-02  6.6390E-03  0.0000E+00  1.6173E-02  1.0830E-02
 56  3.7737E-01  2.8726E-02  6.8065E-02  2.5738E-02  4.5893E-02  1.3504E-03  3.9553E-02  1.7222E-02  0.0000E+00
 57  0.0000E+00  4.0414E-02  1.3524E-01  3.9522E-02  1.3432E-02  6.5850E-03  5.3164E-03  4.4586E-02  3.3363E-02
 58  0.0000E+00  6.2886E-02  0.0000E+00  2.3141E-02  0.0000E+00  8.4389E-02  6.1349E-02  8.6202E-02  1.9874E-02
 59  0.0000E+00  1.1785E-01  1.1892E-01  4.6879E-02  0.0000E+00  1.5083E-01  1.2988E-01  3.1551E-01  8.8533E-03
 60  0.0000E+00  2.0594E-01  0.0000E+00  1.1800E-01  0.0000E+00  4.1048E-02  1.8708E-01  1.7688E-01  6.3643E-01
 61  0.0000E+00  5.5751E-01  0.0000E+00  1.0362E+00  7.3853E-01  2.7607E-01  1.5291E-02  1.3348E+00  5.3453E-01
 62  0.0000E+00  7.4147E-01  2.1880E+00  1.5583E+00  0.0000E+00  0.0000E+00  4.0803E-01  4.5300E+00  9.0861E-02
 63  0.0000E+00  2.1221E+00  2.3576E+00  0.0000E+00  1.4723E+00  3.9841E+00  7.9315E-01  0.0000E+00  6.9202E-01
 64  0.0000E+00  6.4820E+00  7.0475E+00  8.0983E+00  8.7612E+00  1.1154E+01  0.0000E+00  3.4321E+00  0.0000E+00
 65  0.0000E+00  1.3928E+01  2.6714E+01  2.2827E+01  1.7018E+00  1.7522E+00  2.9049E+01  1.6302E+01  3.3028E+01
 66  6.3548E+01  1.3342E+01  1.1689E+01  3.2935E+00  1.6248E+01  1.1074E+01  0.0000E+00  0.0000E+00  0.0000E+00

# AV, chi2 & Mass for <> & i_chain = 1 ...  7 solutions
AV       2.4844     -0.3337     -0.0596     -0.2060     -0.0737     -0.1634     -0.0931      0.0169     -0.1711
chi2 1.3675E-04  1.4937E-03  1.2950E-03  1.2997E-03  1.2729E-03  1.3018E-03  1.2877E-03  1.3012E-03  1.3137E-03
Mass 6.4977E-12  1.2411E-14  5.3031E-14  6.4298E-14  5.5534E-14  5.9284E-14  5.9319E-14  3.9873E-14  5.6584E-14
 180.87                                  [v0_min (km/s) before EX0s...]
 161.58                                  [vd_min (km/s) before EX0s...]


## Synthetic spectrum (Best Model) ##l_obs f_obs f_syn wei
 3478    [Nl_obs]
 3741.00    1.57585   0.78384    0.000
 3742.00    1.66446   0.80677    0.000
 3743.00    1.69514   0.82148    0.000
 3744.00    1.63496   0.82685    0.000
 3745.00    1.52183   0.82317   -1.000
 3746.00    1.51217   0.81154   -1.000
 3747.00    1.55505   0.79303   -1.000
 3748.00    1.55752   0.76875   -1.000
 3749.00    1.54223   0.74103   -1.000
 3750.00    1.60440   0.71412   -1.000
 3751.00    1.69582   0.69341   -1.000
 3752.00    1.72886   0.68427   -1.000
 3753.00    1.74318   0.69013   -1.000
 3754.00    1.76377   0.70990   -1.000
 3755.00    1.78604   0.73763   -1.000
 3756.00    1.76940   0.76588   -1.000
 3757.00    1.74421   0.78954   -1.000
 3758.00    1.75372   0.80668   -1.000
 3759.00    1.76929   0.81760   -1.000
 3760.00    1.76766   0.82400   -1.000
 3761.00    1.76375   0.82839   -1.000
 3762.00    1.69815   0.83244   -1.000
 3763.00    1.62676   0.83633   -1.000
 3764.00    1.61605   0.83882   -1.000
 3765.00    1.60885   0.83746   -1.000
 3766.00    1.61450   0.83034   -1.000
 3767.00    1.62061   0.81677   -1.000
 3768.00    1.64355   0.79648   -1.000
 3769.00    1.66339   0.77014   -1.000
 3770.00    1.60770   0.74095   -1.000
 3771.00    1.55283   0.71444   -1.000
 3772.00    1.50867   0.69645   -1.000
 3773.00    1.46166   0.69175   -1.000
 3774.00    1.38967   0.70269   -1.000
 3775.00    1.32543   0.72703   -1.000
 3776.00    1.31135   0.75840   -1.000
 3777.00    1.31442   0.79045   -1.000
 3778.00    1.40430   0.81954   -1.000
 3779.00    1.49632   0.84422   -1.000
 3780.00    1.59715   0.86414   -1.000
 3781.00    1.68222   0.87984   -1.000
 3782.00    1.71381   0.89200   -1.000
 3783.00    1.74028   0.90085   -1.000
 3784.00    1.75207   0.90615   -1.000
 3785.00    1.79193   0.90786   -1.000
 3786.00    1.90038   0.90638   -1.000
 3787.00    1.95491   0.90220   -1.000
 3788.00    1.89582   0.89582   -1.000
 3789.00    1.86682   0.88781   -1.000
 3790.00    1.89296   0.87856   -1.000
 3791.00    1.90149   0.86800   -1.000
 3792.00    1.88186   0.85546   -1.000
 3793.00    1.87978   0.83991   -1.000
 3794.00    1.90237   0.82022   -1.000
 3795.00    1.89818   0.79531   -1.000
 3796.00    1.86088   0.76462   -1.000
 3797.00    1.80988   0.72969   -1.000
 3798.00    1.74392   0.69550   -1.000
 3799.00    1.72816   0.66924   -1.000
 3800.00    1.76062   0.65774   -1.000
 3801.00    1.78228   0.66507   -1.000
 3802.00    1.79477   0.69030   -1.000
 3803.00    1.83225   0.72692   -1.000
 3804.00    1.88836   0.76587   -1.000
 3805.00    1.96649   0.80018   -1.000
 3806.00    2.05906   0.82697   -1.000
 3807.00    2.08835   0.84654   -1.000
 3808.00    2.08134   0.86078   -1.000
 3809.00    2.03912   0.87216   -1.000
 3810.00    1.97930   0.88266   -1.000
 3811.00    1.90984   0.89253   -1.000
 3812.00    1.83622   0.90032   -1.000
 3813.00    1.83980   0.90459   -1.000
 3814.00    1.87200   0.90499   -1.000
 3815.00    1.87497   0.90202   -1.000
 3816.00    1.86875   0.89639   -1.000
 3817.00    1.85218   0.88825   -1.000
 3818.00    1.83290   0.87704   -1.000
 3819.00    1.80363   0.86298   -1.000
 3820.00    1.77222   0.84802   -1.000
 3821.00    1.77186   0.83541   -1.000
 3822.00    1.77677   0.82870   -1.000
 3823.00    1.72079   0.83033   -1.000
 3824.00    1.65700   0.83929   -1.000
 3825.00    1.54785   0.85021   -1.000
 3826.00    1.43462   0.85720   -1.000
 3827.00    1.54802   0.85807   -1.000
 3828.00    1.67360   0.85361   -1.000
 3829.00    1.65135   0.84512   -1.000
 3830.00    1.62667   0.83281   -1.000
 3831.00    1.64737   0.81569   -1.000
 3832.00    1.67214   0.79244   -1.000
 3833.00    1.78766   0.76232   -1.000
 3834.00    1.89576   0.72641   -1.000
 3835.00    1.91148   0.68877   -1.000
 3836.00    1.92850   0.65594   -1.000
 3837.00    1.95645   0.63502   -1.000
 3838.00    1.97561   0.63122   -1.000
 3839.00    1.93953   0.64581   -1.000
 3840.00    1.90159   0.67522   -1.000
 3841.00    1.85446   0.71238   -1.000
 3842.00    1.81004   0.75052   -1.000
 3843.00    1.77642   0.78556   -1.000
 3844.00    1.75735   0.81553   -1.000
 3845.00    1.78665   0.83982   -1.000
 3846.00    1.81823   0.85863   -1.000
 3847.00    1.85624   0.87243    0.000
 3848.00    1.90544   0.88200    0.000
 3849.00    1.98152   0.88821    0.000
 3850.00    2.02934   0.89209    0.000
 3851.00    2.01856   0.89452    0.000
 3852.00    1.98518   0.89611    0.000
 3853.00    1.91101   0.89730    0.000
 3854.00    1.91112   0.89814    0.000
 3855.00    2.02838   0.89825    0.000
 3856.00    2.09565   0.89722    0.000
 3857.00    2.09373   0.89508    0.000
 3858.00    2.06955   0.89272    0.000
 3859.00    2.01824   0.89100    0.000
 3860.00    1.97030   0.89036    0.000
 3861.00    1.92597   0.89087    0.000
 3862.00    1.89944   0.89198    0.000
 3863.00    1.88978   0.89346    0.000
 3864.00    1.80944   0.89534    0.000
 3865.00    1.67005   0.89714    0.000
 3866.00    1.51451   0.89788    0.000
 3867.00    1.34709   0.89728    0.000
 3868.00    1.21781   0.89573    0.000
 3869.00    1.11315   0.89363    0.000
 3870.00    1.04720   0.89112    0.000
 3871.00    1.00314   0.88825    0.000
 3872.00    1.03372   0.88549    0.000
 3873.00    1.10103   0.88299    0.000
 3874.00    1.22857   0.88078    0.000
 3875.00    1.38173   0.87948    0.000
 3876.00    1.48353   0.87936    0.000
 3877.00    1.56662   0.87932    0.000
 3878.00    1.70853   0.87769    0.000
 3879.00    1.86856   0.87387    0.000
 3880.00    1.92113   0.86847    0.000
 3881.00    1.94611   0.86202   -1.000
 3882.00    1.95135   0.85410   -1.000
 3883.00    1.95246   0.84367   -1.000
 3884.00    2.01739   0.82941   -1.000
 3885.00    2.09284   0.80991   -1.000
 3886.00    2.07812   0.78429   -1.000
 3887.00    2.05222   0.75229   -1.000
 3888.00    1.95297   0.71549   -1.000
 3889.00    1.84744   0.67883   -1.000
 3890.00    1.86174   0.65011   -1.000
 3891.00    1.88201   0.63694   -1.000
 3892.00    1.83738   0.64334   -1.000
 3893.00    1.79325   0.66831   -1.000
 3894.00    1.85014   0.70581   -1.000
 3895.00    1.90571   0.74681   -1.000
 3896.00    1.93410   0.78411   -1.000
 3897.00    1.95286   0.81457   -1.000
 3898.00    1.85791   0.83805   -1.000
 3899.00    1.75883   0.85574   -1.000
 3900.00    1.62613   0.86919   -1.000
 3901.00    1.49398   0.87963   -1.000
 3902.00    1.36521   0.88797   -1.000
 3903.00    1.24055   0.89502   -1.000
 3904.00    1.13563   0.90105   -1.000
 3905.00    1.05159   0.90581   -1.000
 3906.00    1.04933   0.90929   -1.000
 3907.00    1.07770   0.91217   -1.000
 3908.00    1.20587   0.91549   -1.000
 3909.00    1.35724   0.91965   -1.000
 3910.00    1.57257   0.92452   -1.000
 3911.00    1.76508   0.92942   -1.000
 3912.00    1.90368   0.93340   -1.000
 3913.00    1.99942   0.93589   -1.000
 3914.00    2.00768   0.93705   -1.000
 3915.00    2.01228   0.93725   -1.000
 3916.00    2.01039   0.93654   -1.000
 3917.00    2.02045   0.93431   -1.000
 3918.00    2.04911   0.92964   -1.000
 3919.00    2.07255   0.92211   -1.000
 3920.00    2.08888   0.91231   -1.000
 3921.00    2.05146   0.90191   -1.000
 3922.00    1.94948   0.89282   -1.000
 3923.00    1.92700   0.88661   -1.000
 3924.00    1.98871   0.88363   -1.000
 3925.00    2.04498   0.88271   -1.000
 3926.00    2.09616   0.88207   -1.000
 3927.00    2.12104   0.88045   -1.000
 3928.00    2.12427   0.87789   -1.000
 3929.00    2.13692   0.87509   -1.000
 3930.00    2.15641   0.87237   -1.000
 3931.00    2.06641   0.86959   -1.000
 3932.00    1.90673   0.86597   -1.000
 3933.00    1.90039   0.86094   -1.000
 3934.00    1.97940   0.85512   -1.000
 3935.00    2.00926   0.85022   -1.000
 3936.00    2.01533   0.84831   -1.000
 3937.00    2.07442   0.85078   -1.000
 3938.00    2.15569   0.85777   -1.000
 3939.00    2.17303   0.86792   -1.000
 3940.00    2.16750   0.87891   -1.000
 3941.00    2.22469   0.88878   -1.000
 3942.00    2.30083   0.89635   -1.000
 3943.00    2.25186   0.90124   -1.000
 3944.00    2.17146   0.90386   -1.000
 3945.00    2.21322   0.90514   -1.000
 3946.00    2.27988   0.90615   -1.000
 3947.00    2.29343   0.90781   -1.000
 3948.00    2.29846   0.91056   -1.000
 3949.00    2.28702   0.91424   -1.000
 3950.00    2.27361   0.91820   -1.000
 3951.00    2.31871   0.92156   -1.000
 3952.00    2.36857   0.92382   -1.000
 3953.00    2.36993   0.92482   -1.000
 3954.00    2.36905   0.92439   -1.000
 3955.00    2.30230   0.92247   -1.000
 3956.00    2.23597   0.91946   -1.000
 3957.00    2.23535   0.91596   -1.000
 3958.00    2.23311   0.91209   -1.000
 3959.00    2.20014   0.90717   -1.000
 3960.00    2.17044   0.90006    0.000
 3961.00    2.17771   0.88973    0.000
 3962.00    2.19007   0.87548    0.000
 3963.00    2.24259   0.85703    0.000
 3964.00    2.27048   0.83481    0.000
 3965.00    2.15228   0.80956    0.000
 3966.00    2.05576   0.78138    0.000
 3967.00    2.06101   0.74970    0.000
 3968.00    2.08059   0.71385    0.000
 3969.00    2.15509   0.67518    0.000
 3970.00    2.22060   0.63827    0.000
 3971.00    2.25739   0.60968    0.000
 3972.00    2.29030   0.59618    0.000
 3973.00    2.31269   0.60228    0.000
 3974.00    2.33589   0.62772    0.000
 3975.00    2.36095   0.66731    0.000
 3976.00    2.37400   0.71314    0.000
 3977.00    2.36288   0.75789    0.000
 3978.00    2.31214   0.79724    0.000
 3979.00    2.19209   0.82992    0.000
 3980.00    2.17014   0.85607    0.000
 3981.00    2.29839   0.87631   -1.000
 3982.00    2.36218   0.89153   -1.000
 3983.00    2.33928   0.90272   -1.000
 3984.00    1.98231   0.91102    0.377
 3985.00    1.22971   0.91774    0.118
 3986.00    0.82870   0.92403    0.087
 3987.00    0.79483   0.93053    0.085
 3988.00    0.74278   0.93713    0.084
 3989.00    0.67400   0.94320    0.085
 3990.00    0.79160   0.94815    0.085
 3991.00    1.06052   0.95181    0.085
 3992.00    1.22175   0.95432    0.086
 3993.00    1.30604   0.95583    0.088
 3994.00    1.19626   0.95633    0.087
 3995.00    0.96479   0.95590    0.085
 3996.00    0.96143   0.95466    0.085
 3997.00    1.08307   0.95297    0.086
 3998.00    1.27028   0.95169    0.087
 3999.00    1.48872   0.95172    0.089
 4000.00    1.27826   0.95349    0.089
 4001.00    0.89152   0.95666    0.088
 4002.00    0.69387   0.96008    0.087
 4003.00    0.56263   0.96237    0.086
 4004.00    0.73743   0.96246    0.088
 4005.00    1.00291   0.95987    0.089
 4006.00    0.98781   0.95501    0.088
 4007.00    0.90379   0.94902    0.086
 4008.00    1.00309   0.94316    0.087
 4009.00    1.13885   0.93853    0.087
 4010.00    0.77647   0.93608    0.087
 4011.00    0.33668   0.93651    0.086
 4012.00    0.57077   0.93999    0.087
 4013.00    0.88234   0.94604    0.089
 4014.00    0.87641   0.95376    0.088
 4015.00    0.84594   0.96182    0.088
 4016.00    0.78958   0.96861    0.088
 4017.00    0.73214   0.97328    0.089
 4018.00    0.79152   0.97596    0.087
 4019.00    0.85672   0.97708    0.085
 4020.00    1.13016   0.97687    0.087
 4021.00    1.38902   0.97510    0.088
 4022.00    1.39070   0.97090    0.086
 4023.00    1.36472   0.96299    0.084
 4024.00    1.04119   0.95021    0.084
 4025.00    0.77377   0.93281    0.085
 4026.00    0.93224   0.91351    0.085
 4027.00    1.06825   0.89684    0.085
 4028.00    1.07476   0.88740    0.085
 4029.00    1.10249   0.88771    0.085
 4030.00    1.22745   0.89673    0.085
 4031.00    1.28465   0.91036    0.084
 4032.00    1.08768   0.92368    0.082
 4033.00    0.95113   0.93325    0.080
 4034.00    1.00401   0.93889    0.080
 4035.00    1.08212   0.94301    0.081
 4036.00    1.22731   0.94819    0.081
 4037.00    1.29627   0.95556    0.080
 4038.00    1.19118   0.96456    0.080
 4039.00    1.12598   0.97349    0.080
 4040.00    1.13965   0.98045    0.081
 4041.00    1.09840   0.98415    0.081
 4042.00    0.96256   0.98416    0.080
 4043.00    0.86716   0.98084    0.079
 4044.00    0.83275   0.97507    0.080
 4045.00    0.82039   0.96793    0.080
 4046.00    0.83725   0.96086    0.079
 4047.00    0.85103   0.95563    0.080
 4048.00    0.86121   0.95393    0.081
 4049.00    0.82993   0.95660    0.081
 4050.00    0.75597   0.96294    0.081
 4051.00    0.81454   0.97084    0.081
 4052.00    0.99346   0.97774    0.082
 4053.00    1.02887   0.98175    0.082
 4054.00    0.94940   0.98236    0.082
 4055.00    1.00000   0.98025    0.082
 4056.00    1.14218   0.97660    0.082
 4057.00    1.26541   0.97264    0.084
 4058.00    1.37694   0.96937    0.088
 4059.00    1.27958   0.96730    0.088
 4060.00    1.06953   0.96631    0.086
 4061.00    1.09449   0.96577    0.085
 4062.00    1.22960   0.96478    0.084
 4063.00    1.20909   0.96275    0.083
 4064.00    1.12570   0.95978    0.083
 4065.00    1.12093   0.95652    0.084
 4066.00    1.14325   0.95381    0.086
 4067.00    1.17292   0.95205    0.084
 4068.00    1.20472   0.95075    0.083
 4069.00    1.06783   0.94900    0.083
 4070.00    0.89043   0.94618    0.084
 4071.00    0.98972   0.94260    0.084
 4072.00    1.14262   0.93939    0.084
 4073.00    1.00114   0.93769    0.082
 4074.00    0.81531   0.93779    0.080
 4075.00    0.63727   0.93893    0.079
 4076.00    0.46009   0.93987    0.079
 4077.00    0.83292   0.93990    0.080
 4078.00    1.24603   0.93953    0.080
 4079.00    0.96221   0.94022    0.078
 4080.00    0.65170   0.94329    0.077
 4081.00    0.75626   0.94903    0.078
 4082.00    0.86251   0.95621    0.079
 4083.00    0.94542   0.96265    0.079
 4084.00    1.01040   0.96654    0.078
 4085.00    0.77979   0.96742    0.077
 4086.00    0.57194   0.96607    0.076
 4087.00    0.59821   0.96377    0.076
 4088.00    0.67465   0.96156    0.076
 4089.00    1.11920   0.95983    0.079
 4090.00    1.47859   0.95829    0.081
 4091.00    1.36018   0.95642    0.079
 4092.00    1.26852   0.95369    0.000
 4093.00    1.29658   0.94935    0.000
 4094.00    1.32836   0.94226    0.000
 4095.00    1.37380   0.93117    0.000
 4096.00    1.32236   0.91497    0.000
 4097.00    0.97298   0.89293    0.000
 4098.00    0.74755   0.86502    0.000
 4099.00    0.84611   0.83180    0.000
 4100.00    0.97515   0.79439    0.000
 4101.00    1.17265   0.75534    0.000
 4102.00    1.25267   0.71926    0.000
 4103.00    1.10407   0.69260    0.000
 4104.00    0.94616   0.68178    0.000
 4105.00    0.77245   0.69037    0.000
 4106.00    0.77192   0.71686    0.000
 4107.00    1.02882   0.75518    0.000
 4108.00    1.20929   0.79726    0.000
 4109.00    1.28992   0.83590    0.000
 4110.00    1.38374   0.86703    0.000
 4111.00    1.49274   0.89015    0.000
 4112.00    1.43805   0.90696    0.000
 4113.00    1.21719   0.91969    0.078
 4114.00    1.15693   0.93002    0.078
 4115.00    1.24046   0.93876    0.077
 4116.00    1.02225   0.94579    0.077
 4117.00    0.56597   0.95059    0.076
 4118.00    0.52475   0.95273    0.076
 4119.00    0.77156   0.95218    0.077
 4120.00    0.93519   0.94948    0.078
 4121.00    1.04821   0.94597    0.079
 4122.00    1.11487   0.94356    0.080
 4123.00    1.15690   0.94410    0.080
 4124.00    0.99368   0.94834    0.078
 4125.00    0.73581   0.95547    0.076
 4126.00    0.79135   0.96332    0.077
 4127.00    0.97135   0.96931    0.079
 4128.00    1.07061   0.97171    0.079
 4129.00    1.14255   0.97016    0.077
 4130.00    1.01986   0.96575    0.076
 4131.00    0.84180   0.96024    0.074
 4132.00    0.84361   0.95527    0.074
 4133.00    0.88765   0.95214    0.075
 4134.00    0.87052   0.95180    0.076
 4135.00    0.84185   0.95463    0.076
 4136.00    0.89422   0.96027    0.077
 4137.00    0.95842   0.96766    0.077
 4138.00    0.96493   0.97524    0.076
 4139.00    0.96531   0.98127    0.075
 4140.00    0.99016   0.98414    0.074
 4141.00    1.01671   0.98256    0.074
 4142.00    0.80113   0.97580    0.073
 4143.00    0.57719   0.96437    0.072
 4144.00    0.77799   0.95056    0.074
 4145.00    0.97788   0.93820    0.076
 4146.00    1.12012   0.93137    0.075
 4147.00    1.25109   0.93225    0.074
 4148.00    1.20800   0.93985    0.073
 4149.00    1.16335   0.95065    0.072
 4150.00    1.10333   0.96074    0.074
 4151.00    1.04711   0.96754    0.075
 4152.00    1.01788   0.97054    0.073
 4153.00    0.97077   0.97079    0.071
 4154.00    0.82606   0.96984    0.072
 4155.00    0.69310   0.96893    0.073
 4156.00    0.61148   0.96889    0.071
 4157.00    0.59788   0.97018    0.069
 4158.00    0.82893   0.97294    0.068
 4159.00    1.05707   0.97698    0.068
 4160.00    1.27642   0.98180    0.070
 4161.00    1.34953   0.98660    0.071
 4162.00    1.04710   0.99051    0.070
 4163.00    0.79779   0.99296    0.069
 4164.00    0.66583   0.99385    0.069
 4165.00    0.65729   0.99340    0.068
 4166.00    0.88518   0.99190    0.069
 4167.00    1.05384   0.98968    0.070
 4168.00    1.12350   0.98707    0.072
 4169.00    1.10174   0.98437    0.072
 4170.00    0.94607   0.98180    0.071
 4171.00    0.81621   0.97940    0.070
 4172.00    0.71957   0.97696    0.070
 4173.00    0.77939   0.97425    0.071
 4174.00    1.01677   0.97139    0.073
 4175.00    1.05496   0.96900    0.074
 4176.00    0.89379   0.96781    0.073
 4177.00    0.73775   0.96816    0.072
 4178.00    0.58621   0.96982    0.072
 4179.00    0.68705   0.97226    0.072
 4180.00    0.98418   0.97502    0.072
 4181.00    1.04435   0.97782    0.072
 4182.00    0.94249   0.98047    0.072
 4183.00    0.94362   0.98278    0.073
 4184.00    1.00648   0.98460    0.074
 4185.00    1.02746   0.98571    0.074
 4186.00    1.02653   0.98592    0.073
 4187.00    0.98553   0.98510    0.073
 4188.00    0.92634   0.98343    0.073
 4189.00    0.95712   0.98160    0.072
 4190.00    1.02300   0.98058    0.072
 4191.00    0.97247   0.98116    0.072
 4192.00    0.88329   0.98344    0.072
 4193.00    0.90784   0.98676    0.072
 4194.00    0.96409   0.98990    0.072
 4195.00    0.86118   0.99142    0.072
 4196.00    0.72176   0.98999    0.073
 4197.00    0.75523   0.98505    0.072
 4198.00    0.82048   0.97706    0.072
 4199.00    0.98740   0.96743    0.071
 4200.00    1.16870   0.95807    0.070
 4201.00    1.26754   0.95097    0.070
 4202.00    1.35798   0.94767    0.070
 4203.00    1.25788   0.94886    0.070
 4204.00    1.14536   0.95426    0.070
 4205.00    0.96914   0.96274    0.069
 4206.00    0.79122   0.97278    0.069
 4207.00    0.78244   0.98287    0.067
 4208.00    0.77942   0.99184    0.066
 4209.00    0.94563   0.99893    0.067
 4210.00    1.09179   1.00378    0.069
 4211.00    0.94626   1.00634    0.068
 4212.00    0.82343   1.00689    0.067
 4213.00    0.91522   1.00584    0.068
 4214.00    0.98353   1.00366    0.068
 4215.00    0.89041   1.00088    0.068
 4216.00    0.82133   0.99826    0.067
 4217.00    0.87996   0.99692    0.067
 4218.00    0.94613   0.99795    0.066
 4219.00    1.04445   1.00175    0.065
 4220.00    1.09981   1.00740    0.065
 4221.00    1.00385   1.01296    0.065
 4222.00    0.91228   1.01614    0.065
 4223.00    0.83373   1.01516    0.065
 4224.00    0.76601   1.00927    0.064
 4225.00    0.72561   0.99900    0.063
 4226.00    0.70114   0.98611    0.062
 4227.00    0.71131   0.97337    0.061
 4228.00    0.74449   0.96397    0.061
 4229.00    0.82108   0.96058    0.061
 4230.00    0.90719   0.96407    0.061
 4231.00    1.00899   0.97293    0.062
 4232.00    1.01387   0.98394    0.062
 4233.00    0.87885   0.99354    0.061
 4234.00    0.79724   0.99947    0.060
 4235.00    0.78345   1.00139    0.060
 4236.00    0.86371   1.00045    0.060
 4237.00    1.04920   0.99834    0.060
 4238.00    1.17538   0.99660    0.060
 4239.00    1.24304   0.99623    0.061
 4240.00    1.20890   0.99758    0.061
 4241.00    1.08618   1.00057    0.061
 4242.00    0.92596   1.00485    0.061
 4243.00    0.73700   1.00997    0.060
 4244.00    0.79995   1.01540    0.061
 4245.00    1.03266   1.02049    0.062
 4246.00    1.18660   1.02429    0.064
 4247.00    1.29404   1.02575    0.065
 4248.00    1.22464   1.02420    0.066
 4249.00    1.06421   1.01986    0.066
 4250.00    1.04881   1.01379    0.066
 4251.00    1.09812   1.00745    0.067
 4252.00    1.13345   1.00208    0.068
 4253.00    1.16343   0.99831    0.068
 4254.00    1.09662   0.99619    0.067
 4255.00    0.99827   0.99553    0.066
 4256.00    1.13504   0.99621    0.066
 4257.00    1.33598   0.99810    0.066
 4258.00    1.15302   1.00072    0.066
 4259.00    0.88403   1.00305    0.065
 4260.00    0.91368   1.00416    0.066
 4261.00    0.99674   1.00404    0.068
 4262.00    1.15175   1.00389    0.068
 4263.00    1.31660   1.00528    0.069
 4264.00    1.24032   1.00883    0.067
 4265.00    1.14049   1.01344    0.065
 4266.00    0.94076   1.01687    0.065
 4267.00    0.73492   1.01698    0.065
 4268.00    0.82392   1.01311    0.065
 4269.00    0.92081   1.00631    0.066
 4270.00    1.00437   0.99847    0.065
 4271.00    1.08640   0.99115    0.065
 4272.00    1.12799   0.98494    0.065
 4273.00    1.15804   0.97996    0.066
 4274.00    1.02938   0.97655    0.065
 4275.00    0.92230   0.97535    0.065
 4276.00    1.01131   0.97707    0.067
 4277.00    1.03618   0.98195    0.068
 4278.00    0.63386   0.98944    0.067
 4279.00    0.36571   0.99821    0.066
 4280.00    0.79219   1.00641    0.066
 4281.00    1.15636   1.01237    0.067
 4282.00    1.26041   1.01531   -2.000
 4283.00    1.34523   1.01553   -2.000
 4284.00    1.36363   1.01409   -2.000
 4285.00    1.34278   1.01203   -2.000
 4286.00    1.20781   1.00989   -2.000
 4287.00    1.06421   1.00762   -2.000
 4288.00    0.89921   1.00491   -2.000
 4289.00    0.73160   1.00149   -2.000
 4290.00    0.55843   0.99753   -2.000
 4291.00    0.49320   0.99380   -2.000
 4292.00    0.62837   0.99151   -2.000
 4293.00    0.77431   0.99159   -2.000
 4294.00    0.93774   0.99395   -2.000
 4295.00    1.05023   0.99733   -2.000
 4296.00    1.09023   1.00001   -2.000
 4297.00    1.03851   1.00057   -2.000
 4298.00    0.87198   0.99837    0.063
 4299.00    0.72761   0.99347    0.062
 4300.00    0.60766   0.98653    0.062
 4301.00    0.67638   0.97868    0.061
 4302.00    0.92864   0.97132    0.061
 4303.00    1.02914   0.96559    0.061
 4304.00    0.99943   0.96195    0.060
 4305.00    0.98809   0.96004    0.061
 4306.00    0.99062   0.95901    0.061
 4307.00    0.95516   0.95797    0.061
 4308.00    0.89445   0.95646    0.061
 4309.00    0.83729   0.95477    0.061
 4310.00    0.78220   0.95391    0.060
 4311.00    0.82160   0.95515    0.060
 4312.00    0.90890   0.95938    0.060
 4313.00    0.99810   0.96671    0.060
 4314.00    1.08815   0.97663    0.059
 4315.00    1.08971   0.98847    0.059
 4316.00    1.05793   1.00167    0.059
 4317.00    1.03270   1.01558    0.059
 4318.00    1.00957   1.02908    0.058
 4319.00    1.07176   1.04056    0.059
 4320.00    1.15675   1.04842    0.060
 4321.00    1.12989   1.05164    0.060
 4322.00    1.07855   1.04999    0.060
 4323.00    0.94030   1.04372    0.060
 4324.00    0.78693   1.03347    0.060
 4325.00    0.72175   1.02046    0.059
 4326.00    0.66824   1.00692    0.058
 4327.00    0.69993   0.99591    0.058
 4328.00    0.73958   0.99027    0.058
 4329.00    0.95012   0.99105    0.059
 4330.00    1.17044   0.99673    0.000
 4331.00    1.10419   1.00390    0.000
 4332.00    1.03110   1.00907    0.000
 4333.00    0.93752   1.00997    0.000
 4334.00    0.85068   1.00570    0.000
 4335.00    0.92554   0.99583    0.000
 4336.00    0.99635   0.97935    0.000
 4337.00    1.01432   0.95463    0.000
 4338.00    1.02432   0.92055    0.000
 4339.00    0.96473   0.87825    0.000
 4340.00    0.91120   0.83230    0.000
 4341.00    0.89684   0.79052    0.000
 4342.00    0.89684   0.76176    0.000
 4343.00    0.96934   0.75263    0.000
 4344.00    0.99850   0.76481    0.000
 4345.00    0.85080   0.79445    0.000
 4346.00    0.76423   0.83408    0.000
 4347.00    0.88451   0.87586    0.000
 4348.00    0.93310   0.91395    0.000
 4349.00    0.77716   0.94521    0.000
 4350.00    0.65390   0.96857    0.000
 4351.00    0.61035   0.98421    0.059
 4352.00    0.62138   0.99327    0.059
 4353.00    0.74725   0.99804    0.061
 4354.00    0.80418   1.00158    0.061
 4355.00    0.73509   1.00670    0.061
 4356.00    0.72775   1.01472    0.060
 4357.00    0.81909   1.02503    0.060
 4358.00    0.93742   1.03578    0.060
 4359.00    1.09361   1.04506    0.061
 4360.00    1.09118   1.05204    0.062
 4361.00    0.89306   1.05718    0.061
 4362.00    0.81792   1.06165    0.061
 4363.00    0.87652   1.06646    0.061
 4364.00    0.92813   1.07175    0.061
 4365.00    0.97302   1.07680    0.060
 4366.00    0.96161   1.08039    0.061
 4367.00    0.90259   1.08150    0.062
 4368.00    0.83227   1.07987    0.062
 4369.00    0.75354   1.07619    0.061
 4370.00    0.69915   1.07174    0.060
 4371.00    0.66069   1.06768    0.060
 4372.00    0.65678   1.06441    0.060
 4373.00    0.67266   1.06148    0.060
 4374.00    0.68488   1.05827    0.060
 4375.00    0.69526   1.05469    0.060
 4376.00    0.73002   1.05157    0.060
 4377.00    0.77529   1.05025    0.061
 4378.00    0.84062   1.05163    0.061
 4379.00    0.91338   1.05524    0.062
 4380.00    0.92197   1.05913    0.062
 4381.00    0.91045   1.06059    0.062
 4382.00    0.87772   1.05732    0.061
 4383.00    0.83945   1.04846    0.060
 4384.00    0.83797   1.03509    0.059
 4385.00    0.84435   1.01999    0.059
 4386.00    0.98641   1.00660    0.060
 4387.00    1.15143   0.99758    0.062
 4388.00    1.11561   0.99391    0.061
 4389.00    1.05415   0.99509    0.060
 4390.00    0.86653   1.00005    0.058
 4391.00    0.66766   1.00798    0.057
 4392.00    0.76257   1.01819    0.058
 4393.00    0.87314   1.02972    0.059
 4394.00    0.92254   1.04123    0.058
 4395.00    0.97062   1.05148    0.058
 4396.00    1.00814   1.05995    0.058
 4397.00    1.03978   1.06696    0.059
 4398.00    0.94232   1.07302    0.058
 4399.00    0.85773   1.07809    0.058
 4400.00    0.93225   1.08152    0.059
 4401.00    0.99703   1.08254    0.060
 4402.00    0.97984   1.08093    0.060
 4403.00    0.97088   1.07707    0.059
 4404.00    1.01344   1.07149    0.059
 4405.00    1.04267   1.06484    0.059
 4406.00    1.00628   1.05804    0.060
 4407.00    0.98135   1.05259    0.060
 4408.00    1.00216   1.05016    0.060
 4409.00    1.03272   1.05180    0.060
 4410.00    1.09561   1.05746    0.058
 4411.00    1.13170   1.06592    0.057
 4412.00    1.09269   1.07521    0.057
 4413.00    1.06131   1.08296    0.057
 4414.00    1.04819   1.08707    0.057
 4415.00    1.02679   1.08650    0.057
 4416.00    0.98827   1.08208    0.057
 4417.00    0.94468   1.07638    0.057
 4418.00    0.89199   1.07270    0.057
 4419.00    0.90468   1.07329    0.057
 4420.00    1.02030   1.07824    0.056
 4421.00    1.12202   1.08554    0.056
 4422.00    1.20455   1.09240    0.055
 4423.00    1.20081   1.09680    0.055
 4424.00    1.09214   1.09830    0.055
 4425.00    0.96467   1.09783    0.056
 4426.00    0.81705   1.09673    0.056
 4427.00    0.76822   1.09593    0.056
 4428.00    0.81281   1.09563    0.056
 4429.00    0.88849   1.09559    0.056
 4430.00    0.99010   1.09540    0.056
 4431.00    1.02777   1.09473    0.057
 4432.00    1.01851   1.09339    0.056
 4433.00    1.05941   1.09130    0.056
 4434.00    1.13266   1.08844    0.055
 4435.00    1.08358   1.08508    0.055
 4436.00    0.96549   1.08199    0.056
 4437.00    0.92755   1.08045    0.057
 4438.00    0.92894   1.08173    0.057
 4439.00    1.00829   1.08613    0.057
 4440.00    1.12072   1.09242    0.058
 4441.00    1.06186   1.09828    0.056
 4442.00    0.94074   1.10156    0.054
 4443.00    0.93727   1.10169    0.054
 4444.00    0.96998   1.10004    0.054
 4445.00    1.01353   1.09902    0.055
 4446.00    1.05986   1.10050    0.056
 4447.00    1.03108   1.10478    0.055
 4448.00    0.98664   1.11062    0.055
 4449.00    1.04185   1.11626    0.054
 4450.00    1.11343   1.12032    0.054
 4451.00    1.07510   1.12225    0.054
 4452.00    1.02323   1.12200    0.055
 4453.00    1.02144   1.11967    0.054
 4454.00    1.02391   1.11537    0.053
 4455.00    1.06929   1.10941    0.054
 4456.00    1.11680   1.10253    0.055
 4457.00    1.10266   1.09582    0.054
 4458.00    1.08749   1.09033    0.053
 4459.00    1.06981   1.08658    0.053
 4460.00    1.05136   1.08440    0.053
 4461.00    1.01747   1.08327    0.000
 4462.00    0.98285   1.08298    0.000
 4463.00    0.93956   1.08372    0.000
 4464.00    0.90794   1.08589    0.000
 4465.00    0.97107   1.08940    0.000
 4466.00    1.03527   1.09332    0.000
 4467.00    1.10606   1.09599    0.000
 4468.00    1.13726   1.09568    0.000
 4469.00    0.97850   1.09121    0.000
 4470.00    0.85775   1.08257    0.000
 4471.00    0.88547   1.07132    0.000
 4472.00    0.92552   1.06062    0.000
 4473.00    1.00573   1.05449    0.000
 4474.00    1.07442   1.05628    0.000
 4475.00    1.11143   1.06693    0.000
 4476.00    1.10618   1.08425    0.000
 4477.00    1.00136   1.10384    0.000
 4478.00    0.95691   1.12085    0.000
 4479.00    1.03541   1.13165    0.000
 4480.00    1.10313   1.13468    0.000
 4481.00    1.15172   1.13081    0.000
 4482.00    1.15881   1.12314    0.052
 4483.00    1.10153   1.11607    0.052
 4484.00    1.03098   1.11362    0.052
 4485.00    0.94235   1.11755    0.051
 4486.00    0.84226   1.12659    0.051
 4487.00    0.72841   1.13720    0.051
 4488.00    0.70001   1.14556    0.051
 4489.00    0.76193   1.14933    0.051
 4490.00    0.83395   1.14854    0.051
 4491.00    0.91539   1.14505    0.051
 4492.00    1.00216   1.14125    0.052
 4493.00    1.09333   1.13870    0.052
 4494.00    1.21485   1.13753    0.053
 4495.00    1.35832   1.13696    0.053
 4496.00    1.34016   1.13640    0.053
 4497.00    1.21934   1.13611    0.053
 4498.00    1.12210   1.13708    0.052
 4499.00    1.03795   1.14009    0.052
 4500.00    1.01273   1.14505    0.052
 4501.00    1.01599   1.15112    0.053
 4502.00    1.01604   1.15743    0.053
 4503.00    1.01477   1.16370    0.052
 4504.00    1.12280   1.17012    0.052
 4505.00    1.26985   1.17673    0.051
 4506.00    1.20322   1.18286    0.052
 4507.00    1.07215   1.18742    0.052
 4508.00    1.06513   1.18955    0.052
 4509.00    1.08918   1.18928    0.051
 4510.00    1.15778   1.18732    0.051
 4511.00    1.23543   1.18452    0.052
 4512.00    1.08083   1.18121    0.052
 4513.00    0.88917   1.17730    0.051
 4514.00    0.98560   1.17265    0.051
 4515.00    1.11627   1.16761    0.051
 4516.00    1.05306   1.16301    0.051
 4517.00    0.97417   1.15981    0.052
 4518.00    1.02198   1.15866    0.051
 4519.00    1.07555   1.15961    0.051
 4520.00    1.06557   1.16220    0.051
 4521.00    1.05465   1.16554    0.051
 4522.00    1.03572   1.16844    0.051
 4523.00    1.01856   1.16963    0.051
 4524.00    1.03470   1.16810    0.050
 4525.00    1.05116   1.16351    0.050
 4526.00    1.07124   1.15624    0.051
 4527.00    1.09635   1.14720    0.051
 4528.00    1.16079   1.13748    0.051
 4529.00    1.21486   1.12829    0.051
 4530.00    1.20767   1.12087    0.051
 4531.00    1.19723   1.11629    0.051
 4532.00    1.17159   1.11500    0.051
 4533.00    1.14209   1.11652    0.051
 4534.00    1.09783   1.11968    0.052
 4535.00    1.05704   1.12335    0.053
 4536.00    1.02724   1.12714    0.053
 4537.00    1.01598   1.13146    0.052
 4538.00    1.05478   1.13664    0.052
 4539.00    1.09130   1.14204    0.052
 4540.00    1.12253   1.14605    0.052
 4541.00    1.11729   1.14717    0.052
 4542.00    1.03891   1.14523    0.052
 4543.00    1.00168   1.14181    0.052
 4544.00    1.03629   1.13924    0.052
 4545.00    1.05308   1.13918    0.052
 4546.00    1.04264   1.14175    0.052
 4547.00    1.05645   1.14578    0.053
 4548.00    1.10281   1.14976    0.052
 4549.00    1.10904   1.15251    0.052
 4550.00    1.06783   1.15362    0.000
 4551.00    1.07997   1.15330    0.000
 4552.00    1.14770   1.15210    0.000
 4553.00    1.21204   1.15063    0.000
 4554.00    1.27325   1.14948    0.000
 4555.00    1.21000   1.14932    0.000
 4556.00    1.04587   1.15098    0.000
 4557.00    1.02952   1.15522    0.000
 4558.00    1.11855   1.16224    0.000
 4559.00    1.16196   1.17132    0.000
 4560.00    1.17683   1.18093    0.000
 4561.00    1.20574   1.18927    0.000
 4562.00    1.24234   1.19491    0.000
 4563.00    1.13629   1.19714    0.000
 4564.00    0.96243   1.19613    0.000
 4565.00    0.93486   1.19286    0.000
 4566.00    0.96729   1.18887    0.000
 4567.00    1.09800   1.18585    0.000
 4568.00    1.26315   1.18494    0.000
 4569.00    1.30226   1.18619    0.000
 4570.00    1.30412   1.18868    0.000
 4571.00    1.21666   1.19109    0.000
 4572.00    1.10731   1.19261    0.000
 4573.00    1.09159   1.19333    0.000
 4574.00    1.09443   1.19400    0.000
 4575.00    1.09762   1.19527    0.000
 4576.00    1.10086   1.19714    0.000
 4577.00    1.06782   1.19889    0.000
 4578.00    1.03063   1.19952    0.000
 4579.00    1.00087   1.19827    0.000
 4580.00    0.97168   1.19497    0.000
 4581.00    1.02984   1.19021    0.000
 4582.00    1.09163   1.18509    0.000
 4583.00    1.02735   1.18081    0.000
 4584.00    0.96595   1.17819    0.000
 4585.00    1.07536   1.17740    0.000
 4586.00    1.17402   1.17820    0.000
 4587.00    1.08469   1.18025    0.000
 4588.00    1.01039   1.18333    0.000
 4589.00    1.09694   1.18713    0.000
 4590.00    1.16885   1.19093    0.000
 4591.00    1.13017   1.19372    0.000
 4592.00    1.09032   1.19459    0.000
 4593.00    1.04380   1.19326    0.000
 4594.00    1.00805   1.19032    0.000
 4595.00    1.02149   1.18680    0.000
 4596.00    1.02131   1.18376    0.000
 4597.00    0.97019   1.18187    0.000
 4598.00    0.94324   1.18136    0.000
 4599.00    0.99183   1.18206    0.000
 4600.00    1.04248   1.18351    0.000
 4601.00    1.09859   1.18508    0.000
 4602.00    1.17175   1.18635    0.000
 4603.00    1.28374   1.18727    0.000
 4604.00    1.35823   1.18820    0.000
 4605.00    1.35873   1.18965    0.000
 4606.00    1.30186   1.19207    0.000
 4607.00    1.14634   1.19576    0.000
 4608.00    1.03815   1.20083    0.000
 4609.00    1.00126   1.20709    0.000
 4610.00    0.98898   1.21384    0.000
 4611.00    1.00927   1.21997    0.000
 4612.00    1.08400   1.22439    0.000
 4613.00    1.22217   1.22661    0.000
 4614.00    1.27482   1.22706    0.000
 4615.00    1.23958   1.22674    0.000
 4616.00    1.19200   1.22659    0.000
 4617.00    1.13324   1.22698    0.000
 4618.00    1.14323   1.22759    0.000
 4619.00    1.20816   1.22788    0.000
 4620.00    1.24049   1.22759    0.000
 4621.00    1.24991   1.22706    0.000
 4622.00    1.17040   1.22699    0.000
 4623.00    1.03605   1.22791    0.000
 4624.00    1.02732   1.22979    0.000
 4625.00    1.08624   1.23202    0.000
 4626.00    1.15512   1.23380    0.000
 4627.00    1.22866   1.23451    0.000
 4628.00    1.18396   1.23397    0.000
 4629.00    1.09160   1.23236    0.000
 4630.00    1.10518   1.23009    0.000
 4631.00    1.15519   1.22762    0.000
 4632.00    1.14360   1.22538    0.000
 4633.00    1.11416   1.22357    0.000
 4634.00    1.17103   1.22212    0.000
 4635.00    1.24856   1.22069    0.000
 4636.00    1.17988   1.21889    0.000
 4637.00    1.08297   1.21643    0.000
 4638.00    1.08352   1.21322    0.000
 4639.00    1.09870   1.20943    0.000
 4640.00    1.04706   1.20555    0.000
 4641.00    0.98807   1.20230    0.000
 4642.00    1.11477   1.20032    0.000
 4643.00    1.25498   1.19969    0.000
 4644.00    1.13672   1.19969    0.000
 4645.00    1.00868   1.19891    0.000
 4646.00    1.10456   1.19596    0.000
 4647.00    1.19473   1.19021    0.000
 4648.00    1.03149   1.18240    0.000
 4649.00    0.88715   1.17450    0.000
 4650.00    1.05189   1.16894    0.000
 4651.00    1.19943   1.16754    0.000
 4652.00    1.17095   1.17073    0.000
 4653.00    1.14610   1.17745    0.000
 4654.00    1.14781   1.18574    0.000
 4655.00    1.15056   1.19371    0.000
 4656.00    1.15918   1.20039    0.000
 4657.00    1.16322   1.20607    0.000
 4658.00    1.14679   1.21191    0.000
 4659.00    1.15111   1.21895    0.000
 4660.00    1.23144   1.22714    0.000
 4661.00    1.25046   1.23506    0.000
 4662.00    1.08136   1.24056    0.000
 4663.00    0.98098   1.24186    0.000
 4664.00    1.05983   1.23838    0.000
 4665.00    1.11491   1.23082    0.000
 4666.00    1.11674   1.22063    0.000
 4667.00    1.12944   1.20946    0.000
 4668.00    1.16327   1.19897    0.000
 4669.00    1.16992   1.19091    0.000
 4670.00    1.13056   1.18692    0.000
 4671.00    1.13800   1.18791    0.000
 4672.00    1.21487   1.19339    0.000
 4673.00    1.22290   1.20153    0.000
 4674.00    1.14116   1.20996    0.000
 4675.00    1.07747   1.21691    0.000
 4676.00    1.03452   1.22178    0.000
 4677.00    1.08008   1.22488    0.000
 4678.00    1.21531   1.22664    0.000
 4679.00    1.23146   1.22716    0.000
 4680.00    1.14118   1.22619    0.000
 4681.00    1.12926   1.22362    0.000
 4682.00    1.17908   1.21971    0.000
 4683.00    1.16093   1.21503    0.000
 4684.00    1.09572   1.21010    0.000
 4685.00    1.04404   1.20523    0.000
 4686.00    1.00059   1.20072    0.000
 4687.00    1.00259   1.19719    0.000
 4688.00    1.02869   1.19562    0.000
 4689.00    1.11690   1.19690    0.000
 4690.00    1.23369   1.20120    0.000
 4691.00    1.14808   1.20776    0.000
 4692.00    0.98229   1.21529    0.000
 4693.00    1.00018   1.22263    0.000
 4694.00    1.08009   1.22925    0.000
 4695.00    1.08753   1.23502    0.000
 4696.00    1.07441   1.23980    0.000
 4697.00    1.06814   1.24308    0.000
 4698.00    1.06348   1.24409    0.000
 4699.00    1.11118   1.24232    0.000
 4700.00    1.16874   1.23800    0.000
 4701.00    1.19281   1.23220    0.000
 4702.00    1.21201   1.22638    0.000
 4703.00    1.17368   1.22180    0.000
 4704.00    1.12928   1.21904    0.000
 4705.00    1.09595   1.21810    0.000
 4706.00    1.06339   1.21851    0.000
 4707.00    1.05219   1.21966    0.000
 4708.00    1.04172   1.22094    0.000
 4709.00    1.12632   1.22197    0.000
 4710.00    1.20560   1.22265    0.000
 4711.00    1.10669   1.22306    0.000
 4712.00    1.01799   1.22321    0.000
 4713.00    1.08613   1.22295    0.000
 4714.00    1.14498   1.22228    0.000
 4715.00    1.11279   1.22176    0.000
 4716.00    1.08538   1.22268    0.000
 4717.00    1.09173   1.22647    0.000
 4718.00    1.10705   1.23382    0.000
 4719.00    1.17119   1.24416    0.000
 4720.00    1.19713   1.25583    0.000
 4721.00    1.05664   1.26684    0.000
 4722.00    0.98062   1.27567    0.000
 4723.00    1.13589   1.28161    0.000
 4724.00    1.23417   1.28476    0.000
 4725.00    1.16087   1.28553    0.000
 4726.00    1.10582   1.28416    0.000
 4727.00    1.09753   1.28055    0.000
 4728.00    1.09644   1.27450    0.000
 4729.00    1.11121   1.26632    0.000
 4730.00    1.12333   1.25726    0.000
 4731.00    1.13037   1.24925    0.000
 4732.00    1.10367   1.24409    0.000
 4733.00    1.02070   1.24273    0.000
 4734.00    0.98550   1.24484    0.000
 4735.00    1.02015   1.24918    0.000
 4736.00    1.09525   1.25423    0.000
 4737.00    1.22236   1.25886    0.000
 4738.00    1.27219   1.26257    0.000
 4739.00    1.23449   1.26550    0.000
 4740.00    1.23493   1.26801    0.000
 4741.00    1.27349   1.27038    0.000
 4742.00    1.29146   1.27267    0.000
 4743.00    1.29128   1.27488    0.000
 4744.00    1.22602   1.27714    0.000
 4745.00    1.11023   1.27964    0.000
 4746.00    1.11961   1.28253    0.000
 4747.00    1.21444   1.28575    0.000
 4748.00    1.25404   1.28907    0.000
 4749.00    1.26060   1.29214    0.000
 4750.00    1.21321   1.29452    0.000
 4751.00    1.13766   1.29580    0.000
 4752.00    1.08353   1.29568    0.000
 4753.00    1.03909   1.29411    0.000
 4754.00    1.05090   1.29131    0.000
 4755.00    1.08460   1.28783    0.000
 4756.00    1.10354   1.28435    0.000
 4757.00    1.11759   1.28156    0.000
 4758.00    1.11898   1.27982    0.000
 4759.00    1.11685   1.27911    0.000
 4760.00    1.15593   1.27890    0.000
 4761.00    1.20444   1.27838    0.044
 4762.00    1.18558   1.27664    0.043
 4763.00    1.15437   1.27309    0.042
 4764.00    1.10217   1.26774    0.043
 4765.00    1.04701   1.26137    0.043
 4766.00    1.07808   1.25527    0.043
 4767.00    1.11791   1.25087    0.042
 4768.00    1.17126   1.24926    0.042
 4769.00    1.22549   1.25088    0.041
 4770.00    1.20704   1.25533    0.042
 4771.00    1.18647   1.26152    0.043
 4772.00    1.20320   1.26808    0.043
 4773.00    1.22005   1.27404    0.043
 4774.00    1.24042   1.27911    0.043
 4775.00    1.25976   1.28361    0.042
 4776.00    1.26407   1.28800    0.042
 4777.00    1.26346   1.29233    0.042
 4778.00    1.21649   1.29616    0.042
 4779.00    1.16821   1.29882    0.042
 4780.00    1.11094   1.29978    0.042
 4781.00    1.05975   1.29885    0.041
 4782.00    1.04073   1.29623    0.041
 4783.00    1.02875   1.29242    0.042
 4784.00    1.04676   1.28803    0.041
 4785.00    1.06260   1.28361    0.040
 4786.00    1.07084   1.27969    0.041
 4787.00    1.07688   1.27661    0.041
 4788.00    1.07646   1.27453    0.041
 4789.00    1.07781   1.27353    0.041
 4790.00    1.08362   1.27377    0.041
 4791.00    1.09623   1.27542    0.041
 4792.00    1.12363   1.27870    0.041
 4793.00    1.14897   1.28377    0.041
 4794.00    1.17043   1.29051    0.041
 4795.00    1.19046   1.29824    0.041
 4796.00    1.20814   1.30579    0.041
 4797.00    1.17834   1.31171    0.041
 4798.00    1.08015   1.31478    0.041
 4799.00    1.01340   1.31460    0.041
 4800.00    0.98651   1.31192    0.041
 4801.00    1.00547   1.30825    0.041
 4802.00    1.07566   1.30529    0.041
 4803.00    1.15713   1.30403    0.041
 4804.00    1.24972   1.30432    0.041
 4805.00    1.27383   1.30507    0.041
 4806.00    1.23844   1.30506    0.041
 4807.00    1.21386   1.30360    0.040
 4808.00    1.19753   1.30088    0.040
 4809.00    1.15994   1.29782    0.040
 4810.00    1.10805   1.29552    0.040
 4811.00    1.07743   1.29467    0.040
 4812.00    1.05933   1.29535    0.040
 4813.00    1.11612   1.29712    0.040
 4814.00    1.21138   1.29947    0.041
 4815.00    1.23029   1.30209    0.041
 4816.00    1.21521   1.30495    0.042
 4817.00    1.20916   1.30821    0.042
 4818.00    1.20656   1.31197    0.043
 4819.00    1.26258   1.31598    0.042
 4820.00    1.33767   1.31954    0.041
 4821.00    1.33092   1.32179    0.041
 4822.00    1.30189   1.32199    0.041
 4823.00    1.24527   1.31981    0.041
 4824.00    1.18248   1.31568    0.041
 4825.00    1.13206   1.31065    0.041
 4826.00    1.08384   1.30610    0.041
 4827.00    1.09385   1.30305    0.041
 4828.00    1.11179   1.30180    0.040
 4829.00    1.10896   1.30192    0.041
 4830.00    1.10411   1.30245    0.041
 4831.00    1.08214   1.30244    0.041
 4832.00    1.05914   1.30170    0.041
 4833.00    1.13684   1.30079    0.041
 4834.00    1.21664   1.30046    0.040
 4835.00    1.19313   1.30115    0.041
 4836.00    1.17084   1.30271    0.041
 4837.00    1.18015   1.30468    0.042
 4838.00    1.18272   1.30636    0.041
 4839.00    1.09315   1.30681    0.041
 4840.00    1.01813   1.30549    0.040
 4841.00    1.07452   1.30270    0.040
 4842.00    1.12564   1.29925    0.040
 4843.00    1.14172   1.29599    0.041
 4844.00    1.15076   1.29366    0.041
 4845.00    1.12352   1.29267    0.041
 4846.00    1.11329   1.29271    0.041
 4847.00    1.17387   1.29293    0.041
 4848.00    1.20983   1.29240    0.000
 4849.00    1.16102   1.29044    0.000
 4850.00    1.13339   1.28661    0.000
 4851.00    1.16714   1.28090    0.000
 4852.00    1.18532   1.27368    0.000
 4853.00    1.16499   1.26505    0.000
 4854.00    1.14323   1.25434    0.000
 4855.00    1.11844   1.24023    0.000
 4856.00    1.12790   1.22150    0.000
 4857.00    1.20085   1.19761    0.000
 4858.00    1.24187   1.16837    0.000
 4859.00    1.23123   1.13395    0.000
 4860.00    1.22707   1.09533    0.000
 4861.00    1.23212   1.05485    0.000
 4862.00    1.22531   1.01670    0.000
 4863.00    1.20370   0.98726    0.000
 4864.00    1.20570   0.97319    0.000
 4865.00    1.23373   0.97861    0.000
 4866.00    1.19079   1.00287    0.000
 4867.00    1.07895   1.04014    0.000
 4868.00    1.04224   1.08199    0.000
 4869.00    1.06987   1.12130    0.000
 4870.00    1.08430   1.15397    0.000
 4871.00    1.08877   1.17848    0.000
 4872.00    1.10918   1.19552    0.000
 4873.00    1.14014   1.20731    0.000
 4874.00    1.18543   1.21650    0.000
 4875.00    1.23903   1.22562    0.042
 4876.00    1.25904   1.23654    0.043
 4877.00    1.26205   1.24940    0.043
 4878.00    1.22020   1.26294    0.043
 4879.00    1.15869   1.27584    0.043
 4880.00    1.19155   1.28733    0.043
 4881.00    1.25987   1.29662    0.043
 4882.00    1.24343   1.30301    0.043
 4883.00    1.19996   1.30628    0.042
 4884.00    1.17460   1.30641    0.042
 4885.00    1.15407   1.30400    0.042
 4886.00    1.13761   1.30034    0.042
 4887.00    1.12204   1.29628    0.042
 4888.00    1.07132   1.29205    0.042
 4889.00    1.01450   1.28812    0.042
 4890.00    1.12649   1.28520    0.042
 4891.00    1.26070   1.28375    0.043
 4892.00    1.21480   1.28423    0.043
 4893.00    1.15216   1.28756    0.043
 4894.00    1.18857   1.29494    0.043
 4895.00    1.23060   1.30704    0.043
 4896.00    1.30140   1.32301    0.043
 4897.00    1.37166   1.33978    0.044
 4898.00    1.31100   1.35390    0.043
 4899.00    1.25088   1.36319    0.042
 4900.00    1.20378   1.36701    0.042
 4901.00    1.16254   1.36616    0.042
 4902.00    1.19724   1.36233    0.042
 4903.00    1.22551   1.35746    0.041
 4904.00    1.19792   1.35346    0.042
 4905.00    1.17728   1.35143    0.043
 4906.00    1.20136   1.35121    0.043
 4907.00    1.21809   1.35221    0.043
 4908.00    1.19787   1.35356    0.042
 4909.00    1.17801   1.35391    0.042
 4910.00    1.15963   1.35205    0.042
 4911.00    1.14474   1.34811    0.042
 4912.00    1.14160   1.34359    0.043
 4913.00    1.14869   1.34040    0.043
 4914.00    1.18492   1.33988    0.042
 4915.00    1.20463   1.34197    0.042
 4916.00    1.18413   1.34489    0.042
 4917.00    1.18136   1.34593    0.042
 4918.00    1.21581   1.34250    0.042
 4919.00    1.26412   1.33290    0.042
 4920.00    1.33773   1.31701    0.042
 4921.00    1.36044   1.29706    0.042
 4922.00    1.30198   1.27718    0.041
 4923.00    1.25210   1.26203    0.040
 4924.00    1.21422   1.25510    0.040
 4925.00    1.19599   1.25780    0.040
 4926.00    1.20198   1.26914    0.040
 4927.00    1.21139   1.28644    0.041
 4928.00    1.22450   1.30694    0.040
 4929.00    1.21780   1.32829    0.040
 4930.00    1.19212   1.34795    0.040
 4931.00    1.17483   1.36358    0.040
 4932.00    1.16462   1.37389    0.041
 4933.00    1.16942   1.37839    0.041
 4934.00    1.18538   1.37744    0.040
 4935.00    1.20257   1.37232    0.040
 4936.00    1.22054   1.36468    0.040
 4937.00    1.20059   1.35653    0.040
 4938.00    1.15896   1.34937    0.039
 4939.00    1.18839   1.34338    0.039
 4940.00    1.25321   1.33865    0.000
 4941.00    1.23186   1.33634    0.000
 4942.00    1.17341   1.33809    0.000
 4943.00    1.17548   1.34446    0.000
 4944.00    1.19989   1.35413    0.000
 4945.00    1.27337   1.36476    0.000
 4946.00    1.36220   1.37470    0.000
 4947.00    1.35734   1.38305    0.000
 4948.00    1.32803   1.38942    0.000
 4949.00    1.34424   1.39430    0.000
 4950.00    1.37013   1.39852    0.000
 4951.00    1.37366   1.40208    0.000
 4952.00    1.37341   1.40432    0.000
 4953.00    1.32069   1.40446    0.000
 4954.00    1.26129   1.40164    0.000
 4955.00    1.25349   1.39503    0.000
 4956.00    1.25026   1.38454    0.000
 4957.00    1.20153   1.37112    0.000
 4958.00    1.15041   1.35659    0.000
 4959.00    1.20990   1.34330    0.000
 4960.00    1.27035   1.33406    0.000
 4961.00    1.24065   1.33174    0.000
 4962.00    1.20957   1.33650    0.000
 4963.00    1.14874   1.34499    0.000
 4964.00    1.09641   1.35319    0.000
 4965.00    1.14833   1.35866    0.000
 4966.00    1.19461   1.36051    0.000
 4967.00    1.19356   1.35886    0.000
 4968.00    1.19265   1.35501    0.000
 4969.00    1.19263   1.35128    0.000
 4970.00    1.18812   1.34953    0.000
 4971.00    1.16159   1.35037    0.000
 4972.00    1.14689   1.35383    0.000
 4973.00    1.17928   1.35929    0.000
 4974.00    1.19783   1.36579    0.000
 4975.00    1.17063   1.37213    0.000
 4976.00    1.14704   1.37694    0.000
 4977.00    1.13353   1.37922    0.000
 4978.00    1.12443   1.37819    0.000
 4979.00    1.12586   1.37366    0.000
 4980.00    1.14039   1.36600    0.000
 4981.00    1.18196   1.35583    0.000
 4982.00    1.17887   1.34431    0.000
 4983.00    1.09552   1.33262    0.000
 4984.00    1.05882   1.32180    0.000
 4985.00    1.09544   1.31355    0.000
 4986.00    1.13630   1.31005    0.000
 4987.00    1.18302   1.31218    0.000
 4988.00    1.19871   1.31892    0.000
 4989.00    1.17673   1.32831    0.000
 4990.00    1.18651   1.33811    0.000
 4991.00    1.23028   1.34610    0.000
 4992.00    1.23696   1.35131    0.000
 4993.00    1.20862   1.35417    0.000
 4994.00    1.22634   1.35581    0.000
 4995.00    1.28242   1.35734    0.000
 4996.00    1.25666   1.35879    0.000
 4997.00    1.17092   1.35992    0.000
 4998.00    1.13317   1.36038    0.000
 4999.00    1.12631   1.35904    0.000
 5000.00    1.13822   1.35497    0.000
 5001.00    1.16071   1.34813    0.000
 5002.00    1.20472   1.33922    0.000
 5003.00    1.25928   1.32981    0.000
 5004.00    1.24322   1.32148    0.000
 5005.00    1.19725   1.31501    0.000
 5006.00    1.18095   1.31043    0.000
 5007.00    1.17541   1.30738    0.000
 5008.00    1.17106   1.30603    0.000
 5009.00    1.16707   1.30708    0.000
 5010.00    1.14510   1.31055    0.000
 5011.00    1.11853   1.31470    0.000
 5012.00    1.12202   1.31684    0.000
 5013.00    1.13175   1.31518    0.000
 5014.00    1.20193   1.30942    0.000
 5015.00    1.28200   1.30060    0.000
 5016.00    1.25089   1.29107    0.000
 5017.00    1.20614   1.28353    0.000
 5018.00    1.19502   1.28019    0.000
 5019.00    1.18673   1.28190    0.000
 5020.00    1.14388   1.28755    0.000
 5021.00    1.09934   1.29557    0.000
 5022.00    1.18455   1.30459    0.000
 5023.00    1.26999   1.31324    0.000
 5024.00    1.24707   1.32056    0.000
 5025.00    1.22695   1.32677    0.000
 5026.00    1.26293   1.33250    0.000
 5027.00    1.29365   1.33761    0.000
 5028.00    1.26287   1.34179    0.000
 5029.00    1.22966   1.34528    0.038
 5030.00    1.17679   1.34899    0.038
 5031.00    1.13797   1.35399    0.038
 5032.00    1.18437   1.36034    0.038
 5033.00    1.22874   1.36696    0.038
 5034.00    1.26342   1.37274    0.038
 5035.00    1.28951   1.37646    0.038
 5036.00    1.28221   1.37665    0.039
 5037.00    1.26245   1.37224    0.039
 5038.00    1.20229   1.36359    0.038
 5039.00    1.16493   1.35250    0.038
 5040.00    1.19019   1.34050    0.038
 5041.00    1.20125   1.32835    0.038
 5042.00    1.17896   1.31761    0.038
 5043.00    1.17052   1.31109    0.037
 5044.00    1.19024   1.31186    0.037
 5045.00    1.21289   1.32063    0.037
 5046.00    1.24074   1.33454    0.037
 5047.00    1.24447   1.34935    0.037
 5048.00    1.21085   1.36142    0.037
 5049.00    1.19754   1.36799    0.037
 5050.00    1.21184   1.36850    0.037
 5051.00    1.22839   1.36509    0.038
 5052.00    1.24763   1.36100    0.037
 5053.00    1.26819   1.35858    0.037
 5054.00    1.29017   1.35902    0.037
 5055.00    1.30158   1.36259    0.037
 5056.00    1.30316   1.36856    0.037
 5057.00    1.28013   1.37551    0.037
 5058.00    1.23690   1.38253    0.036
 5059.00    1.21508   1.38965    0.036
 5060.00    1.20874   1.39688    0.037
 5061.00    1.22526   1.40343    0.037
 5062.00    1.25629   1.40839    0.036
 5063.00    1.24811   1.41101    0.037
 5064.00    1.21817   1.41041    0.037
 5065.00    1.22461   1.40597    0.037
 5066.00    1.24859   1.39813    0.036
 5067.00    1.22085   1.38887    0.037
 5068.00    1.17159   1.38091    0.037
 5069.00    1.18266   1.37559    0.037
 5070.00    1.21520   1.37276    0.036
 5071.00    1.23991   1.37224    0.036
 5072.00    1.26226   1.37352    0.037
 5073.00    1.27724   1.37522    0.037
 5074.00    1.29037   1.37626    0.037
 5075.00    1.28364   1.37682    0.038
 5076.00    1.27288   1.37714    0.038
 5077.00    1.25889   1.37652    0.038
 5078.00    1.24439   1.37435    0.037
 5079.00    1.21515   1.37052    0.038
 5080.00    1.18417   1.36468    0.038
 5081.00    1.23827   1.35682    0.038
 5082.00    1.29921   1.34888    0.037
 5083.00    1.27836   1.34373    0.037
 5084.00    1.25382   1.34262    0.038
 5085.00    1.18018   1.34526    0.037
 5086.00    1.10847   1.35111    0.036
 5087.00    1.16267   1.35929    0.036
 5088.00    1.21116   1.36825    0.036
 5089.00    1.15334   1.37672    0.036
 5090.00    1.10087   1.38432    0.036
 5091.00    1.10807   1.39112    0.037
 5092.00    1.12668   1.39703    0.037
 5093.00    1.23426   1.40196    0.038
 5094.00    1.31748   1.40589    0.038
 5095.00    1.25716   1.40830    0.038
 5096.00    1.19790   1.40813    0.038
 5097.00    1.14357   1.40468    0.038
 5098.00    1.10336   1.39817    0.038
 5099.00    1.11695   1.38963    0.037
 5100.00    1.12026   1.38064    0.037
 5101.00    1.09086   1.37326    0.037
 5102.00    1.09206   1.36954    0.037
 5103.00    1.17574   1.36990    0.037
 5104.00    1.22499   1.37269    0.037
 5105.00    1.19462   1.37582    0.037
 5106.00    1.18345   1.37786    0.037
 5107.00    1.21071   1.37821    0.038
 5108.00    1.20676   1.37679    0.038
 5109.00    1.14843   1.37399    0.038
 5110.00    1.13486   1.37117    0.038
 5111.00    1.18953   1.36960    0.038
 5112.00    1.25090   1.36987    0.038
 5113.00    1.32125   1.37276    0.039
 5114.00    1.33513   1.37827    0.039
 5115.00    1.28239   1.38542    0.039
 5116.00    1.25334   1.39348    0.039
 5117.00    1.24896   1.40176    0.038
 5118.00    1.21625   1.40937    0.038
 5119.00    1.15754   1.41545    0.037
 5120.00    1.17846   1.41880    0.037
 5121.00    1.26379   1.41835    0.037
 5122.00    1.26337   1.41375    0.036
 5123.00    1.20193   1.40539    0.036
 5124.00    1.16065   1.39437    0.036
 5125.00    1.13196   1.38215    0.036
 5126.00    1.14739   1.37081    0.036
 5127.00    1.18692   1.36219    0.036
 5128.00    1.22832   1.35664    0.036
 5129.00    1.27061   1.35387    0.036
 5130.00    1.22017   1.35382    0.036
 5131.00    1.13178   1.35635    0.036
 5132.00    1.15280   1.36112    0.036
 5133.00    1.21207   1.36770    0.036
 5134.00    1.22383   1.37499    0.036
 5135.00    1.22158   1.38198    0.036
 5136.00    1.25310   1.38815    0.036
 5137.00    1.29288   1.39283    0.036
 5138.00    1.28982   1.39453    0.036
 5139.00    1.27830   1.39287    0.036
 5140.00    1.28406   1.38881    0.036
 5141.00    1.29249   1.38359    0.037
 5142.00    1.25991   1.37893    0.036
 5143.00    1.22266   1.37509    0.034
 5144.00    1.18533   1.37110    0.035
 5145.00    1.14799   1.36787    0.035
 5146.00    1.15920   1.36625    0.036
 5147.00    1.17242   1.36532    0.036
 5148.00    1.16833   1.36463    0.036
 5149.00    1.16524   1.36451    0.036
 5150.00    1.21021   1.36495    0.036
 5151.00    1.25018   1.36569    0.036
 5152.00    1.20336   1.36595    0.036
 5153.00    1.16829   1.36574    0.036
 5154.00    1.25821   1.36608    0.036
 5155.00    1.33738   1.36794    0.037
 5156.00    1.33566   1.37210    0.037
 5157.00    1.32914   1.37914    0.037
 5158.00    1.29510   1.38876    0.037
 5159.00    1.26223   1.39967    0.038
 5160.00    1.23471   1.40995    0.037
 5161.00    1.20066   1.41750    0.037
 5162.00    1.14221   1.42131    0.037
 5163.00    1.10936   1.42019    0.037
 5164.00    1.15636   1.41296    0.036
 5165.00    1.18260   1.39971    0.036
 5166.00    1.15390   1.38070    0.037
 5167.00    1.13357   1.35604    0.037
 5168.00    1.13232   1.32768    0.037
 5169.00    1.12586   1.29939    0.037
 5170.00    1.10918   1.27566    0.038
 5171.00    1.12199   1.25938    0.038
 5172.00    1.18544   1.25013    0.038
 5173.00    1.21447   1.24550    0.038
 5174.00    1.19175   1.24482    0.037
 5175.00    1.17821   1.25054    0.037
 5176.00    1.17680   1.26404    0.038
 5177.00    1.16238   1.28282    0.038
 5178.00    1.13282   1.30303    0.037
 5179.00    1.11296   1.32164    0.037
 5180.00    1.10305   1.33573    0.037
 5181.00    1.09792   1.34258    0.037
 5182.00    1.09712   1.34109    0.036
 5183.00    1.10124   1.33202    0.036
 5184.00    1.10929   1.31767    0.036
 5185.00    1.14768   1.30262    0.036
 5186.00    1.20736   1.29358    0.036
 5187.00    1.21981   1.29498    0.036
 5188.00    1.20320   1.30582    0.036
 5189.00    1.20737   1.32216    0.036
 5190.00    1.22270   1.33977    0.000
 5191.00    1.19110   1.35542    0.000
 5192.00    1.13759   1.36631    0.000
 5193.00    1.13249   1.37037    0.000
 5194.00    1.14685   1.36932    0.000
 5195.00    1.17432   1.36735    0.000
 5196.00    1.20627   1.36689    0.000
 5197.00    1.23957   1.36858    0.000
 5198.00    1.27326   1.37320    0.000
 5199.00    1.23444   1.38041    0.000
 5200.00    1.17832   1.38857    0.000
 5201.00    1.19730   1.39590    0.000
 5202.00    1.23074   1.40046    0.000
 5203.00    1.20084   1.40105    0.000
 5204.00    1.16147   1.39727    0.000
 5205.00    1.17538   1.38919    0.000
 5206.00    1.19512   1.37699    0.000
 5207.00    1.21273   1.36269    0.000
 5208.00    1.23018   1.34958    0.000
 5209.00    1.23760   1.33990    0.000
 5210.00    1.24464   1.33473    0.000
 5211.00    1.25408   1.33562    0.035
 5212.00    1.26421   1.34305    0.035
 5213.00    1.29920   1.35550    0.034
 5214.00    1.33047   1.37070    0.034
 5215.00    1.30151   1.38600    0.035
 5216.00    1.27596   1.39888    0.036
 5217.00    1.28510   1.40814    0.036
 5218.00    1.28528   1.41478    0.036
 5219.00    1.22028   1.42073    0.036
 5220.00    1.16344   1.42695    0.036
 5221.00    1.15202   1.43313    0.035
 5222.00    1.15036   1.43817    0.035
 5223.00    1.19211   1.44072    0.035
 5224.00    1.23515   1.43906    0.035
 5225.00    1.28286   1.43210    0.036
 5226.00    1.30527   1.42037    0.037
 5227.00    1.25028   1.40608    0.036
 5228.00    1.22273   1.39262    0.036
 5229.00    1.26661   1.38424    0.036
 5230.00    1.25910   1.38384    0.036
 5231.00    1.13666   1.39029    0.036
 5232.00    1.09720   1.40035    0.036
 5233.00    1.21858   1.41108    0.036
 5234.00    1.30188   1.41980    0.036
 5235.00    1.32079   1.42592    0.036
 5236.00    1.33744   1.43105    0.036
 5237.00    1.35071   1.43669    0.036
 5238.00    1.35430   1.44372    0.037
 5239.00    1.34528   1.45184    0.037
 5240.00    1.31599   1.45995    0.037
 5241.00    1.26345   1.46716    0.036
 5242.00    1.25211   1.47296    0.036
 5243.00    1.28247   1.47700    0.036
 5244.00    1.28929   1.47894    0.036
 5245.00    1.27511   1.47892    0.037
 5246.00    1.25738   1.47721    0.037
 5247.00    1.23686   1.47294    0.036
 5248.00    1.26149   1.46518    0.036
 5249.00    1.31735   1.45537    0.036
 5250.00    1.31521   1.44597    0.036
 5251.00    1.27791   1.43778    0.036
 5252.00    1.25272   1.43114    0.036
 5253.00    1.23393   1.42765    0.036
 5254.00    1.24829   1.42798    0.036
 5255.00    1.27788   1.43115    0.036
 5256.00    1.29000   1.43603    0.036
 5257.00    1.29522   1.44268    0.035
 5258.00    1.27288   1.45146    0.036
 5259.00    1.24125   1.46086    0.036
 5260.00    1.28692   1.46803    0.036
 5261.00    1.35448   1.47049    0.036
 5262.00    1.31375   1.46653    0.036
 5263.00    1.24774   1.45561    0.036
 5264.00    1.22668   1.43856    0.036
 5265.00    1.21406   1.41760    0.037
 5266.00    1.21086   1.39577    0.037
 5267.00    1.20903   1.37596    0.037
 5268.00    1.21137   1.36067    0.037
 5269.00    1.21415   1.35084    0.036
 5270.00    1.26747   1.34460    0.036
 5271.00    1.32423   1.34095    0.036
 5272.00    1.29090   1.34248    0.036
 5273.00    1.25455   1.35089    0.036
 5274.00    1.23329   1.36411    0.036
 5275.00    1.21378   1.37959    0.036
 5276.00    1.24987   1.39609    0.036
 5277.00    1.28474   1.41277    0.036
 5278.00    1.30093   1.42955    0.036
 5279.00    1.31641   1.44590    0.036
 5280.00    1.32500   1.45966    0.036
 5281.00    1.32855   1.46894    0.036
 5282.00    1.29670   1.47334    0.035
 5283.00    1.27194   1.47389    0.035
 5284.00    1.28561   1.47248    0.035
 5285.00    1.29585   1.47139    0.035
 5286.00    1.29126   1.47342    0.035
 5287.00    1.29256   1.48022    0.036
 5288.00    1.31500   1.49070    0.036
 5289.00    1.34328   1.50238    0.036
 5290.00    1.38914   1.51346    0.036
 5291.00    1.40933   1.52293    0.037
 5292.00    1.36392   1.52982    0.037
 5293.00    1.33293   1.53307    0.037
 5294.00    1.33370   1.53217    0.036
 5295.00    1.33452   1.52751    0.036
 5296.00    1.33543   1.51962    0.036
 5297.00    1.33556   1.50858    0.037
 5298.00    1.33441   1.49483    0.037
 5299.00    1.33614   1.48056    0.037
 5300.00    1.34207   1.46935    0.037
 5301.00    1.33542   1.46361    0.037
 5302.00    1.31265   1.46311    0.037
 5303.00    1.29954   1.46709    0.036
 5304.00    1.29736   1.47548    0.036
 5305.00    1.32154   1.48757    0.036
 5306.00    1.37202   1.50128    0.036
 5307.00    1.36923   1.51410    0.036
 5308.00    1.31957   1.52440    0.036
 5309.00    1.30037   1.53204    0.036
 5310.00    1.30477   1.53779    0.036
 5311.00    1.30674   1.54202    0.036
 5312.00    1.30705   1.54444    0.036
 5313.00    1.31264   1.54493    0.036
 5314.00    1.32139   1.54365    0.035
 5315.00    1.29150   1.54093    0.035
 5316.00    1.24148   1.53714    0.035
 5317.00    1.25759   1.53240    0.035
 5318.00    1.30357   1.52718    0.035
 5319.00    1.27426   1.52252    0.035
 5320.00    1.21569   1.51882    0.035
 5321.00    1.22102   1.51551    0.034
 5322.00    1.24746   1.51206    0.034
 5323.00    1.24033   1.50803    0.034
 5324.00    1.22389   1.50235    0.034
 5325.00    1.23562   1.49413    0.034
 5326.00    1.25378   1.48372    0.034
 5327.00    1.26914   1.47201    0.034
 5328.00    1.28400   1.45859    0.034
 5329.00    1.30186   1.44376    0.034
 5330.00    1.32015   1.43138    0.035
 5331.00    1.31862   1.42641    0.034
 5332.00    1.31509   1.42992    0.034
 5333.00    1.30799   1.43968    0.034
 5334.00    1.30065   1.45334    0.034
 5335.00    1.29806   1.46923    0.034
 5336.00    1.29563   1.48531    0.034
 5337.00    1.30217   1.49887    0.034
 5338.00    1.30881   1.50793    0.034
 5339.00    1.31800   1.51202    0.034
 5340.00    1.32672   1.51132    0.034
 5341.00    1.32871   1.50660    0.034
 5342.00    1.33371   1.50018    0.034
 5343.00    1.36691   1.49535    0.034
 5344.00    1.38968   1.49351    0.034
 5345.00    1.34134   1.49389    0.035
 5346.00    1.30054   1.49526    0.035
 5347.00    1.29952   1.49684    0.035
 5348.00    1.30486   1.49878    0.035
 5349.00    1.33720   1.50099    0.035
 5350.00    1.35582   1.50312    0.035
 5351.00    1.32635   1.50621    0.035
 5352.00    1.31459   1.51192    0.035
 5353.00    1.35503   1.52046    0.035
 5354.00    1.38193   1.53086    0.035
 5355.00    1.37478   1.54244    0.035
 5356.00    1.37036   1.55463    0.035
 5357.00    1.37183   1.56600    0.035
 5358.00    1.35750   1.57519    0.035
 5359.00    1.31345   1.58158    0.035
 5360.00    1.29434   1.58472    0.035
 5361.00    1.31613   1.58431    0.035
 5362.00    1.32917   1.58042    0.035
 5363.00    1.32964   1.57356    0.035
 5364.00    1.36299   1.56487    0.035
 5365.00    1.43793   1.55545    0.036
 5366.00    1.43567   1.54580    0.036
 5367.00    1.34734   1.53637    0.036
 5368.00    1.30886   1.52751   -2.000
 5369.00    1.31941   1.51896   -2.000
 5370.00    1.32288   1.51021   -2.000
 5371.00    1.32022   1.50098   -2.000
 5372.00    1.33390   1.49246   -2.000
 5373.00    1.36006   1.48763   -2.000
 5374.00    1.38735   1.48917   -2.000
 5375.00    1.41541   1.49695   -2.000
 5376.00    1.42535   1.50873   -2.000
 5377.00    1.42463   1.52209   -2.000
 5378.00    1.42577   1.53493   -2.000
 5379.00    1.42786   1.54597   -2.000
 5380.00    1.40418   1.55431   -2.000
 5381.00    1.36905   1.55901   -2.000
 5382.00    1.36689   1.56000   -2.000
 5383.00    1.37732   1.55852    0.034
 5384.00    1.33538   1.55595    0.034
 5385.00    1.27646   1.55352    0.033
 5386.00    1.30040   1.55210    0.033
 5387.00    1.34685   1.55131    0.033
 5388.00    1.40293   1.55023    0.033
 5389.00    1.46115   1.54827    0.033
 5390.00    1.42974   1.54491    0.033
 5391.00    1.38241   1.53978    0.034
 5392.00    1.37429   1.53329    0.033
 5393.00    1.37150   1.52614    0.033
 5394.00    1.29767   1.51880    0.033
 5395.00    1.21698   1.51162    0.033
 5396.00    1.27488   1.50494    0.033
 5397.00    1.34112   1.49854    0.033
 5398.00    1.31292   1.49254    0.033
 5399.00    1.28251   1.48888    0.033
 5400.00    1.29190   1.48894    0.033
 5401.00    1.30259   1.49128    0.034
 5402.00    1.34665   1.49401    0.034
 5403.00    1.38442   1.49628    0.034
 5404.00    1.33664   1.49656    0.034
 5405.00    1.29296   1.49292    0.034
 5406.00    1.28603   1.48525    0.034
 5407.00    1.28124   1.47554    0.034
 5408.00    1.29060   1.46658    0.034
 5409.00    1.30299   1.45993    0.034
 5410.00    1.33103   1.45529    0.034
 5411.00    1.34492   1.45255    0.035
 5412.00    1.30006   1.45343    0.034
 5413.00    1.26933   1.45951    0.034
 5414.00    1.28708   1.47011    0.034
 5415.00    1.31903   1.48329    0.034
 5416.00    1.39204   1.49761    0.034
 5417.00    1.43461   1.51260    0.034
 5418.00    1.40203   1.52751    0.034
 5419.00    1.38740   1.54057    0.034
 5420.00    1.41099   1.55005    0.034
 5421.00    1.40592   1.55545    0.034
 5422.00    1.34784   1.55772    0.034
 5423.00    1.32133   1.55826    0.034
 5424.00    1.34581   1.55734    0.034
 5425.00    1.36833   1.55479    0.034
 5426.00    1.38807   1.55198    0.033
 5427.00    1.40703   1.55046    0.033
 5428.00    1.42502   1.54963    0.033
 5429.00    1.42205   1.54722    0.033
 5430.00    1.39603   1.54130    0.033
 5431.00    1.36140   1.53309    0.033
 5432.00    1.31843   1.52555    0.033
 5433.00    1.33312   1.51907    0.033
 5434.00    1.39712   1.51263    0.033
 5435.00    1.42500   1.50707    0.033
 5436.00    1.42568   1.50439    0.033
 5437.00    1.42137   1.50618    0.033
 5438.00    1.41374   1.51320    0.033
 5439.00    1.39876   1.52477    0.033
 5440.00    1.37952   1.53905    0.033
 5441.00    1.38095   1.55433    0.033
 5442.00    1.39282   1.56871    0.032
 5443.00    1.38779   1.58010    0.033
 5444.00    1.37538   1.58674    0.033
 5445.00    1.35108   1.58732    0.033
 5446.00    1.32233   1.58127    0.033
 5447.00    1.32508   1.56948    0.033
 5448.00    1.33786   1.55521    0.033
 5449.00    1.34348   1.54296    0.033
 5450.00    1.34720   1.53499    0.034
 5451.00    1.34430   1.53079    0.034
 5452.00    1.33995   1.52900    0.034
 5453.00    1.35990   1.52836    0.034
 5454.00    1.38404   1.52748    0.034
 5455.00    1.40778   1.52516    0.034
 5456.00    1.43148   1.52092    0.034
 5457.00    1.37887   1.51635    0.034
 5458.00    1.31921   1.51427    0.034
 5459.00    1.32140   1.51583    0.034
 5460.00    1.32707   1.51991    0.033
 5461.00    1.31237   1.52473    0.034
 5462.00    1.29795   1.52909    0.034
 5463.00    1.36015   1.53212    0.034
 5464.00    1.42068   1.53355    0.034
 5465.00    1.44189   1.53407    0.034
 5466.00    1.46066   1.53445    0.033
 5467.00    1.44787   1.53476    0.033
 5468.00    1.43508   1.53559    0.033
 5469.00    1.42216   1.53755    0.033
 5470.00    1.41435   1.53974    0.034
 5471.00    1.43933   1.54074    0.034
 5472.00    1.45355   1.54028    0.034
 5473.00    1.41384   1.53803    0.033
 5474.00    1.38493   1.53345    0.032
 5475.00    1.39989   1.52736    0.033
 5476.00    1.39611   1.52069    0.033
 5477.00    1.32929   1.51323    0.033
 5478.00    1.28535   1.50613   -2.000
 5479.00    1.30635   1.50233   -2.000
 5480.00    1.33321   1.50244   -2.000
 5481.00    1.37427   1.50451   -2.000
 5482.00    1.39332   1.50723   -2.000
 5483.00    1.36625   1.51108   -2.000
 5484.00    1.35573   1.51679   -2.000
 5485.00    1.37537   1.52434   -2.000
 5486.00    1.38432   1.53239   -2.000
 5487.00    1.37626   1.53884   -2.000
 5488.00    1.34502   1.54279   -2.000
 5489.00    1.28141   1.54541   -2.000
 5490.00    1.27704   1.54789   -2.000
 5491.00    1.34550   1.54974   -2.000
 5492.00    1.59722   1.55084   -2.000
 5493.00    2.04753   1.55166   -2.000
 5494.00    2.12243   1.55213   -2.000
 5495.00    1.83845   1.55261   -2.000
 5496.00    1.59539   1.55367   -2.000
 5497.00    1.38681   1.55439   -2.000
 5498.00    1.33910   1.55380   -2.000
 5499.00    1.41080   1.55297   -2.000
 5500.00    1.39717   1.55296   -2.000
 5501.00    1.32792   1.55282   -2.000
 5502.00    1.30323   1.55128    0.033
 5503.00    1.30395   1.54861    0.033
 5504.00    1.34080   1.54577    0.033
 5505.00    1.39559   1.54328    0.033
 5506.00    1.39527   1.54063    0.033
 5507.00    1.37127   1.53701    0.034
 5508.00    1.37292   1.53356    0.034
 5509.00    1.38401   1.53213    0.033
 5510.00    1.37922   1.53212    0.033
 5511.00    1.36948   1.53200    0.033
 5512.00    1.37786   1.53105    0.033
 5513.00    1.39096   1.52917    0.033
 5514.00    1.43300   1.52743    0.033
 5515.00    1.48119   1.52700    0.033
 5516.00    1.44954   1.52814    0.033
 5517.00    1.40450   1.53124    0.033
 5518.00    1.39103   1.53692    0.033
 5519.00    1.38157   1.54531    0.034
 5520.00    1.42469   1.55545    0.033
 5521.00    1.47246   1.56544    0.032
 5522.00    1.42631   1.57378    0.032
 5523.00    1.37525   1.57973    0.033
 5524.00    1.35121   1.58291    0.032
 5525.00    1.32823   1.58309    0.032
 5526.00    1.34676   1.58008    0.032
 5527.00    1.36574   1.57433    0.032
 5528.00    1.39436   1.56687    0.032
 5529.00    1.41883   1.55915    0.031
 5530.00    1.39255   1.55336    0.032
 5531.00    1.37100   1.55093    0.032
 5532.00    1.38896   1.55120    0.032
 5533.00    1.40765   1.55303    0.032
 5534.00    1.43090   1.55579    0.032
 5535.00    1.44626   1.55895    0.032
 5536.00    1.42301   1.56209    0.032
 5537.00    1.40394   1.56514    0.032
 5538.00    1.40148   1.56787    0.032
 5539.00    1.40201   1.57035    0.032
 5540.00    1.41242   1.57354    0.032
 5541.00    1.42077   1.57789    0.032
 5542.00    1.42333   1.58269    0.032
 5543.00    1.42796   1.58677    0.032
 5544.00    1.43749   1.58924    0.032
 5545.00    1.43626   1.59046    0.032
 5546.00    1.41281   1.59128    0.032
 5547.00    1.41184   1.59188    0.033
 5548.00    1.45115   1.59283    0.033
 5549.00    1.48497   1.59501    0.033
 5550.00    1.51016   1.59829    0.033
 5551.00    1.50630   1.60210    0.033
 5552.00    1.46244   1.60559    0.033
 5553.00    1.43468   1.60774    0.033
 5554.00    1.42644   1.60804    0.033
 5555.00    1.43530   1.60656    0.033
 5556.00    1.46243   1.60382    0.033
 5557.00    1.42256   1.60072    0.033
 5558.00    1.31954   1.59763    0.033
 5559.00    1.30029   1.59484    0.033
 5560.00    1.35065   1.59274    0.033
 5561.00    1.39135   1.59120    0.033
 5562.00    1.42499   1.58970    0.032
 5563.00    1.41118   1.58751    0.032
 5564.00    1.36688   1.58443    0.032
 5565.00    1.38022   1.58110    0.032
 5566.00    1.42595   1.57762    0.032
 5567.00    1.42368   1.57379    0.032
 5568.00    1.39794   1.57042    0.032
 5569.00    1.40550   1.56798    0.032
 5570.00    1.42713   1.56631    0.032
 5571.00    1.44282   1.56580    0.032
 5572.00    1.45636   1.56656    0.031
 5573.00    1.46607   1.56739    0.032
 5574.00    1.47462   1.56832    0.032
 5575.00    1.45671   1.57058    0.032
 5576.00    1.43206   1.57379    0.032
 5577.00    1.42134   1.57715    0.031
 5578.00    1.41349   1.58080    0.031
 5579.00    1.42340   1.58412    0.031
 5580.00    1.43620   1.58722    0.031
 5581.00    1.41867   1.59047    0.031
 5582.00    1.39744   1.59222    0.031
 5583.00    1.38525   1.59155    0.032
 5584.00    1.37381   1.58931    0.032
 5585.00    1.36139   1.58501    0.032
 5586.00    1.34892   1.57794    0.032
 5587.00    1.38851   1.56812    0.032
 5588.00    1.42855   1.55604    0.032
 5589.00    1.44811   1.54372    0.033
 5590.00    1.46384   1.53342    0.033
 5591.00    1.40340   1.52611    0.033
 5592.00    1.35091   1.52195    0.033
 5593.00    1.39075   1.52088    0.033
 5594.00    1.42543   1.52304    0.033
 5595.00    1.41856   1.52835    0.034
 5596.00    1.41396   1.53603    0.034
 5597.00    1.42308   1.54480    0.034
 5598.00    1.43251   1.55178    0.034
 5599.00    1.44342   1.55528    0.034
 5600.00    1.44799   1.55651    0.034
 5601.00    1.42794   1.55652    0.034
 5602.00    1.42418   1.55522    0.034
 5603.00    1.47311   1.55317    0.033
 5604.00    1.50273   1.55180    0.033
 5605.00    1.47947   1.55382    0.033
 5606.00    1.46528   1.56034    0.033
 5607.00    1.47239   1.56987    0.032
 5608.00    1.46306   1.58063    0.031
 5609.00    1.42039   1.59174    0.031
 5610.00    1.40741   1.60204    0.031
 5611.00    1.44685   1.61020    0.031
 5612.00    1.47457   1.61510    0.031
 5613.00    1.48422   1.61652    0.031
 5614.00    1.46391   1.61426    0.031
 5615.00    1.40296   1.60751    0.031
 5616.00    1.38351   1.59664    0.031
 5617.00    1.41367   1.58536    0.030
 5618.00    1.42552   1.57688    0.030
 5619.00    1.41809   1.57087    0.030
 5620.00    1.40776   1.56642    0.030
 5621.00    1.39473   1.56401    0.030
 5622.00    1.40357   1.56484    0.030
 5623.00    1.43032   1.56856    0.030
 5624.00    1.43152   1.57168    0.031
 5625.00    1.41430   1.57143    0.030
 5626.00    1.41591   1.56966    0.030
 5627.00    1.42944   1.56942    0.031
 5628.00    1.44853   1.57098    0.031
 5629.00    1.47071   1.57364    0.031
 5630.00    1.48837   1.57770    0.031
 5631.00    1.50386   1.58365    0.031
 5632.00    1.48678   1.59109    0.031
 5633.00    1.45618   1.59819    0.032
 5634.00    1.45485   1.60290    0.032
 5635.00    1.46392   1.60474    0.032
 5636.00    1.46006   1.60401    0.032
 5637.00    1.45232   1.60070    0.032
 5638.00    1.41378   1.59546    0.031
 5639.00    1.36757   1.58962    0.031
 5640.00    1.40508   1.58406    0.031
 5641.00    1.45949   1.57900    0.032
 5642.00    1.44489   1.57470    0.031
 5643.00    1.41936   1.57234    0.031
 5644.00    1.40533   1.57221    0.031
 5645.00    1.39265   1.57365    0.030
 5646.00    1.41745   1.57605    0.031
 5647.00    1.44524   1.57919    0.031
 5648.00    1.46942   1.58323    0.031
 5649.00    1.49344   1.58784    0.030
 5650.00    1.46088   1.59197    0.030
 5651.00    1.42860   1.59556    0.030
 5652.00    1.44120   1.59918    0.029
 5653.00    1.45357   1.60255    0.029
 5654.00    1.46163   1.60459    0.029
 5655.00    1.46559   1.60421    0.030
 5656.00    1.42410   1.60177    0.030
 5657.00    1.38987   1.59826    0.030
 5658.00    1.41190   1.59250    0.030
 5659.00    1.43357   1.58346    0.030
 5660.00    1.45321   1.57411    0.030
 5661.00    1.46558   1.56781    0.030
 5662.00    1.44416   1.56400    0.029
 5663.00    1.42884   1.56126    0.029
 5664.00    1.43666   1.56032    0.030
 5665.00    1.44490   1.56316    0.030
 5666.00    1.45444   1.56918    0.030
 5667.00    1.45860   1.57509    0.030
 5668.00    1.44830   1.57910    0.031
 5669.00    1.43293   1.58262    0.031
 5670.00    1.40586   1.58705    0.031
 5671.00    1.39680   1.59165    0.032
 5672.00    1.42369   1.59594    0.032
 5673.00    1.43470   1.60091    0.032
 5674.00    1.41810   1.60733    0.032
 5675.00    1.41322   1.61427    0.032
 5676.00    1.42618   1.62042    0.032
 5677.00    1.43860   1.62575    0.031
 5678.00    1.45030   1.63021    0.032
 5679.00    1.47137   1.63254    0.032
 5680.00    1.50347   1.63207    0.031
 5681.00    1.51509   1.62977    0.030
 5682.00    1.50544   1.62649    0.030
 5683.00    1.49320   1.62194    0.030
 5684.00    1.47857   1.61645    0.030
 5685.00    1.46860   1.61163    0.030
 5686.00    1.46237   1.60807    0.030
 5687.00    1.47666   1.60496    0.030
 5688.00    1.50554   1.60192    0.030
 5689.00    1.47912   1.60037    0.030
 5690.00    1.41824   1.60170    0.029
 5691.00    1.40195   1.60529    0.029
 5692.00    1.40994   1.60989    0.029
 5693.00    1.42405   1.61539    0.029
 5694.00    1.44106   1.62158    0.029
 5695.00    1.43974   1.62742    0.029
 5696.00    1.43094   1.63174    0.029
 5697.00    1.44763   1.63391    0.030
 5698.00    1.47320   1.63356    0.030
 5699.00    1.49704   1.63038    0.030
 5700.00    1.52038   1.62538    0.030
 5701.00    1.52922   1.61951    0.030
 5702.00    1.53453   1.61304    0.029
 5703.00    1.49833   1.60668    0.029
 5704.00    1.45397   1.60145    0.029
 5705.00    1.42781   1.59771    0.029
 5706.00    1.40444   1.59435    0.029
 5707.00    1.43910   1.59002    0.029
 5708.00    1.48034   1.58518    0.029
 5709.00    1.47565   1.58034    0.030
 5710.00    1.46749   1.57541    0.030
 5711.00    1.50270   1.57120    0.030
 5712.00    1.53968   1.56828    0.030
 5713.00    1.51970   1.56792    0.030
 5714.00    1.49946   1.57198    0.030
 5715.00    1.48712   1.57982    0.030
 5716.00    1.47501   1.59009    0.030
 5717.00    1.46697   1.60160    0.029
 5718.00    1.46216   1.61305    0.029
 5719.00    1.49154   1.62415    0.029
 5720.00    1.51904   1.63427    0.030
 5721.00    1.53252   1.64254    0.030
 5722.00    1.54145   1.64920    0.030
 5723.00    1.52446   1.65465    0.030
 5724.00    1.50791   1.65899    0.030
 5725.00    1.49335   1.66221    0.029
 5726.00    1.48563   1.66398    0.029
 5727.00    1.50334   1.66344    0.029
 5728.00    1.51443   1.66089    0.029
 5729.00    1.50496   1.65808    0.029
 5730.00    1.50244   1.65597    0.028
 5731.00    1.51827   1.65377    0.029
 5732.00    1.52972   1.65086    0.029
 5733.00    1.53124   1.64908    0.029
 5734.00    1.52949   1.65030    0.029
 5735.00    1.52127   1.65321    0.029
 5736.00    1.52117   1.65559    0.029
 5737.00    1.53495   1.65699    0.029
 5738.00    1.53560   1.65848    0.029
 5739.00    1.51654   1.66021    0.029
 5740.00    1.49706   1.66097    0.000
 5741.00    1.47701   1.66064    0.000
 5742.00    1.49177   1.65992    0.000
 5743.00    1.54693   1.65927    0.000
 5744.00    1.58116   1.65882    0.000
 5745.00    1.59395   1.65936    0.000
 5746.00    1.59270   1.66107    0.000
 5747.00    1.57875   1.66289    0.000
 5748.00    1.57547   1.66329    0.000
 5749.00    1.58069   1.66225    0.000
 5750.00    1.58068   1.66172    0.000
 5751.00    1.57701   1.66182    0.000
 5752.00    1.56870   1.66057    0.000
 5753.00    1.55754   1.65701    0.000
 5754.00    1.55676   1.65256    0.000
 5755.00    1.56154   1.64974    0.000
 5756.00    1.56003   1.64937    0.000
 5757.00    1.55559   1.65025    0.000
 5758.00    1.56086   1.65124    0.000
 5759.00    1.57004   1.65251    0.000
 5760.00    1.56802   1.65413    0.000
 5761.00    1.56218   1.65539    0.000
 5762.00    1.52940   1.65499    0.000
 5763.00    1.48885   1.65241    0.000
 5764.00    1.50466   1.64943    0.000
 5765.00    1.53390   1.64838    0.000
 5766.00    1.55053   1.64956    0.000
 5767.00    1.56475   1.65244    0.000
 5768.00    1.55588   1.65699    0.000
 5769.00    1.54356   1.66308    0.000
 5770.00    1.53508   1.66949    0.000
 5771.00    1.52702   1.67415    0.000
 5772.00    1.56839   1.67610    0.000
 5773.00    1.61331   1.67605    0.000
 5774.00    1.60493   1.67507    0.000
 5775.00    1.59459   1.67325    0.000
 5776.00    1.57352   1.67092    0.000
 5777.00    1.55312   1.66860    0.000
 5778.00    1.55820   1.66609    0.000
 5779.00    1.56285   1.66293    0.000
 5780.00    1.56067   1.65806    0.000
 5781.00    1.55770   1.65049    0.000
 5782.00    1.54667   1.64079    0.000
 5783.00    1.53759   1.63083    0.000
 5784.00    1.54265   1.62177    0.000
 5785.00    1.54710   1.61336    0.000
 5786.00    1.54820   1.60599    0.000
 5787.00    1.55151   1.60275    0.000
 5788.00    1.56466   1.60545    0.000
 5789.00    1.56670   1.61177    0.000
 5790.00    1.52828   1.61918    0.000
 5791.00    1.49687   1.62667   -2.000
 5792.00    1.48688   1.63498   -2.000
 5793.00    1.47872   1.64425   -2.000
 5794.00    1.47534   1.65256   -2.000
 5795.00    1.47417   1.65948   -2.000
 5796.00    1.47791   1.66518   -2.000
 5797.00    1.49331   1.66964   -2.000
 5798.00    1.53122   1.67312   -2.000
 5799.00    1.55200   1.67583   -2.000
 5800.00    1.54390   1.67893   -2.000
 5801.00    1.53426   1.68196   -2.000
 5802.00    1.52234   1.68391   -2.000
 5803.00    1.52394   1.68548   -2.000
 5804.00    1.54311   1.68764   -2.000
 5805.00    1.55669   1.68960   -2.000
 5806.00    1.56387   1.69019   -2.000
 5807.00    1.57675   1.68978   -2.000
 5808.00    1.59537   1.68913   -2.000
 5809.00    1.60521   1.68815   -2.000
 5810.00    1.60722   1.68671   -2.000
 5811.00    1.60911   1.68603    0.000
 5812.00    1.61091   1.68585    0.000
 5813.00    1.60364   1.68546    0.000
 5814.00    1.59013   1.68480    0.000
 5815.00    1.59842   1.68382    0.000
 5816.00    1.61992   1.68194    0.000
 5817.00    1.61059   1.67980    0.000
 5818.00    1.58498   1.67912    0.000
 5819.00    1.56858   1.68058    0.000
 5820.00    1.55639   1.68319    0.000
 5821.00    1.58194   1.68617    0.000
 5822.00    1.62238   1.69027    0.000
 5823.00    1.64324   1.69528    0.000
 5824.00    1.65752   1.70006    0.000
 5825.00    1.64086   1.70371    0.000
 5826.00    1.61548   1.70662    0.000
 5827.00    1.61575   1.70886    0.000
 5828.00    1.62199   1.71030    0.000
 5829.00    1.59914   1.71147    0.000
 5830.00    1.57085   1.71291    0.000
 5831.00    1.57005   1.71422    0.000
 5832.00    1.57321   1.71456    0.000
 5833.00    1.56238   1.71428    0.000
 5834.00    1.55009   1.71356    0.000
 5835.00    1.56316   1.71206    0.000
 5836.00    1.57794   1.71004    0.000
 5837.00    1.57976   1.70854    0.000
 5838.00    1.58115   1.70755    0.000
 5839.00    1.59746   1.70627    0.000
 5840.00    1.61316   1.70559    0.000
 5841.00    1.60948   1.70685    0.000
 5842.00    1.60548   1.70947    0.000
 5843.00    1.59675   1.71171    0.000
 5844.00    1.58928   1.71316    0.000
 5845.00    1.59411   1.71431    0.000
 5846.00    1.59758   1.71457    0.000
 5847.00    1.59152   1.71280    0.000
 5848.00    1.58771   1.70874    0.000
 5849.00    1.59603   1.70335    0.000
 5850.00    1.59667   1.69732    0.000
 5851.00    1.56401   1.69089    0.000
 5852.00    1.53767   1.68392    0.000
 5853.00    1.53392   1.67624    0.000
 5854.00    1.53935   1.66846    0.000
 5855.00    1.57228   1.66189    0.000
 5856.00    1.59370   1.65646    0.000
 5857.00    1.58571   1.65052    0.000
 5858.00    1.56711   1.64383    0.000
 5859.00    1.52521   1.63898    0.000
 5860.00    1.50836   1.63800    0.000
 5861.00    1.53920   1.63915    0.000
 5862.00    1.56617   1.64047    0.000
 5863.00    1.58671   1.64206    0.000
 5864.00    1.59452   1.64568    0.000
 5865.00    1.58377   1.65127    0.000
 5866.00    1.58477   1.65635    0.000
 5867.00    1.60082   1.65941    0.000
 5868.00    1.60870   1.66145    0.000
 5869.00    1.60736   1.66460    0.000
 5870.00    1.59122   1.66827    0.000
 5871.00    1.56035   1.67057    0.000
 5872.00    1.54042   1.67096    0.000
 5873.00    1.53012   1.67010    0.000
 5874.00    1.53346   1.66817    0.000
 5875.00    1.54736   1.66290    0.000
 5876.00    1.56432   1.65423    0.000
 5877.00    1.58337   1.64481    0.000
 5878.00    1.59204   1.63731    0.000
 5879.00    1.59453   1.63263    0.000
 5880.00    1.57144   1.62827    0.000
 5881.00    1.53507   1.62613    0.000
 5882.00    1.53501   1.62791    0.000
 5883.00    1.55132   1.63252    0.000
 5884.00    1.56981   1.63553    0.000
 5885.00    1.58914   1.63439    0.000
 5886.00    1.56568   1.63053    0.000
 5887.00    1.52811   1.62357    0.000
 5888.00    1.51381   1.61123    0.000
 5889.00    1.50594   1.59068    0.000
 5890.00    1.49254   1.56208    0.000
 5891.00    1.47787   1.53103    0.000
 5892.00    1.49051   1.50465    0.000
 5893.00    1.50812   1.48359    0.000
 5894.00    1.50916   1.46592    0.000
 5895.00    1.50788   1.45384    0.000
 5896.00    1.51336   1.44937    0.000
 5897.00    1.51952   1.45330    0.000
 5898.00    1.54427   1.46489    0.000
 5899.00    1.57020   1.48009    0.000
 5900.00    1.56134   1.49550    0.000
 5901.00    1.55146   1.51294    0.028
 5902.00    1.54309   1.53618    0.027
 5903.00    1.53665   1.56293    0.027
 5904.00    1.58444   1.58711    0.027
 5905.00    1.62883   1.60657    0.027
 5906.00    1.62469   1.62234    0.027
 5907.00    1.62059   1.63479    0.026
 5908.00    1.61680   1.64399    0.026
 5909.00    1.61143   1.65052    0.026
 5910.00    1.59529   1.65468    0.026
 5911.00    1.58182   1.65715    0.026
 5912.00    1.58241   1.65923    0.026
 5913.00    1.58204   1.66068    0.027
 5914.00    1.57755   1.66002    0.027
 5915.00    1.57557   1.65736    0.026
 5916.00    1.58237   1.65468    0.026
 5917.00    1.59006   1.65257    0.026
 5918.00    1.60040   1.65077    0.026
 5919.00    1.60399   1.64953    0.027
 5920.00    1.59066   1.64994    0.027
 5921.00    1.58358   1.65262    0.027
 5922.00    1.58999   1.65619    0.027
 5923.00    1.58602   1.65960    0.027
 5924.00    1.56255   1.66291    0.027
 5925.00    1.54862   1.66619    0.027
 5926.00    1.55028   1.66871    0.027
 5927.00    1.56752   1.67017    0.027
 5928.00    1.60714   1.67089    0.027
 5929.00    1.63328   1.67099    0.027
 5930.00    1.64241   1.67011    0.027
 5931.00    1.64693   1.66852    0.027
 5932.00    1.64632   1.66757    0.027
 5933.00    1.63978   1.66737    0.027
 5934.00    1.62743   1.66687    0.027
 5935.00    1.63179   1.66613    0.027
 5936.00    1.65063   1.66683    0.027
 5937.00    1.64549   1.66950    0.027
 5938.00    1.62209   1.67187    0.026
 5939.00    1.61868   1.67310    0.026
 5940.00    1.62868   1.67451    0.026
 5941.00    1.64152   1.67626    0.026
 5942.00    1.65603   1.67710    0.026
 5943.00    1.65761   1.67741    0.026
 5944.00    1.65257   1.67803    0.026
 5945.00    1.64059   1.67856    0.026
 5946.00    1.62552   1.67890    0.026
 5947.00    1.62252   1.67989    0.026
 5948.00    1.62412   1.68123    0.027
 5949.00    1.63435   1.68136    0.027
 5950.00    1.64737   1.68039    0.026
 5951.00    1.63581   1.67961    0.026
 5952.00    1.61759   1.67837    0.026
 5953.00    1.61886   1.67504    0.026
 5954.00    1.62445   1.67113    0.026
 5955.00    1.62682   1.66966    0.026
 5956.00    1.62861   1.66962    0.026
 5957.00    1.61676   1.66815    0.026
 5958.00    1.60307   1.66637    0.027
 5959.00    1.62429   1.66729    0.027
 5960.00    1.64885   1.67056    0.027
 5961.00    1.63432   1.67400    0.027
 5962.00    1.61746   1.67748    0.027
 5963.00    1.61058   1.68232    0.027
 5964.00    1.60412   1.68811    0.026
 5965.00    1.62147   1.69344    0.027
 5966.00    1.63833   1.69711    0.027
 5967.00    1.64262   1.69964    0.027
 5968.00    1.64693   1.70219    0.026
 5969.00    1.65156   1.70464    0.026
 5970.00    1.65513   1.70656    0.026
 5971.00    1.64924   1.70852    0.026
 5972.00    1.64323   1.71103    0.026
 5973.00    1.63639   1.71309    0.026
 5974.00    1.62819   1.71382    0.026
 5975.00    1.61304   1.71296    0.026
 5976.00    1.60229   1.71023    0.026
 5977.00    1.60972   1.70576    0.026
 5978.00    1.61684   1.70047    0.026
 5979.00    1.62295   1.69498    0.026
 5980.00    1.62419   1.68997    0.026
 5981.00    1.61141   1.68619    0.026
 5982.00    1.60115   1.68400    0.026
 5983.00    1.59711   1.68256    0.026
 5984.00    1.59951   1.68117    0.026
 5985.00    1.61558   1.67983    0.026
 5986.00    1.62515   1.67960    0.026
 5987.00    1.62274   1.68008    0.026
 5988.00    1.61657   1.68003    0.026
 5989.00    1.60432   1.68045    0.026
 5990.00    1.59389   1.68361    0.026
 5991.00    1.58601   1.68871    0.026
 5992.00    1.59664   1.69307    0.026
 5993.00    1.63031   1.69694    0.026
 5994.00    1.64350   1.70182    0.026
 5995.00    1.63421   1.70648    0.026
 5996.00    1.62269   1.70914    0.026
 5997.00    1.60900   1.71019    0.026
 5998.00    1.59968   1.71067    0.026
 5999.00    1.59408   1.71026    0.026
 6000.00    1.60217   1.70862    0.026
 6001.00    1.62054   1.70624    0.026
 6002.00    1.62658   1.70360    0.026
 6003.00    1.62447   1.70069    0.026
 6004.00    1.61551   1.69814    0.025
 6005.00    1.60259   1.69671    0.025
 6006.00    1.58822   1.69539    0.025
 6007.00    1.57313   1.69279    0.025
 6008.00    1.58675   1.68943    0.025
 6009.00    1.61290   1.68691    0.026
 6010.00    1.64746   1.68609    0.026
 6011.00    1.68517   1.68626    0.026
 6012.00    1.69523   1.68613    0.026
 6013.00    1.69653   1.68564    0.026
 6014.00    1.67997   1.68655    0.026
 6015.00    1.65869   1.68922    0.026
 6016.00    1.62996   1.69099    0.026
 6017.00    1.59963   1.69001    0.026
 6018.00    1.61644   1.68830    0.027
 6019.00    1.64138   1.68829    0.027
 6020.00    1.63421   1.68846    0.027
 6021.00    1.62284   1.68697    0.027
 6022.00    1.60639   1.68587    0.026
 6023.00    1.58946   1.68690    0.026
 6024.00    1.60210   1.68856    0.026
 6025.00    1.61639   1.69017    0.026
 6026.00    1.62292   1.69361    0.026
 6027.00    1.62916   1.69873    0.027
 6028.00    1.62344   1.70384    0.026
 6029.00    1.61848   1.70939    0.026
 6030.00    1.63119   1.71600    0.026
 6031.00    1.64431   1.72211    0.026
 6032.00    1.66251   1.72681    0.026
 6033.00    1.67781   1.73170    0.026
 6034.00    1.66806   1.73681    0.026
 6035.00    1.65789   1.74058    0.026
 6036.00    1.64500   1.74300    0.025
 6037.00    1.63701   1.74526    0.025
 6038.00    1.65348   1.74737    0.025
 6039.00    1.67040   1.74849    0.025
 6040.00    1.68918   1.74859    0.025
 6041.00    1.69953   1.74840    0.025
 6042.00    1.68159   1.74851    0.025
 6043.00    1.66780   1.74881    0.026
 6044.00    1.66581   1.74964    0.026
 6045.00    1.66543   1.75126    0.026
 6046.00    1.66898   1.75360    0.026
 6047.00    1.66915   1.75646    0.026
 6048.00    1.66226   1.75983    0.026
 6049.00    1.66101   1.76286    0.026
 6050.00    1.67003   1.76483    0.026
 6051.00    1.66815   1.76632    0.026
 6052.00    1.64897   1.76696    0.026
 6053.00    1.62598   1.76588    0.026
 6054.00    1.59766   1.76342    0.026
 6055.00    1.58655   1.76094    0.026
 6056.00    1.59657   1.75803    0.026
 6057.00    1.61493   1.75413    0.026
 6058.00    1.64233   1.75041    0.026
 6059.00    1.65568   1.74814    0.026
 6060.00    1.65564   1.74703    0.026
 6061.00    1.65279   1.74614    0.026
 6062.00    1.64760   1.74542    0.026
 6063.00    1.64850   1.74495    0.026
 6064.00    1.65392   1.74435    0.026
 6065.00    1.66684   1.74268    0.025
 6066.00    1.68464   1.73986    0.025
 6067.00    1.69658   1.73832    0.025
 6068.00    1.70517   1.73961    0.025
 6069.00    1.71619   1.74230    0.025
 6070.00    1.72842   1.74587    0.025
 6071.00    1.73431   1.75248    0.025
 6072.00    1.73748   1.76167    0.025
 6073.00    1.72657   1.76970    0.025
 6074.00    1.71048   1.77525    0.025
 6075.00    1.70053   1.77913    0.025
 6076.00    1.69248   1.78133    0.025
 6077.00    1.67112   1.78108    0.025
 6078.00    1.64629   1.77812    0.026
 6079.00    1.64473   1.77293    0.027
 6080.00    1.64811   1.76685    0.028
 6081.00    1.67646   1.76084    0.029
 6082.00    1.70898   1.75404    0.030
 6083.00    1.72239   1.74660    0.030
 6084.00    1.73339   1.74143    0.030
 6085.00    1.72040   1.73906    0.028
 6086.00    1.70531   1.73657    0.027
 6087.00    1.69877   1.73424    0.026
 6088.00    1.69267   1.73469    0.026
 6089.00    1.67821   1.73655    0.026
 6090.00    1.66350   1.73666    0.026
 6091.00    1.64078   1.73592    0.026
 6092.00    1.61999   1.73672    0.026
 6093.00    1.64003   1.73806    0.025
 6094.00    1.65912   1.73809    0.025
 6095.00    1.66666   1.73855    0.025
 6096.00    1.67511   1.74159    0.025
 6097.00    1.69114   1.74532    0.025
 6098.00    1.70292   1.74777    0.025
 6099.00    1.68836   1.75023    0.025
 6100.00    1.67551   1.75283    0.025
 6101.00    1.67104   1.75329    0.025
 6102.00    1.66996   1.75026    0.025
 6103.00    1.68231   1.74443    0.025
 6104.00    1.69176   1.73879    0.025
 6105.00    1.69167   1.73576    0.025
 6106.00    1.68690   1.73317    0.025
 6107.00    1.66913   1.72967    0.025
 6108.00    1.65758   1.72948    0.025
 6109.00    1.66086   1.73541    0.026
 6110.00    1.66768   1.74312    0.026
 6111.00    1.68175   1.74879    0.026
 6112.00    1.69846   1.75277    0.026
 6113.00    1.71988   1.75724    0.026
 6114.00    1.72309   1.76284    0.026
 6115.00    1.69781   1.76686    0.026
 6116.00    1.67712   1.76752    0.026
 6117.00    1.66274   1.76699    0.026
 6118.00    1.65542   1.76713    0.026
 6119.00    1.65663   1.76599    0.026
 6120.00    1.65508   1.76124    0.025
 6121.00    1.65057   1.75404    0.025
 6122.00    1.64977   1.74679    0.025
 6123.00    1.65247   1.73979    0.025
 6124.00    1.66244   1.73393    0.025
 6125.00    1.67845   1.73043    0.025
 6126.00    1.69292   1.72829    0.025
 6127.00    1.70625   1.72793    0.025
 6128.00    1.71144   1.73196    0.025
 6129.00    1.71142   1.73820    0.025
 6130.00    1.70313   1.74273    0.025
 6131.00    1.69020   1.74670    0.025
 6132.00    1.67495   1.75086    0.025
 6133.00    1.65857   1.75311    0.025
 6134.00    1.65162   1.75290    0.025
 6135.00    1.64865   1.75065    0.026
 6136.00    1.63644   1.74502    0.026
 6137.00    1.62089   1.73503    0.026
 6138.00    1.63707   1.72338    0.026
 6139.00    1.66294   1.71437    0.026
 6140.00    1.68811   1.70899    0.026
 6141.00    1.71311   1.70500    0.026
 6142.00    1.70267   1.70375    0.026
 6143.00    1.68492   1.71027    0.026
 6144.00    1.69251   1.72321    0.026
 6145.00    1.70423   1.73477    0.026
 6146.00    1.71005   1.74253    0.026
 6147.00    1.71515   1.75041    0.025
 6148.00    1.70541   1.75889    0.025
 6149.00    1.69444   1.76326    0.025
 6150.00    1.68346   1.76233    0.025
 6151.00    1.67248   1.75941    0.025
 6152.00    1.67483   1.75654    0.024
 6153.00    1.67712   1.75322    0.024
 6154.00    1.66517   1.74920    0.024
 6155.00    1.65364   1.74507    0.024
 6156.00    1.65012   1.74184    0.025
 6157.00    1.64888   1.73930    0.025
 6158.00    1.67384   1.73459    0.025
 6159.00    1.69488   1.72646    0.026
 6160.00    1.68452   1.71668    0.026
 6161.00    1.67277   1.70525    0.025
 6162.00    1.65272   1.68957    0.025
 6163.00    1.63468   1.67218    0.025
 6164.00    1.62624   1.65782    0.025
 6165.00    1.62222   1.64641    0.025
 6166.00    1.63537   1.63616    0.025
 6167.00    1.64826   1.63036    0.026
 6168.00    1.66029   1.63221    0.026
 6169.00    1.66817   1.63743    0.026
 6170.00    1.66472   1.64073    0.026
 6171.00    1.66616   1.64455    0.026
 6172.00    1.67902   1.65204    0.026
 6173.00    1.68254   1.65868    0.026
 6174.00    1.66715   1.66150    0.025
 6175.00    1.65466   1.66637    0.025
 6176.00    1.64731   1.67532    0.025
 6177.00    1.63866   1.68283    0.025
 6178.00    1.62804   1.68771    0.025
 6179.00    1.62039   1.69422    0.025
 6180.00    1.61677   1.70142    0.025
 6181.00    1.62458   1.70624    0.025
 6182.00    1.64602   1.71047    0.025
 6183.00    1.66166   1.71554    0.024
 6184.00    1.67121   1.71877    0.024
 6185.00    1.68039   1.71965    0.025
 6186.00    1.68921   1.71988    0.025
 6187.00    1.69585   1.71805    0.025
 6188.00    1.70069   1.71271    0.025
 6189.00    1.70187   1.70594    0.025
 6190.00    1.70041   1.69889    0.025
 6191.00    1.69486   1.69006    0.025
 6192.00    1.68672   1.68015    0.025
 6193.00    1.67835   1.67371    0.025
 6194.00    1.66984   1.67205    0.025
 6195.00    1.64923   1.67158    0.026
 6196.00    1.62281   1.67204   -2.000
 6197.00    1.61233   1.67744   -2.000
 6198.00    1.60846   1.68649   -2.000
 6199.00    1.63233   1.69345   -2.000
 6200.00    1.66603   1.69736   -2.000
 6201.00    1.70040   1.70134   -2.000
 6202.00    1.73497   1.70588   -2.000
 6203.00    1.72461   1.70881   -2.000
 6204.00    1.70310   1.71012   -2.000
 6205.00    1.69075   1.71258   -2.000
 6206.00    1.68025   1.71727   -2.000
 6207.00    1.68920   1.72212   -2.000
 6208.00    1.70122   1.72551    0.026
 6209.00    1.71753   1.72781    0.026
 6210.00    1.73434   1.72904    0.025
 6211.00    1.73665   1.72798    0.025
 6212.00    1.73782   1.72425    0.025
 6213.00    1.73581   1.71812    0.025
 6214.00    1.73367   1.70942    0.024
 6215.00    1.72416   1.69890    0.024
 6216.00    1.71468   1.68829    0.024
 6217.00    1.71053   1.67830    0.024
 6218.00    1.70635   1.66958    0.024
 6219.00    1.70144   1.66302    0.025
 6220.00    1.69656   1.65863    0.025
 6221.00    1.69205   1.65676    0.025
 6222.00    1.68967   1.65778    0.025
 6223.00    1.70370   1.65996    0.025
 6224.00    1.71887   1.66175    0.025
 6225.00    1.74070   1.66406    0.026
 6226.00    1.75498   1.66752    0.026
 6227.00    1.73426   1.67030    0.026
 6228.00    1.71751   1.67093    0.026
 6229.00    1.71586   1.67022    0.026
 6230.00    1.71461   1.66825    0.026
 6231.00    1.71466   1.66408    0.026
 6232.00    1.71385   1.65940    0.026
 6233.00    1.71075   1.65631    0.025
 6234.00    1.71243   1.65396    0.025
 6235.00    1.72511   1.65341    0.025
 6236.00    1.72855   1.65674    0.025
 6237.00    1.71357   1.66227    0.024
 6238.00    1.69861   1.66739    0.024
 6239.00    1.68371   1.67178    0.024
 6240.00    1.67362   1.67393    0.024
 6241.00    1.67085   1.67276    0.024
 6242.00    1.67361   1.66986    0.024
 6243.00    1.68376   1.66506    0.024
 6244.00    1.69863   1.65824    0.024
 6245.00    1.71905   1.65328    0.024
 6246.00    1.73040   1.65130    0.025
 6247.00    1.73235   1.64962    0.025
 6248.00    1.72040   1.64981    0.025
 6249.00    1.69575   1.65409    0.025
 6250.00    1.68930   1.65916    0.025
 6251.00    1.69753   1.66310    0.025
 6252.00    1.70743   1.66685    0.025
 6253.00    1.71851   1.66856    0.025
 6254.00    1.72923   1.66705    0.026
 6255.00    1.73973   1.66357    0.026
 6256.00    1.74239   1.65834    0.026
 6257.00    1.74080   1.65145    0.026
 6258.00    1.72968   1.64504    0.026
 6259.00    1.71407   1.64063    0.027
 6260.00    1.71759   1.63895    0.028
 6261.00    1.72891   1.64012    0.029
 6262.00    1.74833   1.64331    0.030
 6263.00    1.77056   1.64986    0.030
 6264.00    1.80104   1.66040    0.030
 6265.00    1.83393   1.67093    0.030
 6266.00    1.83674   1.67912    0.028
 6267.00    1.83224   1.68795    0.027
 6268.00    1.81230   1.69663    0.026
 6269.00    1.78934   1.70107    0.025
 6270.00    1.78556   1.70299    0.025
 6271.00    1.78471   1.70615    0.024
 6272.00    1.77800   1.70928    0.024
 6273.00    1.77062   1.71087    0.024
 6274.00    1.76331   1.71255    0.025
 6275.00    1.75601   1.71511    0.025
 6276.00    1.73865   1.71765    0.025
 6277.00    1.72089   1.71949    0.025
 6278.00    1.71628   1.72035    0.025
 6279.00    1.71229   1.72040    0.025
 6280.00    1.72961   1.71968    0.000
 6281.00    1.74690   1.71788    0.000
 6282.00    1.76365   1.71597    0.000
 6283.00    1.77876   1.71496    0.000
 6284.00    1.77653   1.71466    0.000
 6285.00    1.77610   1.71553    0.000
 6286.00    1.78907   1.71832    0.000
 6287.00    1.80113   1.72300    0.000
 6288.00    1.80799   1.72882    0.000
 6289.00    1.81294   1.73478    0.000
 6290.00    1.80928   1.74023    0.000
 6291.00    1.80396   1.74485    0.000
 6292.00    1.79249   1.74809    0.000
 6293.00    1.78221   1.74916    0.000
 6294.00    1.77564   1.74805    0.000
 6295.00    1.77331   1.74566    0.000
 6296.00    1.78214   1.74208    0.000
 6297.00    1.78942   1.73687    0.000
 6298.00    1.79318   1.73117    0.000
 6299.00    1.79845   1.72664    0.000
 6300.00    1.80669   1.72250    0.000
 6301.00    1.81530   1.71787    0.000
 6302.00    1.82453   1.71420    0.000
 6303.00    1.82349   1.71303    0.000
 6304.00    1.80707   1.71389    0.000
 6305.00    1.79072   1.71529    0.000
 6306.00    1.77445   1.71744    0.000
 6307.00    1.77162   1.72222    0.000
 6308.00    1.78436   1.72921    0.000
 6309.00    1.80153   1.73551    0.000
 6310.00    1.82323   1.74051    0.000
 6311.00    1.83075   1.74522    0.000
 6312.00    1.82548   1.74859    0.000
 6313.00    1.81379   1.74939    0.000
 6314.00    1.79699   1.74804    0.000
 6315.00    1.78952   1.74431    0.000
 6316.00    1.78857   1.73914    0.000
 6317.00    1.79214   1.73504    0.000
 6318.00    1.79849   1.73077    0.000
 6319.00    1.81228   1.72490    0.000
 6320.00    1.83006   1.72174    0.000
 6321.00    1.83972   1.72283    0.024
 6322.00    1.84562   1.72392    0.024
 6323.00    1.83656   1.72554    0.024
 6324.00    1.82152   1.73151    0.024
 6325.00    1.81392   1.73978    0.024
 6326.00    1.80887   1.74666    0.024
 6327.00    1.81928   1.75334    0.024
 6328.00    1.83415   1.76091    0.024
 6329.00    1.82384   1.76779    0.024
 6330.00    1.80756   1.77269    0.025
 6331.00    1.80462   1.77554    0.025
 6332.00    1.80424   1.77755    0.025
 6333.00    1.81316   1.77909    0.025
 6334.00    1.82346   1.77882    0.025
 6335.00    1.80983   1.77606    0.025
 6336.00    1.79361   1.77196    0.025
 6337.00    1.81017   1.76814    0.025
 6338.00    1.82905   1.76465    0.025
 6339.00    1.83364   1.76045    0.025
 6340.00    1.83770   1.75665    0.025
 6341.00    1.82550   1.75629    0.025
 6342.00    1.81329   1.75832    0.024
 6343.00    1.80261   1.75918    0.024
 6344.00    1.79297   1.75959    0.024
 6345.00    1.79995   1.76124    0.024
 6346.00    1.80622   1.76271    0.024
 6347.00    1.80541   1.76216    0.024
 6348.00    1.80649   1.76152    0.024
 6349.00    1.82122   1.76304    0.024
 6350.00    1.83568   1.76597    0.024
 6351.00    1.84862   1.76851    0.024
 6352.00    1.85678   1.77142    0.025
 6353.00    1.84379   1.77544    0.024
 6354.00    1.82783   1.77775    0.024
 6355.00    1.80108   1.77664    0.025
 6356.00    1.78216   1.77378    0.025
 6357.00    1.78710   1.77026    0.025
 6358.00    1.79577   1.76379    0.025
 6359.00    1.81409   1.75438    0.026
 6360.00    1.83027   1.74589    0.026
 6361.00    1.84168   1.73904    0.026
 6362.00    1.85184   1.73112    0.026
 6363.00    1.85959   1.72365    0.026
 6364.00    1.86203   1.72052    0.026
 6365.00    1.85555   1.72070    0.026
 6366.00    1.84725   1.72195    0.026
 6367.00    1.83629   1.72583    0.025
 6368.00    1.82514   1.73362    0.025
 6369.00    1.81375   1.74336    0.025
 6370.00    1.81825   1.75293    0.025
 6371.00    1.84091   1.76224    0.024
 6372.00    1.86388   1.77214    0.024
 6373.00    1.88715   1.78173    0.024
 6374.00    1.89551   1.78935    0.024
 6375.00    1.89063   1.79545    0.024
 6376.00    1.86946   1.80125    0.024
 6377.00    1.83555   1.80649    0.024
 6378.00    1.82166   1.80931    0.024
 6379.00    1.82156   1.80977    0.024
 6380.00    1.83674   1.80974    0.024
 6381.00    1.86116   1.80917    0.025
 6382.00    1.87435   1.80679    0.025
 6383.00    1.88162   1.80421    0.025
 6384.00    1.86898   1.80311    0.025
 6385.00    1.84723   1.80222    0.025
 6386.00    1.83238   1.80193    0.025
 6387.00    1.82024   1.80337    0.025
 6388.00    1.83309   1.80493    0.025
 6389.00    1.85432   1.80569    0.025
 6390.00    1.85123   1.80678    0.025
 6391.00    1.84129   1.80762    0.024
 6392.00    1.82457   1.80664    0.025
 6393.00    1.80628   1.80381    0.025
 6394.00    1.81858   1.80013    0.025
 6395.00    1.83658   1.79726    0.025
 6396.00    1.84629   1.79467    0.025
 6397.00    1.85481   1.79108    0.025
 6398.00    1.84942   1.78942    0.025
 6399.00    1.84258   1.79104    0.025
 6400.00    1.84373   1.79149    0.025
 6401.00    1.84542   1.79041    0.025
 6402.00    1.86690   1.79278    0.025
 6403.00    1.88901   1.79635    0.025
 6404.00    1.88713   1.79728    0.025
 6405.00    1.88510   1.80029    0.025
 6406.00    1.87858   1.80671    0.025
 6407.00    1.87239   1.81107    0.024
 6408.00    1.87116   1.81239    0.025
 6409.00    1.86928   1.81436    0.025
 6410.00    1.86109   1.81675    0.025
 6411.00    1.85515   1.81566    0.025
 6412.00    1.86490   1.81174    0.025
 6413.00    1.87158   1.81000    0.025
 6414.00    1.86168   1.81004    0.025
 6415.00    1.85214   1.80772    0.025
 6416.00    1.84414   1.80570    0.025
 6417.00    1.83612   1.80706    0.025
 6418.00    1.82802   1.80780    0.025
 6419.00    1.82306   1.80655    0.025
 6420.00    1.82751   1.80605    0.025
 6421.00    1.83182   1.80532    0.024
 6422.00    1.83579   1.80370    0.024
 6423.00    1.84280   1.80368    0.024
 6424.00    1.85646   1.80520    0.024
 6425.00    1.86668   1.80686    0.024
 6426.00    1.87033   1.81084    0.024
 6427.00    1.87354   1.81727    0.024
 6428.00    1.87601   1.82236    0.025
 6429.00    1.87691   1.82548    0.025
 6430.00    1.87553   1.82798    0.025
 6431.00    1.87153   1.82824    0.025
 6432.00    1.86417   1.82574    0.025
 6433.00    1.86176   1.82298    0.025
 6434.00    1.86494   1.82005    0.025
 6435.00    1.85840   1.81714    0.025
 6436.00    1.84220   1.81672    0.025
 6437.00    1.83248   1.81869    0.025
 6438.00    1.82844   1.82057    0.025
 6439.00    1.83769   1.82161    0.025
 6440.00    1.85721   1.82391    0.025
 6441.00    1.86125   1.82820    0.025
 6442.00    1.85478   1.83160    0.025
 6443.00    1.83808   1.83420    0.025
 6444.00    1.81530   1.83994    0.025
 6445.00    1.82458   1.84732    0.024
 6446.00    1.85050   1.85188    0.024
 6447.00    1.86119   1.85426    0.024
 6448.00    1.86503   1.85591    0.024
 6449.00    1.84491   1.85378    0.024
 6450.00    1.81551   1.84638    0.025
 6451.00    1.80050   1.83749    0.025
 6452.00    1.79020   1.82949    0.025
 6453.00    1.74053   1.82062    0.024
 6454.00    1.67999   1.81347    0.024
 6455.00    1.59118   1.81224    0.024
 6456.00    1.49595   1.81389    0.024
 6457.00    1.46077   1.81664    0.024
 6458.00    1.43647   1.82248    0.024
 6459.00    1.47031   1.82890    0.024
 6460.00    1.51223   1.83379    0.025
 6461.00    1.57967   1.83909    0.025
 6462.00    1.64966   1.84286    0.025
 6463.00    1.68431   1.84226    0.025
 6464.00    1.71674   1.84146    0.025
 6465.00    1.73669   1.84226    0.025
 6466.00    1.75627   1.84056    0.025
 6467.00    1.77543   1.83925    0.025
 6468.00    1.79513   1.84278    0.025
 6469.00    1.82988   1.84707    0.024
 6470.00    1.86236   1.84977    0.024
 6471.00    1.86280   1.85348    0.024
 6472.00    1.86278   1.85719    0.025
 6473.00    1.85854   1.85867    0.025
 6474.00    1.85598   1.85931    0.024
 6475.00    1.86484   1.85852    0.025
 6476.00    1.87334   1.85671    0.025
 6477.00    1.87996   1.85652    0.024
 6478.00    1.88492   1.85596    0.024
 6479.00    1.88283   1.85317    0.025
 6480.00    1.88238   1.85124    0.025
 6481.00    1.88761   1.85024    0.024
 6482.00    1.88915   1.84609    0.024
 6483.00    1.87983   1.84021    0.025
 6484.00    1.87250   1.83622    0.025
 6485.00    1.87011   1.83238    0.025
 6486.00    1.87583   1.82773    0.025
 6487.00    1.89904   1.82533    0.025
 6488.00    1.91555   1.82574    0.025
 6489.00    1.91956   1.82617    0.025
 6490.00    1.91391   1.82525    0.025
 6491.00    1.89248   1.82284    0.025
 6492.00    1.87685   1.81825    0.025
 6493.00    1.86952   1.80999    0.025
 6494.00    1.87042   1.79671    0.025
 6495.00    1.88167   1.77994    0.025
 6496.00    1.88826   1.76324    0.025
 6497.00    1.88968   1.74692    0.024
 6498.00    1.89440   1.73142    0.024
 6499.00    1.90233   1.72154    0.024
 6500.00    1.90842   1.71877    0.024
 6501.00    1.91291   1.72206    0.024
 6502.00    1.91378   1.73115    0.024
 6503.00    1.91190   1.74424    0.024
 6504.00    1.91974   1.76060    0.024
 6505.00    1.93408   1.77836    0.025
 6506.00    1.93696   1.79479    0.025
 6507.00    1.93312   1.80927    0.025
 6508.00    1.92147   1.82144    0.025
 6509.00    1.90584   1.83061    0.025
 6510.00    1.91484   1.83752    0.025
 6511.00    1.93473   1.84261    0.025
 6512.00    1.94056   1.84525    0.025
 6513.00    1.94105   1.84652    0.025
 6514.00    1.93001   1.84791    0.025
 6515.00    1.91526   1.84800    0.025
 6516.00    1.92005   1.84599    0.025
 6517.00    1.93011   1.84402    0.025
 6518.00    1.93289   1.84233    0.025
 6519.00    1.93405   1.83924    0.025
 6520.00    1.92437   1.83670    0.024
 6521.00    1.91278   1.83683    0.024
 6522.00    1.91224   1.83757    0.024
 6523.00    1.91319   1.83882    0.024
 6524.00    1.90391   1.84234    0.024
 6525.00    1.89364   1.84672    0.024
 6526.00    1.89426   1.85000    0.024
 6527.00    1.89553   1.85212    0.025
 6528.00    1.92041   1.85404    0.000
 6529.00    1.94582   1.85554    0.000
 6530.00    1.96328   1.85538    0.000
 6531.00    1.97976   1.85446    0.000
 6532.00    1.97147   1.85458    0.000
 6533.00    1.96282   1.85492    0.000
 6534.00    1.94949   1.85494    0.000
 6535.00    1.93762   1.85576    0.000
 6536.00    1.93880   1.85746    0.000
 6537.00    1.94450   1.85939    0.000
 6538.00    1.97986   1.86185    0.000
 6539.00    2.00822   1.86513    0.000
 6540.00    2.00081   1.86822    0.000
 6541.00    1.99044   1.86998    0.000
 6542.00    1.96786   1.87047    0.000
 6543.00    1.95052   1.86988    0.000
 6544.00    1.95112   1.86718    0.000
 6545.00    1.95478   1.86201    0.000
 6546.00    1.96724   1.85480    0.000
 6547.00    1.98169   1.84622    0.000
 6548.00    2.00108   1.83802    0.000
 6549.00    2.01050   1.82994    0.000
 6550.00    1.99883   1.82134    0.000
 6551.00    1.97963   1.81442    0.000
 6552.00    1.94658   1.80900    0.000
 6553.00    1.92828   1.80265    0.000
 6554.00    1.93371   1.79515    0.000
 6555.00    1.93549   1.78620    0.000
 6556.00    1.93210   1.77515    0.000
 6557.00    1.92935   1.76182    0.000
 6558.00    1.92742   1.74530    0.000
 6559.00    1.93632   1.72418    0.000
 6560.00    1.95708   1.69909    0.000
 6561.00    1.97459   1.67197    0.000
 6562.00    1.98893   1.64068    0.000
 6563.00    1.98279   1.60416    0.000
 6564.00    1.95919   1.57187    0.000
 6565.00    1.94668   1.54986    0.000
 6566.00    1.94249   1.53136    0.000
 6567.00    1.94070   1.52324    0.000
 6568.00    1.94048   1.53849    0.000
 6569.00    1.93380   1.56490    0.000
 6570.00    1.92339   1.59210    0.000
 6571.00    1.92407   1.62647    0.000
 6572.00    1.93033   1.66298    0.000
 6573.00    1.93172   1.69101    0.000
 6574.00    1.93098   1.71353    0.000
 6575.00    1.93312   1.73347    0.000
 6576.00    1.93632   1.74745    0.000
 6577.00    1.96308   1.75761    0.000
 6578.00    1.99729   1.76729    0.000
 6579.00    2.02961   1.77616    0.000
 6580.00    2.06142   1.78488    0.000
 6581.00    2.07990   1.79340    0.000
 6582.00    2.09550   1.80083    0.000
 6583.00    2.07325   1.80788    0.000
 6584.00    2.04451   1.81449    0.000
 6585.00    2.02408   1.81966    0.000
 6586.00    2.00474   1.82487    0.000
 6587.00    1.98828   1.83037    0.000
 6588.00    1.97208   1.83524    0.000
 6589.00    1.95066   1.83973    0.000
 6590.00    1.92895   1.84218    0.000
 6591.00    1.93867   1.84385    0.000
 6592.00    1.94897   1.84426    0.000
 6593.00    1.95102   1.84061    0.000
 6594.00    1.95289   1.83525    0.000
 6595.00    1.95057   1.83070    0.000
 6596.00    1.94721   1.82505    0.000
 6597.00    1.93050   1.81907    0.000
 6598.00    1.91412   1.81754    0.000
 6599.00    1.90057   1.81960    0.000
 6600.00    1.88954   1.82220    0.000
 6601.00    1.89454   1.82682    0.000
 6602.00    1.90344   1.83296    0.000
 6603.00    1.93174   1.83840    0.000
 6604.00    1.95732   1.84345    0.000
 6605.00    1.97195   1.84712    0.000
 6606.00    1.98187   1.84808    0.000
 6607.00    1.97604   1.84743    0.000
 6608.00    1.97028   1.84559    0.000
 6609.00    1.96470   1.84212    0.026
 6610.00    1.95892   1.83850    0.026
 6611.00    1.95267   1.83669    0.026
 6612.00    1.95250   1.83624    0.026
 6613.00    1.96500   1.83627    0.026
 6614.00    1.97294   1.83903    0.026
 6615.00    1.97260   1.84479    0.026
 6616.00    1.97603   1.85058    0.026
 6617.00    1.98544   1.85543    0.025
 6618.00    1.98890   1.86076    0.025
 6619.00    1.98408   1.86676    0.025
 6620.00    1.97280   1.87083    0.025
 6621.00    1.95362   1.87274    0.025
 6622.00    1.96069   1.87412    0.025
 6623.00    1.99613   1.87439    0.025
 6624.00    2.01925   1.87268    0.025
 6625.00    2.03066   1.86934    0.025
 6626.00    2.01621   1.86538    0.026
 6627.00    1.98006   1.86134    0.026
 6628.00    1.95107   1.85633    0.026
 6629.00    1.92740   1.85162    0.026
 6630.00    1.91402   1.84894    0.026
 6631.00    1.90735   1.84622    0.026
 6632.00    1.91681   1.84321    0.026
 6633.00    1.93544   1.84099    0.026
 6634.00    1.95261   1.83843    0.026
 6635.00    1.96906   1.83609    0.026
 6636.00    1.97450   1.83469    0.026
 6637.00    1.97522   1.83322    0.026
 6638.00    1.96487   1.83298    0.026
 6639.00    1.95046   1.83516    0.026
 6640.00    1.94259   1.83744    0.026
 6641.00    1.93677   1.83967    0.026
 6642.00    1.96001   1.84299    0.025
 6643.00    1.99078   1.84492    0.025
 6644.00    1.99782   1.84492    0.025
 6645.00    1.99985   1.84604    0.025
 6646.00    1.99784   1.84692    0.025
 6647.00    1.99515   1.84515    0.025
 6648.00    1.99426   1.84437    0.026
 6649.00    1.99359   1.84605    0.026
 6650.00    2.00565   1.84665    0.026
 6651.00    2.01882   1.84615    0.026
 6652.00    2.00921   1.84677    0.026
 6653.00    1.99843   1.84772    0.026
 6654.00    2.00074   1.84722    0.026
 6655.00    2.00343   1.84613    0.026
 6656.00    2.01640   1.84570    0.026
 6657.00    2.02765   1.84496    0.027
 6658.00    2.00267   1.84374    0.026
 6659.00    1.97905   1.84308    0.026
 6660.00    1.97184   1.84168    0.027
 6661.00    1.96393   1.83936    0.027
 6662.00    1.95018   1.83750    0.026
 6663.00    1.93721   1.83456    0.026
 6664.00    1.92901   1.83006    0.026
 6665.00    1.92217   1.82690    0.025
 6666.00    1.92186   1.82454    0.025
 6667.00    1.92774   1.82122    0.025
 6668.00    1.95805   1.82050    0.025
 6669.00    1.98084   1.82294    0.025
 6670.00    1.97898   1.82538    0.025
 6671.00    1.97692   1.82890    0.025
 6672.00    1.97433   1.83422    0.026
 6673.00    1.97101   1.83932    0.026
 6674.00    1.96594   1.84297    0.026
 6675.00    1.96282   1.84474    0.026
 6676.00    1.96370   1.84457    0.026
 6677.00    1.96200   1.84185    0.026
 6678.00    1.95569   1.83559    0.026
 6679.00    1.95541   1.82803    0.026
 6680.00    1.96454   1.82120    0.026
 6681.00    1.97378   1.81323    0.027
 6682.00    1.98316   1.80621    0.027
 6683.00    1.98309   1.80471    0.027
 6684.00    1.97161   1.80642    0.027
 6685.00    1.98284   1.80824    0.027
 6686.00    2.01824   1.81298    0.027
 6687.00    2.03407   1.82035    0.027
 6688.00    2.03151   1.82630    0.026
 6689.00    2.01313   1.83122    0.026
 6690.00    1.98166   1.83630    0.026
 6691.00    1.97282   1.84003    0.026
 6692.00    1.98047   1.84213    0.026
 6693.00    1.97664   1.84368    0.026
 6694.00    1.96547   1.84445    0.026
 6695.00    1.95693   1.84408    0.026
 6696.00    1.94988   1.84278    0.000
 6697.00    1.93846   1.84097    0.000
 6698.00    1.92494   1.83940    0.000
 6699.00    1.93454   1.83745    0.000
 6700.00    1.95387   1.83555    0.000
 6701.00    1.95935   1.83555    0.000
 6702.00    1.95985   1.83616    0.000
 6703.00    1.95293   1.83686    0.000
 6704.00    1.94375   1.83878    0.000
 6705.00    1.95276   1.84053    0.000
 6706.00    1.96638   1.84188    0.000
 6707.00    2.00625   1.84314    0.000
 6708.00    2.05152   1.84363    0.000
 6709.00    2.03544   1.84421    0.000
 6710.00    2.00943   1.84468    0.000
 6711.00    1.99863   1.84385    0.000
 6712.00    1.98967   1.84276    0.000
 6713.00    2.00672   1.84112    0.000
 6714.00    2.02593   1.83713    0.000
 6715.00    2.04983   1.83221    0.000
 6716.00    2.07395   1.82689    0.000
 6717.00    2.08697   1.81990    0.000
 6718.00    2.09908   1.81268    0.000
 6719.00    2.06857   1.80705    0.000
 6720.00    2.03913   1.80293    0.000
 6721.00    2.03049   1.79996    0.000
 6722.00    2.02400   1.79966    0.000
 6723.00    2.04216   1.80264    0.000
 6724.00    2.05758   1.80649    0.000
 6725.00    2.05124   1.81077    0.000
 6726.00    2.04281   1.81596    0.000
 6727.00    2.02188   1.82111    0.000
 6728.00    2.00597   1.82545    0.000
 6729.00    2.01381   1.82868    0.000
 6730.00    2.01797   1.83153    0.000
 6731.00    2.00792   1.83463    0.000
 6732.00    2.00907   1.83707    0.000
 6733.00    2.04623   1.83875    0.000
 6734.00    2.06261   1.84069    0.000
 6735.00    2.02231   1.84227    0.000
 6736.00    1.98574   1.84286    0.000
 6737.00    1.95788   1.84302    0.000
 6738.00    1.94317   1.84263    0.000
 6739.00    1.95505   1.84146    0.000
 6740.00    1.96926   1.83994    0.000
 6741.00    1.98754   1.83810    0.000
 6742.00    1.99422   1.83600    0.000
 6743.00    1.98301   1.83381    0.000
 6744.00    1.97102   1.83194    0.000
 6745.00    1.95796   1.83083    0.000
 6746.00    1.95120   1.82927    0.000
 6747.00    1.95196   1.82755    0.000
 6748.00    1.95059   1.82720    0.000
 6749.00    1.94700   1.82640    0.000
 6750.00    1.95106   1.82437    0.000
 6751.00    1.96219   1.82331    0.000
 6752.00    1.96833   1.82309    0.000
 6753.00    1.97039   1.82217    0.030
 6754.00    1.96493   1.82188    0.031
 6755.00    1.95407   1.82414    0.031
 6756.00    1.91987   1.82677    0.031
 6757.00    1.87096   1.82964    0.031
 6758.00    1.86185   1.83559    0.031
 6759.00    1.87466   1.84174    0.031
 6760.00    2.01063   1.84701    0.032
 6761.00    2.20560   1.85376    0.033
 6762.00    2.29521   1.85953    0.052
 6763.00    2.34123   1.86332    0.251
 6764.00    2.35619   1.86665   -1.000
 6765.00    2.36017   1.86826   -1.000
 6766.00    2.38989   1.86783   -1.000
 6767.00    2.42730   1.86657   -1.000
 6768.00    2.41512   1.86409   -1.000
 6769.00    2.39067   1.86107   -1.000
 6770.00    2.35647   1.85847   -1.000
 6771.00    2.32032   1.85568   -1.000
 6772.00    2.24677   1.85432    0.071
 6773.00    2.16733   1.85518    0.033
 6774.00    2.13648   1.85646    0.031
 6775.00    2.11129   1.85920    0.031
 6776.00    2.08712   1.86448    0.031
 6777.00    2.06302   1.86991    0.031
 6778.00    2.07814   1.87456    0.031
 6779.00    2.09497   1.87944    0.031
 6780.00    2.11551   1.88328    0.032
 6781.00    2.13543   1.88445    0.032
 6782.00    2.12483   1.88361    0.031
 6783.00    2.11585   1.88085    0.031
 6784.00    2.13593   1.87548    0.031
 6785.00    2.15203   1.86885    0.030
 6786.00    2.12457   1.86200    0.031
 6787.00    2.10427   1.85504    0.031
 6788.00    2.13912   1.84961    0.031
 6789.00    2.16900   1.84641    0.031
 6790.00    2.16995   1.84459    0.032
 6791.00    2.17291   1.84485    0.032
 6792.00    2.18517   1.84722    0.032
 6793.00    2.19298   1.84939    0.032
 6794.00    2.18396   1.85145    0.032
 6795.00    2.17595   1.85439    0.032
 6796.00    2.17112   1.85632    0.032
 6797.00    2.16056   1.85720    0.032
 6798.00    2.13462   1.85922    0.031
 6799.00    2.11262   1.86143    0.031
 6800.00    2.09968   1.86308    0.031
 6801.00    2.08675   1.86587    0.030
 6802.00    2.07386   1.86914    0.031
 6803.00    2.06836   1.87189    0.031
 6804.00    2.07568   1.87470    0.031
 6805.00    2.09063   1.87711    0.031
 6806.00    2.11717   1.87911    0.031
 6807.00    2.12056   1.88016    0.031
 6808.00    2.09311   1.88043    0.031
 6809.00    2.07734   1.88137    0.031
 6810.00    2.07529   1.88122    0.031
 6811.00    2.07266   1.88028    0.031
 6812.00    2.06942   1.88093    0.032
 6813.00    2.11343   1.88084    0.033
 6814.00    2.20057   1.87999    0.033
 6815.00    2.23065   1.88048    0.034
 6816.00    2.21481   1.88064    0.033
 6817.00    2.16912   1.88067    0.033
 6818.00    2.10231   1.88147    0.033
 6819.00    2.09295   1.88217    0.032
 6820.00    2.11926   1.88363    0.032
 6821.00    2.14695   1.88558    0.031
 6822.00    2.17537   1.88736    0.032
 6823.00    2.14687   1.88988    0.031
 6824.00    2.09154   1.89257    0.031
 6825.00    2.08042   1.89492    0.030
 6826.00    2.08728   1.89732    0.031
 6827.00    2.11414   1.89926    0.031
 6828.00    2.14796   1.90039    0.031
 6829.00    2.18073   1.90098    0.032
 6830.00    2.21319   1.90121    0.033
 6831.00    2.18643   1.90088    0.032
 6832.00    2.14532   1.90047    0.031
 6833.00    2.12425   1.90067    0.031
 6834.00    2.10711   1.90119    0.032
 6835.00    2.11660   1.90198    0.032
 6836.00    2.13015   1.90287    0.033
 6837.00    2.14036   1.90327    0.033
 6838.00    2.15020   1.90318    0.034
 6839.00    2.16168   1.90186    0.034
 6840.00    2.17328   1.89878    0.035
 6841.00    2.13718   1.89506    0.035
 6842.00    2.09918   1.89082    0.035
 6843.00    2.06320   1.88610    0.033
 6844.00    2.03011   1.88256    0.031
 6845.00    2.11149   1.88085    0.032
 6846.00    2.18703   1.88079    0.032
 6847.00    2.16405   1.88281    0.032
 6848.00    2.14519   1.88672    0.031
 6849.00    2.16953   1.89144    0.031
 6850.00    2.18714   1.89596    0.031
 6851.00    2.15475   1.90005    0.031
 6852.00    2.12570   1.90294    0.031
 6853.00    2.11567   1.90372    0.031
 6854.00    2.11023   1.90316    0.031
 6855.00    2.12555   1.90104    0.031
 6856.00    2.13004   1.89732    0.032
 6857.00    2.09441   1.89372    0.032
 6858.00    2.06234   1.88945    0.032
 6859.00    2.04134   1.88485    0.032
 6860.00    2.03064   1.88248    0.033
 6861.00    2.04708   1.88054    0.033
 6862.00    2.05990   1.87859    0.033
 6863.00    2.06454   1.87949    0.032
 6864.00    2.06851   1.88141    0.032
 6865.00    2.07112   1.88265    0.032
 6866.00    2.05729   1.88535    0.032
 6867.00    2.01540   1.88895    0.032
 6868.00    2.00768   1.89099    0.032
 6869.00    2.05106   1.89222    0.032
 6870.00    2.06365   1.89398    0.032
 6871.00    2.03581   1.89468    0.031
 6872.00    2.04366   1.89389    0.031
 6873.00    2.09281   1.89413    0.032
 6874.00    2.10608   1.89533    0.032
 6875.00    2.08277   1.89595    0.031
 6876.00    2.05684   1.89755    0.031
 6877.00    2.02856   1.90095    0.031
 6878.00    2.06282   1.90436    0.031
 6879.00    2.14668   1.90743    0.032
 6880.00    2.17024   1.91103    0.033
 6881.00    2.15171   1.91434    0.032
 6882.00    2.11080   1.91626    0.032
 6883.00    2.05618   1.91723    0.033
 6884.00    2.03835   1.91785    0.033
 6885.00    2.04017   1.91808    0.033
 6886.00    2.05169   1.91789    0.032
 6887.00    2.06771   1.91826    0.031
 6888.00    2.06212   1.92032    0.031
 6889.00    2.04789   1.92294    0.032
 6890.00    2.05906   1.92583    0.032
 6891.00    2.07889   1.93054    0.032
 6892.00    2.08523   1.93540    0.031
 6893.00    2.08772   1.93896    0.031
 6894.00    2.07155   1.94290    0.031
 6895.00    2.05098   1.94657    0.032
 6896.00    2.08505   1.94842    0.032
 6897.00    2.12955   1.94989    0.033
 6898.00    2.14244   1.95155    0.033
 6899.00    2.15067   1.95242    0.034
 6900.00    2.13336   1.95306    0.034
 6901.00    2.11329   1.95426    0.035
 6902.00    2.09116   1.95591    0.034
 6903.00    2.06889   1.95768    0.032
 6904.00    2.07076   1.95970    0.033
 6905.00    2.07351   1.96251    0.033
 6906.00    2.09045   1.96563    0.032
 6907.00    2.10588   1.96858    0.032
 6908.00    2.06743   1.97167    0.032
 6909.00    2.03109   1.97456    0.032
 6910.00    2.02815   1.97706    0.032
 6911.00    2.02699   1.97870    0.032
 6912.00    2.04358   1.97910    0.032
 6913.00    2.05994   1.97900    0.032
 6914.00    2.07463   1.97767    0.032
 6915.00    2.08802   1.97492    0.032
 6916.00    2.09423   1.97263    0.032
 6917.00    2.09665   1.97002    0.031
 6918.00    2.08230   1.96712    0.031
 6919.00    2.07665   1.96613    0.031
 6920.00    2.10252   1.96564    0.031
 6921.00    2.13147   1.96529    0.032
 6922.00    2.16977   1.96636    0.032
 6923.00    2.18913   1.96720    0.032
 6924.00    2.15950   1.96731    0.032
 6925.00    2.14348   1.96715    0.032
 6926.00    2.15772   1.96627    0.033
 6927.00    2.15514   1.96478    0.033
 6928.00    2.12012   1.96318    0.033
 6929.00    2.09735   1.96202    0.033
 6930.00    2.09515   1.96156    0.033
 6931.00    2.09541   1.96187    0.033
 6932.00    2.09929   1.96313    0.033
 6933.00    2.10287   1.96489    0.033
 6934.00    2.10604   1.96673    0.033
 6935.00    2.09837   1.96916    0.033
 6936.00    2.07832   1.97143    0.033
 6937.00    2.08237   1.97321    0.033
 6938.00    2.11068   1.97593    0.033
 6939.00    2.11183   1.97869    0.032
 6940.00    2.08889   1.98080    0.032
 6941.00    2.07354   1.98357    0.032
 6942.00    2.06411   1.98597    0.032
 6943.00    2.04517   1.98701    0.032
 6944.00    2.01969   1.98789    0.032
 6945.00    2.04869   1.98783    0.032
 6946.00    2.11053   1.98637    0.033
 6947.00    2.13534   1.98549    0.033
 6948.00    2.14068   1.98448    0.033
 6949.00    2.14839   1.98305    0.033
 6950.00    2.15718   1.98345    0.034
 6951.00    2.15321   1.98419    0.034
 6952.00    2.14422   1.98417    0.034
 6953.00    2.14670   1.98550    0.034
 6954.00    2.15301   1.98650    0.034
 6955.00    2.15184   1.98628    0.033
 6956.00    2.14857   1.98736    0.033
 6957.00    2.11721   1.98874    0.033
 6958.00    2.07935   1.99003    0.032
 6959.00    2.09345   1.99318    0.032
 6960.00    2.11719   1.99718    0.032
 6961.00    2.12774   2.00143    0.032
 6962.00    2.13640   2.00663    0.032
 6963.00    2.11342   2.01176    0.032
 6964.00    2.08715   2.01651    0.032
 6965.00    2.08339   2.02119    0.032
 6966.00    2.08112   2.02497    0.032
 6967.00    2.13093   2.02824    0.032
 6968.00    2.18238   2.03142    0.033
 6969.00    2.11555   2.03367    0.033
 6970.00    2.05188   2.03543    0.033
 6971.00    2.08486   2.03725    0.034
 6972.00    2.11562   2.03799    0.034
 6973.00    2.11329   2.03778    0.034
 6974.00    2.10844   2.03708    0.033
 6975.00    2.07942   2.03456    0.033
 6976.00    2.05659   2.03036    0.034
 6977.00    2.07691   2.02550    0.033
 6978.00    2.09271   2.01898    0.033
 6979.00    2.08428   2.01131    0.033
 6980.00    2.08939   2.00515    0.033
 6981.00    2.15285   2.00033    0.033
 6982.00    2.18583   1.99676    0.033
 6983.00    2.11057   1.99757    0.032
 6984.00    2.05568   2.00203    0.032
 6985.00    2.06153   2.00784    0.032
 6986.00    2.07662   2.01638    0.032
 6987.00    2.11520   2.02582    0.033
 6988.00    2.14295   2.03362    0.033
 6989.00    2.14704   2.04030    0.033
 6990.00    2.14270   2.04507    0.033
 6991.00    2.12241   2.04758    0.033
 6992.00    2.10346   2.04871    0.034
 6993.00    2.08673   2.04880    0.034
 6994.00    2.07479   2.04852    0.034
 6995.00    2.06977   2.04818    0.034
 6996.00    2.08044   2.04790    0.035
 6997.00    2.11114   2.04752    0.035
 6998.00    2.12571   2.04692    0.034
 6999.00    2.12212   2.04603    0.034
 7000.00    2.10265   2.04429    0.033
 7001.00    2.06744   2.04221    0.033
 7002.00    2.05687   2.04001    0.033
 7003.00    2.06786   2.03742    0.032
 7004.00    2.06179   2.03528    0.032
 7005.00    2.04259   2.03373    0.032
 7006.00    2.04197   2.03270    0.032
 7007.00    2.05393   2.03255    0.032
 7008.00    2.07141   2.03304    0.033
 7009.00    2.09218   2.03429    0.033
 7010.00    2.08234   2.03634    0.033
 7011.00    2.05666   2.03839    0.033
 7012.00    2.06593   2.04047    0.033
 7013.00    2.09089   2.04257    0.034
 7014.00    2.07655   2.04339    0.034
 7015.00    2.04704   2.04327    0.034
 7016.00    2.04924   2.04254    0.034
 7017.00    2.06184   2.04043    0.035
 7018.00    2.08465   2.03859    0.035
 7019.00    2.11025   2.03746    0.035
 7020.00    2.08862   2.03658    0.034
 7021.00    2.05630   2.03782    0.033
 7022.00    2.09084   2.04043    0.033
 7023.00    2.13745   2.04297    0.033
 7024.00    2.13277   2.04632    0.033
 7025.00    2.12098   2.04937    0.033
 7026.00    2.07313   2.05115    0.033
 7027.00    2.02170   2.05262    0.033
 7028.00    2.02890   2.05387    0.033
 7029.00    2.03978   2.05523    0.033
 7030.00    2.05010   2.05724    0.033
 7031.00    2.06030   2.05986    0.034
 7032.00    2.04320   2.06327    0.034
 7033.00    2.02706   2.06684    0.035
 7034.00    2.03708   2.07022    0.035
 7035.00    2.04857   2.07325    0.035
 7036.00    2.08073   2.07524    0.035
 7037.00    2.10448   2.07698    0.035
 7038.00    2.05062   2.07810    0.035
 7039.00    2.01151   2.07848    0.036
 7040.00    2.07178   2.08041    0.035
 7041.00    2.12558   2.08295    0.035
 7042.00    2.14553   2.08595    0.035
 7043.00    2.17104   2.09181    0.035
 7044.00    2.21999   2.09876    0.035
 7045.00    2.24910   2.10551    0.035
 7046.00    2.20923   2.11354    0.034
 7047.00    2.17492   2.12103    0.034
 7048.00    2.15688   2.12621    0.034
 7049.00    2.14102   2.13032    0.034
 7050.00    2.13060   2.13226   -2.000
 7051.00    2.12658   2.13057   -2.000
 7052.00    2.13634   2.12617   -2.000
 7053.00    2.15706   2.11808   -2.000
 7054.00    2.19825   2.10605   -2.000
 7055.00    2.22350   2.09107   -2.000
 7056.00    2.22276   2.07321   -2.000
 7057.00    2.25387   2.05427   -2.000
 7058.00    2.33051   2.03536   -2.000
 7059.00    2.37879   2.01741   -2.000
 7060.00    2.39139   2.00190   -2.000
 7061.00    2.40645   1.98871   -2.000
 7062.00    2.42425   1.97832   -2.000
 7063.00    2.44173   1.97023   -2.000
 7064.00    2.45889   1.96388   -2.000
 7065.00    2.43868   1.95974   -2.000
 7066.00    2.38623   1.95621   -2.000
 7067.00    2.32943   1.95364   -2.000
 7068.00    2.26932   1.95272   -2.000
 7069.00    2.24967   1.95162   -2.000
 7070.00    2.25704   1.95180   -2.000
 7071.00    2.35352   1.95398   -2.000
 7072.00    2.50210   1.95650   -2.000
 7073.00    2.51934   1.96104   -2.000
 7074.00    2.46963   1.96742   -2.000
 7075.00    2.43443   1.97396   -2.000
 7076.00    2.40565   1.98141   -2.000
 7077.00    2.43075   1.98886   -2.000
 7078.00    2.47629   1.99520   -2.000
 7079.00    2.49964   2.00072   -2.000
 7080.00    2.51585   2.00480   -2.000
 7081.00    2.49236   2.00729   -2.000
 7082.00    2.45818   2.00779   -2.000
 7083.00    2.48862   2.00600   -2.000
 7084.00    2.53334   2.00230   -2.000
 7085.00    2.42644   1.99543   -2.000
 7086.00    2.29290   1.98621   -2.000
 7087.00    2.28846   1.97573   -2.000
 7088.00    2.30131   1.96268   -2.000
 7089.00    2.28572   1.94965   -2.000
 7090.00    2.26742   1.93748   -2.000
 7091.00    2.30482   1.92484   -2.000
 7092.00    2.34549   1.91510   -2.000
 7093.00    2.29434   1.90737   -2.000
 7094.00    2.24202   1.90046   -2.000
 7095.00    2.33699   1.89724   -2.000
 7096.00    2.42453   1.89547   -2.000
 7097.00    2.32757   1.89485   -2.000
 7098.00    2.23049   1.89679   -2.000
 7099.00    2.13171   1.89920   -2.000
 7100.00    2.04940   1.90259   -2.000
 7101.00    2.11303   1.90682   -2.000
 7102.00    2.17146   1.91093   -2.000
 7103.00    2.19601   1.91526   -2.000
 7104.00    2.20861   1.91910   -2.000
 7105.00    2.16043   1.92263   -2.000
 7106.00    2.02705   1.92573   -2.000
 7107.00    1.54298   1.92801   -2.000
 7108.00    1.45517   1.93000   -2.000
 7109.00    2.71808   1.93138   -2.000
 7110.00    3.66060   1.93208   -2.000
 7111.00    3.68260   1.93257   -2.000
 7112.00    3.70055   1.93263   -2.000
 7113.00    3.70856   1.93249   -2.000
 7114.00    3.71055   1.93275   -2.000
 7115.00    3.69977   1.93350   -2.000
 7116.00    3.70851   1.93486   -2.000
 7117.00    3.75316   1.93701   -2.000
 7118.00    3.80346   1.93975   -2.000
 7119.00    3.86283   1.94292   -2.000
 7120.00    3.93812   1.94576   -2.000
 7121.00    4.03583   1.94791   -2.000
 7122.00    4.09927   1.94942   -2.000
 7123.00    4.12020   1.94923   -2.000
 7124.00    4.08771   1.94768   -2.000
 7125.00    3.99681   1.94473   -2.000
 7126.00    3.96527   1.93989   -2.000
 7127.00    3.99096   1.93424   -2.000
 7128.00    4.05021   1.92710   -2.000
 7129.00    4.13798   1.91910   -2.000
 7130.00    4.15531   1.91171   -2.000
 7131.00    4.11990   1.90396   -2.000
 7132.00    4.04312   1.89725   -2.000
 7133.00    3.93911   1.89264   -2.000
 7134.00    3.85602   1.88942   -2.000
 7135.00    3.78499   1.88878   -2.000
 7136.00    3.79064   1.89009   -2.000
 7137.00    3.83479   1.89289   -2.000
 7138.00    3.93900   1.89789   -2.000
 7139.00    4.06929   1.90287   -2.000
 7140.00    4.04536   1.90783   -2.000
 7141.00    3.96399   1.91344   -2.000
 7142.00    3.93187   1.91751   -2.000
 7143.00    3.91531   1.92077   -2.000
 7144.00    3.89391   1.92416   -2.000
 7145.00    3.87123   1.92572   -2.000
 7146.00    3.84123   1.92627   -2.000
 7147.00    3.80966   1.92738   -2.000
 7148.00    3.84245   1.92667   -2.000
 7149.00    3.88625   1.92518   -2.000
 7150.00    3.81650   1.92533   -2.000
 7151.00    3.73205   1.92462   -2.000
 7152.00    3.79130   1.92494   -2.000
 7153.00    3.86360   1.92786   -2.000
 7154.00    3.85347   1.93082   -2.000
 7155.00    3.83882   1.93574   -2.000
 7156.00    3.87637   1.94212   -2.000
 7157.00    3.91425   1.94766   -2.000
 7158.00    3.88168   1.95332   -2.000
 7159.00    3.85562   1.95816   -2.000
 7160.00    3.97758   1.96151   -2.000
 7161.00    4.09485   1.96295   -2.000
 7162.00    4.15309   1.96267   -2.000
 7163.00    4.21151   1.96188   -2.000
 7164.00    4.27153   1.95925   -2.000
 7165.00    4.30939   1.95571   -2.000
 7166.00    4.20682   1.95334   -2.000
 7167.00    4.11984   1.95098   -2.000
 7168.00    4.11031   1.94958   -2.000
 7169.00    4.10567   1.95072   -2.000
 7170.00    4.12076   1.95314   -2.000
 7171.00    4.09823   1.95712   -2.000
 7172.00    3.95003   1.96317   -2.000
 7173.00    3.82963   1.96941   -2.000
 7174.00    3.78765   1.97531   -2.000
 7175.00    3.79993   1.98111   -2.000
 7176.00    3.94307   1.98552   -2.000
 7177.00    4.03495   1.98817   -2.000
 7178.00    4.02012   1.98960   -2.000
 7179.00    4.01086   1.98934   -2.000
 7180.00    4.01171   1.98786   -2.000
 7181.00    3.97882   1.98633   -2.000
 7182.00    3.89252   1.98384   -2.000
 7183.00    3.80379   1.98146   -2.000
 7184.00    3.71170   1.98026   -2.000
 7185.00    3.67243   1.97864   -2.000
 7186.00    3.69774   1.97776   -2.000
 7187.00    3.75935   1.97725   -2.000
 7188.00    3.86008   1.97596   -2.000
 7189.00    3.89313   1.97530   -2.000
 7190.00    3.86184   1.97346   -2.000
 7191.00    3.82425   1.97130   -2.000
 7192.00    3.78139   1.97091   -2.000
 7193.00    3.73685   1.96997   -2.000
 7194.00    3.69105   1.97013   -2.000
 7195.00    3.70799   1.97214   -2.000
 7196.00    3.76558   1.97419   -2.000
 7197.00    3.75800   1.97729   -2.000
 7198.00    3.71344   1.98072   -2.000
 7199.00    3.75653   1.98360   -2.000
 7200.00    3.84290   1.98629   -2.000
 7201.00    3.92617   1.98882   -2.000
 7202.00    4.00812   1.99062   -2.000
 7203.00    3.96186   1.99163   -2.000
 7204.00    3.86868   1.99299   -2.000
 7205.00    3.76775   1.99355   -2.000
 7206.00    3.66442   1.99349   -2.000
 7207.00    3.60933   1.99287   -2.000
 7208.00    3.56670   1.99121   -2.000
 7209.00    3.54951   1.99028   -2.000
 7210.00    3.53766   1.98841   -2.000
 7211.00    3.54911   1.98695   -2.000
 7212.00    3.56442   1.98766   -2.000
 7213.00    3.56474   1.98807   -2.000
 7214.00    3.56320   1.99087   -2.000
 7215.00    3.63840   1.99517   -2.000
 7216.00    3.72025   1.99860   -2.000
 7217.00    3.67397   2.00382   -2.000
 7218.00    3.62118   2.00913   -2.000
