###################################################################
## OUTPUT of StarlightChains_v04.for    [Cid@UFSC - 01/Apr/2007] ##
###################################################################

## Some input info
KUG0210-078._34_27.txt                   [arq_obs]
Base.CB07.vall.4m                        [arq_base]
Masks.EmLines.NEW.gm                     [arq_masks]
StCv04.C11.config                        [arq_config]
   66                                    [N_base]
    0                                    [N_YAV_components = # of components with extra extinction!]
    0                                    [i_FitPowerLaw (1/0 = Yes/No)]
-9.99                                    [alpha_PowerLaw]
CCM                                      [red_law_option]
 1.458241                                [q_norm = A(l_norm)/A(V)]

## (Re)Sampling Parameters
 3741.00                                 [l_ini (A)]
 7218.00                                 [l_fin (A)]
    1.00                                 [dl    (A)]     (OBS: dl_cushion =    50.00 A)

## Normalization info
 4020.00                                 [l_norm (A) - for base]
 4010.00                                 [llow_norm (A) - window for f_obs]
 4060.00                                 [lupp_norm (A) - window for f_obs]
1.579955E-17                             [fobs_norm (in input units)]

## S/N
 3691.00                                 [llow_SN (A) - window for S/N]
 7268.00                                 [lupp_SN (A) - window for S/N]
   3.089                                 [S/N in S/N window]
   2.293                                 [S/N in norm. window]
   0.029                                 [S/N_err in S/N window]
   0.021                                 [S/N_err in norm. window]
  1.0000                                 [fscale_chi2]

## etc...
    -2007532                             [idum_orig]
  2411                                   [NOl_eff]
  2135                                   [Nl_eff]
   276    NSIGMA                         [Ntot_cliped & clip_method]
 10170580                                [Nglobal_steps]
   7                                     [N_chains]
  19                                     [NEX0s_base = N_base in EX0s-fits]
 0   0   1      276   2.0   1.169E+04    [Clip-Bug, RC-Crash & Burn-In warning-flags, n_censored_weights, wei_nsig_threshold & wei_limit]
    56     55.521     54.814      0.708  [idt_all, wdt_TotTime, wdt_UsrTime & wdt_SysTime (sec)]

## Synthesis Results - Best model ##

 1.64694E-04                             [chi2/Nl_eff]
    17.71328                             [adev (%)]

   129.99998                             [sum-of-x (%)]
 1.15075E-17                             [Flux_tot (units of input spectrum!)]
 8.21694E-13                             [Mini_tot (???)]
 4.08580E-13                             [Mcor_tot (???)]

-308.64                                  [v0_min  (km/s)]
 386.62                                  [vd_min  (km/s)]
-0.4314                                  [AV_min  (mag)]
 0.0000                                  [YAV_min (mag)]

# j     x_j(%)      Mini_j(%)     Mcor_j(%)     age_j(yr)     Z_j      (L/M)_j    YAV?  Mstars   component_j        a/Fe...       SSP_chi2r SSP_adev(%)   SSP_AV   SSP_x(%)
  1      0.0000     0.0000E+00    0.0000E+00    1.000000E+06  0.00400  1.094E-02    0   1.0000   age020_m42            0.0000     4.3605E-05     7.3004   1.9002   208.5901
  2      0.0000     0.0000E+00    0.0000E+00    3.160000E+06  0.00400  4.007E-02    0   0.9999   age045_m42            0.0000     4.5889E-05     7.1798   1.2734   213.9898
  3      0.0000     0.0000E+00    0.0000E+00    5.010000E+06  0.00400  2.539E-02    0   0.9488   age055_m42            0.0000     4.4345E-05     7.1494   1.5476   212.7831
  4      0.0000     0.0000E+00    0.0000E+00    6.610000E+06  0.00400  2.620E-02    0   0.9220   age061_m42            0.0000     4.5305E-05     7.1340   1.2026   214.3233
  5      0.0000     0.0000E+00    0.0000E+00    1.000000E+07  0.00400  1.322E-02    0   0.8862   age070_m42            0.0000     4.4683E-05     7.3116   0.9290   219.3626
  6      0.0000     0.0000E+00    0.0000E+00    1.445000E+07  0.00400  7.883E-03    0   0.8571   age078_m42            0.0000     4.4471E-05     7.2359   1.2283   216.0507
  7      0.0000     0.0000E+00    0.0000E+00    2.512000E+07  0.00400  5.251E-03    0   0.8174   age090_m42            0.0000     4.5004E-05     7.4471   0.8102   219.8311
  8      0.0000     0.0000E+00    0.0000E+00    4.000000E+07  0.00400  3.649E-03    0   0.7851   age104_m42            0.0000     4.4972E-05     7.4067   0.5965   220.2414
  9      0.0000     0.0000E+00    0.0000E+00    5.500000E+07  0.00400  3.098E-03    0   0.7629   age110_m42            0.0000     4.6094E-05     7.3070   0.7613   218.7083
 10      0.0000     0.0000E+00    0.0000E+00    1.015200E+08  0.00400  2.228E-03    0   0.7207   age116_m42            0.0000     4.6399E-05     7.2366   0.7893   218.0458
 11      0.0000     0.0000E+00    0.0000E+00    2.861200E+08  0.00400  1.093E-03    0   0.6648   age125_m42            0.0000     4.6380E-05     7.7302   0.2456   222.0269
 12      0.0000     0.0000E+00    0.0000E+00    5.088000E+08  0.00400  6.597E-04    0   0.6365   age130_m42            0.0000     4.6466E-05     7.4293   0.2484   222.1957
 13      0.0000     0.0000E+00    0.0000E+00    1.434000E+09  0.00400  2.132E-04    0   0.5798   age139_m42            0.0000     4.2216E-05     6.7283  -0.6989   223.9966
 14      0.0000     0.0000E+00    0.0000E+00    4.250000E+09  0.00400  5.895E-05    0   0.5377   age158_m42            0.0000     3.9160E-05     8.1706  -1.0000   210.1417
 15      0.0000     0.0000E+00    0.0000E+00    7.500000E+09  0.00400  3.510E-05    0   0.5212   age171_m42            0.0000     4.3961E-05    11.9360  -1.0000   199.9651
 16      0.0000     0.0000E+00    0.0000E+00    1.300000E+10  0.00400  2.005E-05    0   0.5034   age193_m42            0.0000     5.2314E-05    15.6543  -1.0000   191.0498
 17    108.4340     7.6599E+01    7.6516E+01    1.800000E+10  0.00400  1.525E-05    0   0.4967   age213_m42            0.0000     5.3605E-05    16.2651  -1.0000   189.2299
 18      0.0000     0.0000E+00    0.0000E+00    1.000000E+06  0.00800  1.238E-02    0   1.0000   age020_m52            0.0000     4.3592E-05     7.2978   1.8951   209.0554
 19      0.0000     0.0000E+00    0.0000E+00    3.160000E+06  0.00800  3.074E-02    0   0.9966   age045_m52            0.0000     4.3595E-05     7.2444   1.8257   210.3317
 20      0.0000     0.0000E+00    0.0000E+00    5.010000E+06  0.00800  2.668E-02    0   0.9443   age055_m52            0.0000     4.3901E-05     7.1007   1.6165   212.1113
 21      0.0000     0.0000E+00    0.0000E+00    6.610000E+06  0.00800  2.136E-02    0   0.9177   age061_m52            0.0000     4.1495E-05     6.8685   0.4166   222.7428
 22      0.0000     0.0000E+00    0.0000E+00    1.000000E+07  0.00800  1.215E-02    0   0.8827   age070_m52            0.0000     4.4760E-05     7.4516   1.0967   220.0810
 23      0.0000     0.0000E+00    0.0000E+00    1.445000E+07  0.00800  8.717E-03    0   0.8552   age078_m52            0.0000     4.4670E-05     7.2084   1.2040   218.2486
 24      0.0000     0.0000E+00    0.0000E+00    2.512000E+07  0.00800  5.592E-03    0   0.8162   age090_m52            0.0000     4.5513E-05     7.5087   0.8810   221.7548
 25      0.0000     0.0000E+00    0.0000E+00    4.000000E+07  0.00800  3.896E-03    0   0.7841   age104_m52            0.0000     4.5855E-05     7.5077   0.8071   221.7185
 26      0.0000     0.0000E+00    0.0000E+00    1.015200E+08  0.00800  2.148E-03    0   0.7226   age116_m52            0.0000     4.5533E-05     7.3211   0.7587   219.7500
 27      0.0000     0.0000E+00    0.0000E+00    2.861200E+08  0.00800  9.925E-04    0   0.6683   age125_m52            0.0000     4.5935E-05     7.3333   0.3105   224.5257
 28      0.0000     0.0000E+00    0.0000E+00    9.047900E+08  0.00800  3.141E-04    0   0.6138   age135_m52            0.0000     4.3591E-05     6.9072  -0.4498   228.8702
 29      0.0000     0.0000E+00    0.0000E+00    1.434000E+09  0.00800  1.719E-04    0   0.5853   age139_m52            0.0000     3.9232E-05     6.9176  -1.0000   224.0224
 30      0.0000     0.0000E+00    0.0000E+00    2.500000E+09  0.00800  7.872E-05    0   0.5600   age150_m52            0.0000     4.2699E-05    11.2076  -1.0000   206.0270
 31      0.0000     0.0000E+00    0.0000E+00    4.250000E+09  0.00800  4.336E-05    0   0.5426   age158_m52            0.0000     4.3186E-05    11.5617  -1.0000   203.4164
 32      0.0000     0.0000E+00    0.0000E+00    6.250000E+09  0.00800  3.159E-05    0   0.5319   age166_m52            0.0000     5.2622E-05    15.8790  -1.0000   193.3914
 33      0.0000     0.0000E+00    0.0000E+00    1.300000E+10  0.00800  1.361E-05    0   0.5073   age193_m52            0.0000     9.3588E-05    26.0572  -1.0000   168.5866
 34     21.4736     2.3400E+01    2.3483E+01    1.800000E+10  0.00800  9.886E-06    0   0.4990   age213_m52            0.0000     1.0718E-04    28.0440  -1.0000   162.0381
 35      0.0000     0.0000E+00    0.0000E+00    1.000000E+06  0.02000  1.544E-02    0   1.0000   age020_m62            0.0000     4.3558E-05     7.2987   1.8892   209.7461
 36      0.0000     0.0000E+00    0.0000E+00    3.160000E+06  0.02000  3.762E-02    0   0.9858   age045_m62            0.0000     4.3721E-05     7.3049   1.8257   211.7004
 37      0.0000     0.0000E+00    0.0000E+00    5.010000E+06  0.02000  3.296E-02    0   0.9342   age055_m62            0.0000     4.4767E-05     7.1101   1.5188   214.3023
 38      0.0000     0.0000E+00    0.0000E+00    8.710000E+06  0.02000  1.154E-02    0   0.8861   age067_m62            0.0000     4.5916E-05     9.1332   0.5342   229.8201
 39      0.0000     0.0000E+00    0.0000E+00    1.445000E+07  0.02000  7.663E-03    0   0.8472   age078_m62            0.0000     4.5029E-05     7.9932   0.7467   225.0977
 40      0.0000     0.0000E+00    0.0000E+00    2.512000E+07  0.02000  4.532E-03    0   0.8099   age090_m62            0.0000     4.5374E-05     8.2331   0.7450   223.9857
 41      0.0000     0.0000E+00    0.0000E+00    5.500000E+07  0.02000  2.733E-03    0   0.7595   age110_m62            0.0000     4.4598E-05     7.3744   0.7769   221.3854
 42      0.0000     0.0000E+00    0.0000E+00    1.609000E+08  0.02000  1.369E-03    0   0.6985   age120_m62            0.0000     4.5767E-05     7.2807   0.6490   223.6420
 43      0.0000     0.0000E+00    0.0000E+00    2.861200E+08  0.02000  9.013E-04    0   0.6714   age125_m62            0.0000     4.6627E-05     7.2052   0.4283   227.0260
 44      0.0000     0.0000E+00    0.0000E+00    5.088000E+08  0.02000  5.028E-04    0   0.6449   age130_m62            0.0000     4.6675E-05     6.9447   0.0785   229.3343
 45      0.0000     0.0000E+00    0.0000E+00    9.047900E+08  0.02000  2.428E-04    0   0.6179   age135_m62            0.0000     4.0790E-05     6.4425  -0.5217   228.0724
 46      0.0000     0.0000E+00    0.0000E+00    1.434000E+09  0.02000  1.263E-04    0   0.5908   age139_m62            0.0000     3.7014E-05     6.2171  -0.9900   226.3209
 47      0.0000     0.0000E+00    0.0000E+00    2.500000E+09  0.02000  5.985E-05    0   0.5673   age150_m62            0.0000     4.2666E-05    11.2663  -1.0000   207.2759
 48      0.0000     0.0000E+00    0.0000E+00    4.250000E+09  0.02000  3.271E-05    0   0.5468   age158_m62            0.0000     5.9632E-05    17.7739  -1.0000   190.3240
 49      0.0000     0.0000E+00    0.0000E+00    1.000000E+10  0.02000  1.360E-05    0   0.5167   age181_m62            0.0000     9.2803E-05    24.9427  -1.0000   171.3987
 50      0.0000     0.0000E+00    0.0000E+00    1.800000E+10  0.02000  7.124E-06    0   0.5013   age213_m62            0.0000     1.2134E-04    29.0186  -1.0000   159.0260
 51      0.0000     0.0000E+00    0.0000E+00    1.000000E+06  0.05000  2.592E-02    0   0.9998   age020_m72            0.0000     4.3341E-05     7.2935   1.8736   210.4167
 52      0.0000     0.0000E+00    0.0000E+00    3.160000E+06  0.05000  4.845E-02    0   0.9577   age045_m72            0.0000     4.4156E-05     7.2526   1.7325   212.3435
 53      0.0000     0.0000E+00    0.0000E+00    5.010000E+06  0.05000  3.072E-02    0   0.9147   age055_m72            0.0000     4.4547E-05     7.7791   1.2890   219.2113
 54      0.0000     0.0000E+00    0.0000E+00    6.610000E+06  0.05000  1.455E-02    0   0.8877   age061_m72            0.0000     5.1795E-05    11.8162   0.5518   233.2612
 55      0.0000     0.0000E+00    0.0000E+00    1.000000E+07  0.05000  9.074E-03    0   0.8524   age070_m72            0.0000     4.6659E-05     8.9329   1.4524   218.9081
 56      0.0000     0.0000E+00    0.0000E+00    2.512000E+07  0.05000  4.250E-03    0   0.7902   age090_m72            0.0000     4.6689E-05     8.3581   1.2068   219.1568
 57      0.0000     0.0000E+00    0.0000E+00    4.000000E+07  0.05000  3.087E-03    0   0.7618   age104_m72            0.0000     4.7375E-05     8.5657   0.9993   221.1429
 58      0.0000     0.0000E+00    0.0000E+00    1.015200E+08  0.05000  1.700E-03    0   0.7096   age116_m72            0.0000     4.6639E-05     7.6168   0.7901   223.0986
 59      0.0924     1.3477E-03    1.7978E-03    2.861200E+08  0.05000  7.384E-04    0   0.6633   age125_m72            0.0000     4.5994E-05     7.0150   0.3117   228.0486
 60      0.0000     0.0000E+00    0.0000E+00    5.088000E+08  0.05000  3.819E-04    0   0.6372   age130_m72            0.0000     4.2617E-05     6.4669  -0.1775   230.3432
 61      0.0000     0.0000E+00    0.0000E+00    9.047900E+08  0.05000  1.676E-04    0   0.6110   age135_m72            0.0000     3.7144E-05     6.2831  -0.9137   228.1943
 62      0.0000     0.0000E+00    0.0000E+00    1.434000E+09  0.05000  8.837E-05    0   0.5874   age139_m72            0.0000     4.2559E-05    11.0169  -1.0000   209.6886
 63      0.0000     0.0000E+00    0.0000E+00    2.500000E+09  0.05000  4.233E-05    0   0.5598   age150_m72            0.0000     6.0185E-05    17.6480  -1.0000   191.8223
 64      0.0000     0.0000E+00    0.0000E+00    6.250000E+09  0.05000  1.435E-05    0   0.5249   age166_m72            0.0000     1.0505E-04    26.9020  -1.0000   165.6678
 65      0.0000     0.0000E+00    0.0000E+00    1.300000E+10  0.05000  6.513E-06    0   0.5036   age193_m72            0.0000     1.4872E-04    32.2130  -1.0000   152.3562
 66      0.0000     0.0000E+00    0.0000E+00    1.800000E+10  0.05000  4.527E-06    0   0.4945   age213_m72            0.0000     1.7828E-04    34.9351  -1.0000   143.4252


## Synthesis Results - Average & Chains ##

# j      x_j: min, <> & last-chain-values for 1 ...  7 chains
  1      0.0000      0.1715      0.0092      0.0000      0.0712      0.0063      0.0969      0.0000      0.0471
  2      0.0000      0.2343      0.0300      0.0000      0.0570      0.1736      0.1003      0.1213      0.1154
  3      0.0000      0.2023      0.0767      0.1025      0.0088      0.1383      0.0634      0.0000      0.0631
  4      0.0000      0.2325      0.1829      0.0000      0.0000      0.0339      0.0000      0.0011      0.1020
  5      0.0000      0.1954      0.0333      0.0776      0.1372      0.0000      0.2633      0.1705      0.1293
  6      0.0000      0.2788      0.0463      0.3181      0.1032      0.0208      0.0509      0.0727      0.1075
  7      0.0000      0.1792      0.0479      0.1745      0.0144      0.0753      0.1155      0.0079      0.0560
  8      0.0000      0.2214      0.1186      0.1911      0.0153      0.0000      0.0000      0.0013      0.0235
  9      0.0000      0.2383      0.0449      0.0868      0.1576      0.0204      0.1620      0.0350      0.0097
 10      0.0000      0.3593      0.0605      0.0625      0.0219      0.5000      0.0000      0.0239      0.0000
 11      0.0000      0.2938      0.1577      0.0312      0.0000      0.3012      0.0297      0.0641      0.0172
 12      0.0000      0.3098      0.0091      0.0000      0.1341      0.0666      0.0000      0.1810      0.2151
 13      0.0000      0.1969      0.0212      0.1505      0.1330      0.0571      0.0011      0.0000      0.0139
 14      0.0000      0.2813      0.3437      0.1520      0.0192      0.0185      0.1020      0.1235      0.0000
 15      0.0000      0.2066      0.0373      0.0879      0.0065      0.0000      0.0996      0.0869      0.0375
 16      0.0000      0.2206      0.0612      0.0652      0.2378      0.2459      0.2050      0.1001      0.1145
 17    108.4340      0.2741      0.0257      0.0000      0.1079      0.0850      0.1043      0.2071      0.0000
 18      0.0000      0.2382      0.1306      0.2026      0.0458      0.1299      0.0295      0.0141      0.0164
 19      0.0000      0.2285      0.0630      0.0764      0.0826      0.0345      0.0000      0.1105      0.0000
 20      0.0000      0.1942      0.0335      0.0000      0.0193      0.0020      0.1154      0.0495      0.2953
 21      0.0000      0.2421      0.1558      0.1531      0.2056      0.0742      0.0000      0.0706      0.1098
 22      0.0000      0.2706      0.0700      0.0764      0.0555      0.1812      0.1685      0.0000      0.0912
 23      0.0000      0.2235      0.1073      0.0701      0.1771      0.0888      0.0445      0.1275      0.0162
 24      0.0000      0.1752      0.0097      0.2053      0.0694      0.1248      0.0513      0.0316      0.1061
 25      0.0000      0.2198      0.0279      0.0000      0.1499      0.0000      0.1245      0.0000      0.0000
 26      0.0000      0.1900      0.0000      0.1068      0.0837      0.0828      0.0822      0.0000      0.2419
 27      0.0000      0.2184      0.1054      0.0000      0.1868      0.0000      0.0000      0.0995      0.2335
 28      0.0000      0.2090      0.0029      0.0270      0.1122      0.0393      0.2439      0.0299      0.1079
 29      0.0000      0.1986      0.0000      0.0000      0.0118      0.0000      0.0000      0.0159      0.0000
 30      0.0000      0.2104      0.0161      0.0000      0.0605      0.0000      0.0000      0.0798      0.0324
 31      0.0000      0.2309      0.0494      0.0000      0.0000      0.0343      0.0000      0.0586      0.1366
 32      0.0000      0.2084      0.0269      0.0147      0.0000      0.2676      0.2445      0.0000      0.0698
 33      0.0000      0.2612      0.1257      0.3842      0.1896      0.0695      0.1658      0.0764      0.0673
 34     21.4736      0.1901      0.0997      0.0944      0.0000      0.0000      0.0000      0.2469      0.0406
 35      0.0000      0.2478      0.0449      0.0286      0.0153      0.0419      0.1023      0.0868      0.0771
 36      0.0000      0.3036      0.1983      0.0000      0.0086      0.2887      0.0794      0.1027      0.0000
 37      0.0000      0.2129      0.0383      0.0039      0.0342      0.0000      0.3186      0.0000      0.1012
 38      0.0000      0.2175      0.0000      0.0000      0.1629      0.1304      0.0000      0.0159      0.0205
 39      0.0000      0.2532      0.0000      0.0313      0.0000      0.0000      0.0950      0.0836      0.4198
 40      0.0000      0.1977      0.0000      0.0000      0.0336      0.0260      0.1082      0.0443      0.0150
 41      0.0000      0.2673      0.0754      0.0000      0.1031      0.0084      0.0305      0.1169      0.0000
 42      0.0000      0.2264      0.0486      0.0000      0.0459      0.2449      0.1251      0.0395      0.0349
 43      0.0000      0.5489      0.4460      0.1696      1.0718      0.5505      0.4718      0.3491      0.6977
 44      0.0000      0.1692      0.0000      0.0000      0.0579      0.0907      0.0733      0.0254      0.0000
 45      0.0000      0.2368      0.0053      0.0739      0.1750      0.0886      0.3296      0.1094      0.0000
 46      0.0000      0.2887      0.0161      0.0846      0.0000      0.0475      0.1011      0.1281      0.0000
 47      0.0000      0.1407      0.0473      0.0120      0.1340      0.0851      0.0816      0.1743      0.0000
 48      0.0000      0.3204      0.2187      0.2749      0.0281      0.0985      0.0000      0.4070      0.0839
 49      0.0000      0.2906      0.0238      0.2461      0.0095      0.3674      0.2699      0.0587      0.0885
 50      0.0000      0.2637      0.0011      0.0157      0.1588      0.0431      0.0285      0.1311      0.0708
 51      0.0000      0.2033      0.0182      0.3119      0.0000      0.0000      0.1229      0.0939      0.0434
 52      0.0000      0.1889      0.0299      0.0000      0.0236      0.0000      0.0000      0.0115      0.1233
 53      0.0000      0.1341      0.0000      0.1319      0.0580      0.0000      0.0000      0.0666      0.1545
 54      0.0000      0.2050      0.0457      0.1204      0.3455      0.0000      0.1171      0.0651      0.0000
 55      0.0000      0.1967      0.0715      0.0000      0.0326      0.0344      0.0836      0.1674      0.0128
 56      0.0000      0.2484      0.0061      0.0766      0.1039      0.0000      0.0354      0.0855      0.2469
 57      0.0000      0.1732      0.0394      0.0198      0.1294      0.2105      0.1877      0.0049      0.0000
 58      0.0000      0.2697      0.0316      0.0850      0.1295      0.1031      0.0469      0.0275      0.0000
 59      0.0924      5.5930      6.3289      6.1013      6.2816      6.5092      5.3492      5.2354      6.4753
 60      0.0000      0.2418      0.0873      0.0000      0.0020      0.2290      0.1337      0.0347      0.0329
 61      0.0000      0.2415      0.1165      0.0558      0.0963      0.0000      0.0000      0.2591      0.0711
 62      0.0000      0.2992      0.0552      0.0421      0.0774      0.0322      0.2280      0.0964      0.1481
 63      0.0000      0.3156      0.0000      0.0330      0.0449      0.0503      0.2105      0.1029      0.1204
 64      0.0000      0.2561      0.1132      0.0325      0.0292      0.0964      0.1262      0.0849      0.1367
 65      0.0000      4.8336      5.8383      3.8247      4.2223      3.9339      4.0297      3.7710      9.0355
 66      0.0000     83.8277     92.9421     94.4813     92.7552     92.9477     94.0937     95.5209     88.1449

# j      m_j: min, <> & last-chain-values for 1 ...  7 chains
  1  0.0000E+00  1.6259E-04  7.9094E-06  0.0000E+00  6.1967E-05  5.4899E-06  8.3261E-05  0.0000E+00  4.1588E-05
  2  0.0000E+00  6.0628E-05  7.0485E-06  0.0000E+00  1.3542E-05  4.1228E-05  2.3525E-05  2.8062E-05  2.7798E-05
  3  0.0000E+00  7.8400E-05  2.6939E-05  3.5922E-05  3.1184E-06  4.9178E-05  2.2253E-05  0.0000E+00  2.2750E-05
  4  0.0000E+00  8.4869E-05  6.0518E-05  0.0000E+00  0.0000E+00  1.1349E-05  0.0000E+00  3.5971E-07  3.4641E-05
  5  0.0000E+00  1.3585E-04  2.1006E-05  4.8780E-05  8.7585E-05  0.0000E+00  1.6588E-04  1.0599E-04  8.3670E-05
  6  0.0000E+00  3.1441E-04  4.7344E-05  3.2433E-04  1.0691E-04  2.1549E-05  5.2047E-05  7.3239E-05  1.1283E-04
  7  0.0000E+00  2.8939E-04  7.0023E-05  2.5465E-04  2.1328E-05  1.1151E-04  1.6896E-04  1.1341E-05  8.4071E-05
  8  0.0000E+00  4.9402E-04  2.3995E-04  3.8558E-04  3.1448E-05  0.0000E+00  0.0000E+00  2.5229E-06  4.8833E-05
  9  0.0000E+00  6.0854E-04  1.0396E-04  2.0036E-04  3.6954E-04  4.7861E-05  3.7501E-04  7.9896E-05  2.3149E-05
 10  0.0000E+00  1.2055E-03  1.8404E-04  1.8943E-04  6.7368E-05  1.5396E-03  0.0000E+00  7.1783E-05  0.0000E+00
 11  0.0000E+00  1.8536E-03  9.0169E-04  1.7821E-04  0.0000E+00  1.7435E-03  1.6978E-04  3.6146E-04  1.0088E-04
 12  0.0000E+00  3.1000E-03  8.2831E-05  0.0000E+00  1.2322E-03  6.1203E-04  0.0000E+00  1.6188E-03  2.0023E-03
 13  0.0000E+00  5.5550E-03  5.4116E-04  3.8391E-03  3.4442E-03  1.4782E-03  2.9137E-05  0.0000E+00  3.6475E-04
 14  0.0000E+00  2.6614E-02  2.9471E-02  1.3000E-02  1.6707E-03  1.6053E-03  8.7433E-03  1.0441E-02  0.0000E+00
 15  0.0000E+00  3.1818E-02  5.2012E-03  1.2242E-02  9.1737E-04  0.0000E+00  1.3898E-02  1.1961E-02  5.3795E-03
 16  0.0000E+00  5.7441E-02  1.4453E-02  1.5344E-02  5.6854E-02  5.8754E-02  4.8380E-02  2.3295E-02  2.7750E-02
 17  7.6516E+01  9.2597E-02  7.8619E-03  0.0000E+00  3.3465E-02  2.6341E-02  3.1919E-02  6.2542E-02  0.0000E+00
 18  0.0000E+00  1.9957E-04  9.9174E-05  1.5346E-04  3.5218E-05  9.9875E-05  2.2421E-05  1.0591E-05  1.2804E-05
 19  0.0000E+00  7.6845E-05  1.9194E-05  2.3217E-05  2.5515E-05  1.0651E-05  0.0000E+00  3.3200E-05  0.0000E+00
 20  0.0000E+00  7.1276E-05  1.1150E-05  0.0000E+00  6.4978E-06  6.8279E-07  3.8401E-05  1.6240E-05  1.0086E-04
 21  0.0000E+00  1.0788E-04  6.2930E-05  6.1684E-05  8.4109E-05  3.0350E-05  0.0000E+00  2.8125E-05  4.5502E-05
 22  0.0000E+00  2.0391E-04  4.7829E-05  5.2024E-05  3.8402E-05  1.2529E-04  1.1504E-04  0.0000E+00  6.3961E-05
 23  0.0000E+00  2.2745E-04  9.8952E-05  6.4490E-05  1.6552E-04  8.2883E-05  4.1035E-05  1.1600E-04  1.5305E-05
 24  0.0000E+00  2.6518E-04  1.3312E-05  2.8102E-04  9.6472E-05  1.7345E-04  7.0348E-05  4.2803E-05  1.4940E-04
 25  0.0000E+00  4.5877E-04  5.2846E-05  0.0000E+00  2.8727E-04  0.0000E+00  2.3552E-04  0.0000E+00  0.0000E+00
 26  0.0000E+00  6.6278E-04  0.0000E+00  3.3690E-04  2.6817E-04  2.6499E-04  2.5994E-04  0.0000E+00  7.8528E-04
 27  0.0000E+00  1.5253E-03  6.6730E-04  0.0000E+00  1.1977E-03  0.0000E+00  0.0000E+00  6.2137E-04  1.5174E-03
 28  0.0000E+00  4.2368E-03  5.4049E-05  4.9467E-04  2.0887E-03  7.3182E-04  4.4788E-03  5.4180E-04  2.0338E-03
 29  0.0000E+00  7.0129E-03  0.0000E+00  0.0000E+00  3.8208E-04  0.0000E+00  0.0000E+00  5.0072E-04  0.0000E+00
 30  0.0000E+00  1.5524E-02  1.0782E-03  0.0000E+00  4.1002E-03  0.0000E+00  0.0000E+00  5.2620E-03  2.2239E-03
 31  0.0000E+00  2.9964E-02  5.8099E-03  0.0000E+00  0.0000E+00  4.0911E-03  0.0000E+00  6.8032E-03  1.6492E-02
 32  0.0000E+00  3.6389E-02  4.2567E-03  2.3175E-03  0.0000E+00  4.2881E-02  3.8695E-02  0.0000E+00  1.1337E-02
 33  0.0000E+00  1.0098E-01  4.4047E-02  1.3430E-01  6.7324E-02  2.4645E-02  5.8065E-02  2.6400E-02  2.4219E-02
 34  2.3483E+01  9.9520E-02  4.7287E-02  4.4671E-02  0.0000E+00  0.0000E+00  0.0000E+00  1.1553E-01  1.9759E-02
 35  0.0000E+00  1.6646E-04  2.7340E-05  1.7343E-05  9.4314E-06  2.5826E-05  6.2296E-05  5.2109E-05  4.8176E-05
 36  0.0000E+00  8.2521E-05  4.8839E-05  0.0000E+00  2.1378E-06  7.2009E-05  1.9551E-05  2.4957E-05  0.0000E+00
 37  0.0000E+00  6.2589E-05  1.0217E-05  1.0338E-06  9.2286E-06  0.0000E+00  8.4874E-05  0.0000E+00  2.7671E-05
 38  0.0000E+00  1.7320E-04  0.0000E+00  0.0000E+00  1.1916E-04  9.5296E-05  0.0000E+00  1.1305E-05  1.5223E-05
 39  0.0000E+00  2.9036E-04  0.0000E+00  3.2492E-05  0.0000E+00  0.0000E+00  9.8689E-05  8.5726E-05  4.4782E-04
 40  0.0000E+00  3.6638E-04  0.0000E+00  0.0000E+00  5.7230E-05  4.4236E-05  1.8165E-04  7.3391E-05  2.5872E-05
 41  0.0000E+00  7.7035E-04  1.9686E-04  0.0000E+00  2.7278E-04  2.2331E-05  7.9541E-05  3.0128E-04  0.0000E+00
 42  0.0000E+00  1.1979E-03  2.3323E-04  0.0000E+00  2.2284E-04  1.1893E-03  5.9994E-04  1.8700E-04  1.7196E-04
 43  0.0000E+00  4.2407E-03  3.1229E-03  1.1847E-03  7.6044E-03  3.9033E-03  3.3028E-03  2.4112E-03  5.0151E-03
 44  0.0000E+00  2.2513E-03  0.0000E+00  0.0000E+00  7.0673E-04  1.1079E-03  8.8396E-04  3.0211E-04  0.0000E+00
 45  0.0000E+00  6.2497E-03  1.2736E-04  1.7645E-03  4.2426E-03  2.1453E-03  7.8839E-03  2.5818E-03  0.0000E+00
 46  0.0000E+00  1.4007E-02  7.0747E-04  3.7090E-03  0.0000E+00  2.1160E-03  4.4451E-03  5.5562E-03  0.0000E+00
 47  0.0000E+00  1.3832E-02  4.2159E-03  1.0691E-03  1.2093E-02  7.6804E-03  7.2668E-03  1.5315E-02  0.0000E+00
 48  0.0000E+00  5.5549E-02  3.4372E-02  4.3096E-02  4.4683E-03  1.5677E-02  0.0000E+00  6.3070E-02  1.3527E-02
 49  0.0000E+00  1.1449E-01  8.4844E-03  8.7679E-02  3.4457E-03  1.3286E-01  9.6378E-02  2.0692E-02  3.2457E-02
 50  0.0000E+00  1.9248E-01  7.4875E-04  1.0338E-02  1.0644E-01  2.8838E-02  1.8878E-02  8.5549E-02  4.8044E-02
 51  0.0000E+00  8.1324E-05  6.6023E-06  1.1282E-04  0.0000E+00  0.0000E+00  4.4560E-05  3.3591E-05  1.6144E-05
 52  0.0000E+00  3.8721E-05  5.5601E-06  0.0000E+00  4.4340E-06  0.0000E+00  0.0000E+00  2.1063E-06  2.3517E-05
 53  0.0000E+00  4.1416E-05  0.0000E+00  3.6841E-05  1.6456E-05  0.0000E+00  0.0000E+00  1.8391E-05  4.4379E-05
 54  0.0000E+00  1.2974E-04  2.6216E-05  6.8889E-05  2.0077E-04  0.0000E+00  6.7161E-05  3.6843E-05  0.0000E+00
 55  0.0000E+00  1.9165E-04  6.3110E-05  0.0000E+00  2.9210E-05  3.0735E-05  7.3772E-05  1.4582E-04  1.1599E-05
 56  0.0000E+00  4.7903E-04  1.0657E-05  1.3353E-04  1.8405E-04  0.0000E+00  6.1861E-05  1.4738E-04  4.4306E-04
 57  0.0000E+00  4.4327E-04  9.1408E-05  4.5791E-05  3.0415E-04  4.9456E-04  4.3525E-04  1.1289E-05  0.0000E+00
 58  0.0000E+00  1.1674E-03  1.2403E-04  3.3271E-04  5.1475E-04  4.0970E-04  1.8404E-04  1.0646E-04  0.0000E+00
 59  1.7978E-03  5.2108E-02  5.3445E-02  5.1394E-02  5.3741E-02  5.5656E-02  4.5159E-02  4.3600E-02  5.6130E-02
 60  0.0000E+00  4.1836E-03  1.3686E-03  0.0000E+00  3.1700E-05  3.6369E-03  2.0961E-03  5.3723E-04  5.2919E-04
 61  0.0000E+00  9.1325E-03  3.9917E-03  1.9074E-03  3.3446E-03  0.0000E+00  0.0000E+00  8.7560E-03  2.5002E-03
 62  0.0000E+00  2.0630E-02  3.4490E-03  2.6267E-03  4.9023E-03  2.0369E-03  1.4243E-02  5.9435E-03  9.5021E-03
 63  0.0000E+00  4.3289E-02  0.0000E+00  4.0878E-03  5.6531E-03  6.3364E-03  2.6158E-02  1.2616E-02  1.5363E-02
 64  0.0000E+00  9.7151E-02  3.8922E-02  1.1134E-02  1.0175E-02  3.3566E-02  4.3373E-02  2.8806E-02  4.8234E-02
 65  0.0000E+00  3.8762E+00  4.2438E+00  2.7731E+00  3.1094E+00  2.8953E+00  2.9283E+00  2.7032E+00  6.7417E+00
 66  0.0000E+00  9.4969E+01  9.5440E+01  9.6777E+01  9.6497E+01  9.6641E+01  9.6594E+01  9.6733E+01  9.2911E+01

# AV, chi2 & Mass for <> & i_chain = 1 ...  7 solutions
AV      -0.4314     -0.6866     -0.7094     -0.7083     -0.6834     -0.6865     -0.7095     -0.7306     -0.6773
chi2 1.6469E-04  2.6900E-04  2.6390E-04  2.6419E-04  2.6550E-04  2.6501E-04  2.6229E-04  2.6133E-04  2.6567E-04
Mass 4.0858E-13  6.0575E-13  6.4816E-13  6.5081E-13  6.6249E-13  6.6015E-13  6.4828E-13  6.3882E-13  6.5927E-13
-308.64                                  [v0_min (km/s) before EX0s...]
 386.62                                  [vd_min (km/s) before EX0s...]


## Synthetic spectrum (Best Model) ##l_obs f_obs f_syn wei
 3478    [Nl_obs]
 3741.00   -0.16690   0.69519    0.000
 3742.00    0.00967   0.69178    0.000
 3743.00    0.14481   0.69115    0.000
 3744.00    0.09738   0.69319    0.000
 3745.00   -0.05641   0.69989    0.000
 3746.00   -0.15045   0.70973    0.000
 3747.00   -0.21416   0.72324    0.000
 3748.00   -0.27865   0.73839    0.000
 3749.00   -0.34349   0.75354    0.000
 3750.00   -0.03872   0.76873    0.000
 3751.00    0.40559   0.78127   -1.000
 3752.00    0.51324   0.79177   -1.000
 3753.00    0.51300   0.79833   -1.000
 3754.00    0.43445   0.80314   -1.000
 3755.00    0.33493   0.80551   -1.000
 3756.00    0.27530   0.80682   -1.000
 3757.00    0.22442   0.80757   -1.000
 3758.00    0.37359   0.80826   -1.000
 3759.00    0.55769   0.81032   -1.000
 3760.00    0.51640   0.81311   -1.000
 3761.00    0.44518   0.81698   -1.000
 3762.00    0.44540   0.82188   -1.000
 3763.00    0.45235   0.82806   -1.000
 3764.00    0.35572   0.83555   -1.000
 3765.00    0.25311   0.84485   -1.000
 3766.00    0.25002   0.85559   -1.000
 3767.00    0.25003   0.86741   -1.000
 3768.00    0.33994   0.88120   -1.000
 3769.00    0.42129   0.89544   -1.000
 3770.00    0.29486   0.91041   -1.000
 3771.00    0.18952   0.92487   -1.000
 3772.00    0.36074   0.93938   -1.000
 3773.00    0.53480   0.95202   -1.000
 3774.00    0.73383   0.96281   -1.000
 3775.00    0.86827   0.97091   -1.000
 3776.00    0.58397   0.97570   -1.000
 3777.00    0.30849   0.97743   -1.000
 3778.00    0.07766   0.97456   -1.000
 3779.00   -0.11180   0.96888    0.000
 3780.00   -0.13197   0.95847    0.000
 3781.00   -0.12298   0.94630    0.000
 3782.00   -0.01508   0.93001    0.000
 3783.00    0.04835   0.91388   -1.000
 3784.00   -0.01540   0.89500    0.000
 3785.00   -0.06533   0.87774    0.000
 3786.00   -0.08147   0.85911    0.000
 3787.00    0.01799   0.84316   -1.000
 3788.00    0.36112   0.82789   -1.000
 3789.00    0.49956   0.81553   -1.000
 3790.00    0.26306   0.80571   -1.000
 3791.00    0.08961   0.79948   -1.000
 3792.00    0.01708   0.79734   -1.000
 3793.00    0.10829   0.79925   -1.000
 3794.00    0.42949   0.80592   -1.000
 3795.00    0.52609   0.81660   -1.000
 3796.00    0.34508   0.83101   -1.000
 3797.00    0.09798   0.84786   -1.000
 3798.00   -0.22110   0.86575    0.000
 3799.00   -0.26774   0.88393    0.000
 3800.00   -0.05254   0.90036    0.000
 3801.00    0.06325   0.91448   -1.000
 3802.00    0.09481   0.92468   -1.000
 3803.00    0.10776   0.93097   -1.000
 3804.00    0.10682   0.93299   -1.000
 3805.00    0.30378   0.93026   -1.000
 3806.00    0.63047   0.92416   -1.000
 3807.00    0.74627   0.91364   -1.000
 3808.00    0.74105   0.90133   -1.000
 3809.00    0.59136   0.88572   -1.000
 3810.00    0.36945   0.86971   -1.000
 3811.00    0.20923   0.85166   -1.000
 3812.00    0.07569   0.83444   -1.000
 3813.00    0.14281   0.81641   -1.000
 3814.00    0.28435   0.79960   -1.000
 3815.00    0.26001   0.78292   -1.000
 3816.00    0.18352   0.76693   -1.000
 3817.00    0.22795   0.75164   -1.000
 3818.00    0.30409   0.73629   -1.000
 3819.00    0.40825   0.72166   -1.000
 3820.00    0.51842   0.70655   -1.000
 3821.00    0.20427   0.69254   -1.000
 3822.00   -0.18190   0.67825    0.000
 3823.00   -0.09580   0.66505    0.000
 3824.00    0.05090   0.65193   -1.000
 3825.00    0.05214   0.64013   -1.000
 3826.00    0.04032   0.62952   -1.000
 3827.00    0.01410   0.62063   -1.000
 3828.00   -0.01289   0.61415    0.000
 3829.00   -0.03483   0.61014    0.000
 3830.00   -0.05495   0.60991    0.000
 3831.00    0.06993   0.61296   -1.000
 3832.00    0.19381   0.62080   -1.000
 3833.00    0.29516   0.63240   -1.000
 3834.00    0.38984   0.64908   -1.000
 3835.00    0.40155   0.66888   -1.000
 3836.00    0.42994   0.69273   -1.000
 3837.00    0.59926   0.71798   -1.000
 3838.00    0.72703   0.74502   -1.000
 3839.00    0.59341   0.77121   -1.000
 3840.00    0.45215   0.79664   -1.000
 3841.00    0.27322   0.81911   -1.000
 3842.00    0.13108   0.83873   -1.000
 3843.00    0.13626   0.85424   -1.000
 3844.00    0.15445   0.86579   -1.000
 3845.00    0.21591   0.87326   -1.000
 3846.00    0.25766   0.87680   -1.000
 3847.00    0.24402   0.87710    0.000
 3848.00    0.19099   0.87444    0.000
 3849.00    0.04337   0.86976    0.000
 3850.00   -0.13162   0.86374    0.000
 3851.00   -0.36340   0.85720    0.000
 3852.00   -0.48694   0.85126    0.000
 3853.00   -0.41529   0.84614    0.000
 3854.00   -0.23072   0.84333    0.000
 3855.00    0.13192   0.84192    0.000
 3856.00    0.39308   0.84348    0.000
 3857.00    0.51378   0.84601    0.000
 3858.00    0.51590   0.85066    0.000
 3859.00    0.37351   0.85508    0.000
 3860.00    0.32344   0.85975    0.000
 3861.00    0.37253   0.86308    0.000
 3862.00    0.37028   0.86478    0.000
 3863.00    0.31940   0.86513    0.000
 3864.00    0.33449   0.86287    0.000
 3865.00    0.40470   0.86019    0.000
 3866.00    0.51650   0.85502    0.000
 3867.00    0.65891   0.85079    0.000
 3868.00    0.62572   0.84479    0.000
 3869.00    0.47913   0.84049    0.000
 3870.00    0.55537   0.83516    0.000
 3871.00    0.75755   0.83131    0.000
 3872.00    0.74935   0.82691    0.000
 3873.00    0.63766   0.82301    0.000
 3874.00    0.45267   0.81893    0.000
 3875.00    0.23652   0.81416    0.000
 3876.00    0.43761   0.80973    0.000
 3877.00    0.79068   0.80392    0.000
 3878.00    0.70901   0.79929    0.000
 3879.00    0.49331   0.79339    0.000
 3880.00    0.49009   0.78976    0.000
 3881.00    0.54141   0.78583   -1.000
 3882.00    0.42423   0.78531   -1.000
 3883.00    0.27183   0.78565   -1.000
 3884.00    0.17681   0.79014   -1.000
 3885.00    0.09126   0.79593   -1.000
 3886.00    0.24407   0.80551   -1.000
 3887.00    0.42640   0.81599   -1.000
 3888.00    0.55293   0.82867   -1.000
 3889.00    0.67469   0.84138   -1.000
 3890.00    0.65454   0.85410   -1.000
 3891.00    0.62731   0.86620   -1.000
 3892.00    0.52340   0.87654   -1.000
 3893.00    0.41854   0.88623   -1.000
 3894.00    0.33332   0.89353   -1.000
 3895.00    0.26023   0.90065   -1.000
 3896.00    0.43525   0.90586   -1.000
 3897.00    0.59806   0.91140   -1.000
 3898.00    0.61659   0.91644   -1.000
 3899.00    0.61222   0.92226   -1.000
 3900.00    0.42126   0.92882   -1.000
 3901.00    0.27559   0.93619   -1.000
 3902.00    0.40656   0.94472   -1.000
 3903.00    0.54536   0.95360   -1.000
 3904.00    0.72181   0.96272   -1.000
 3905.00    0.83434   0.97129   -1.000
 3906.00    0.69654   0.97836   -1.000
 3907.00    0.58807   0.98356   -1.000
 3908.00    0.57517   0.98559   -1.000
 3909.00    0.60293   0.98478   -1.000
 3910.00    0.74279   0.97993   -1.000
 3911.00    0.79739   0.97200   -1.000
 3912.00    0.65066   0.96005   -1.000
 3913.00    0.56218   0.94532   -1.000
 3914.00    0.59256   0.92715   -1.000
 3915.00    0.67863   0.90639   -1.000
 3916.00    0.86361   0.88283   -1.000
 3917.00    0.86665   0.85632   -1.000
 3918.00    0.58699   0.82725   -1.000
 3919.00    0.45305   0.79483   -1.000
 3920.00    0.51797   0.75997   -1.000
 3921.00    0.53071   0.72212   -1.000
 3922.00    0.48075   0.68271   -1.000
 3923.00    0.40983   0.64212   -1.000
 3924.00    0.31668   0.60226   -1.000
 3925.00    0.37734   0.56464   -1.000
 3926.00    0.58168   0.53138   -1.000
 3927.00    0.57535   0.50427   -1.000
 3928.00    0.39552   0.48525   -1.000
 3929.00    0.23103   0.47510   -1.000
 3930.00    0.07765   0.47509   -1.000
 3931.00    0.12045   0.48435   -1.000
 3932.00    0.28811   0.50318   -1.000
 3933.00    0.34727   0.52927   -1.000
 3934.00    0.34604   0.56218   -1.000
 3935.00    0.38187   0.59886   -1.000
 3936.00    0.43563   0.63876   -1.000
 3937.00    0.39520   0.67896   -1.000
 3938.00    0.31539   0.71928   -1.000
 3939.00    0.47378   0.75757   -1.000
 3940.00    0.71736   0.79393   -1.000
 3941.00    0.78368   0.82728   -1.000
 3942.00    0.79642   0.85741   -1.000
 3943.00    0.55090   0.88442   -1.000
 3944.00    0.24051   0.90733   -1.000
 3945.00    0.50837   0.92696   -1.000
 3946.00    0.89415   0.94179   -1.000
 3947.00    0.83601   0.95278   -1.000
 3948.00    0.70680   0.95818   -1.000
 3949.00    0.70979   0.95929   -1.000
 3950.00    0.72856   0.95431   -1.000
 3951.00    0.87944   0.94416   -1.000
 3952.00    1.04107   0.92767   -1.000
 3953.00    0.83794   0.90549   -1.000
 3954.00    0.61803   0.87769   -1.000
 3955.00    0.60416   0.84461   -1.000
 3956.00    0.59243   0.80716   -1.000
 3957.00    0.55548   0.76653   -1.000
 3958.00    0.51463   0.72464   -1.000
 3959.00    0.39986   0.68295   -1.000
 3960.00    0.31580   0.64382    0.000
 3961.00    0.57799   0.60941    0.000
 3962.00    0.81126   0.58190    0.000
 3963.00    0.81718   0.56353    0.000
 3964.00    0.77381   0.55496    0.000
 3965.00    0.43797   0.55760    0.000
 3966.00    0.18345   0.57081    0.000
 3967.00    0.31076   0.59486    0.000
 3968.00    0.43171   0.62757    0.000
 3969.00    0.52829   0.66815    0.000
 3970.00    0.59457   0.71332    0.000
 3971.00    0.56403   0.76195    0.000
 3972.00    0.57304   0.81062    0.000
 3973.00    0.68914   0.85868    0.000
 3974.00    0.74399   0.90349    0.000
 3975.00    0.65661   0.94512    0.000
 3976.00    0.54715   0.98207    0.000
 3977.00    0.39332   1.01472    0.000
 3978.00    0.34924   1.04313    0.000
 3979.00    0.49714   1.06735    0.000
 3980.00    0.67867   1.08849    0.000
 3981.00    0.91167   1.10593   -1.000
 3982.00    1.05118   1.12158   -1.000
 3983.00    1.06493   1.13417   -1.000
 3984.00    1.05678   1.14581   -1.000
 3985.00    1.02269   1.15490   -1.000
 3986.00    0.97862   1.16270   -1.000
 3987.00    0.92412   1.16903   -1.000
 3988.00    0.77255   1.17352   -1.000
 3989.00    0.53157   1.17806   -1.000
 3990.00    0.51938   1.17983   -1.000
 3991.00    0.69296   1.18333   -1.000
 3992.00    0.85419   1.18405   -1.000
 3993.00    1.00662   1.18691   -1.000
 3994.00    0.94657   1.18731   -1.000
 3995.00    0.75329   1.18978   -1.000
 3996.00    0.75191   1.19061   -1.000
 3997.00    0.85570   1.19303   -1.000
 3998.00    0.85399   1.19429   -1.000
 3999.00    0.80203   1.19711   -1.000
 4000.00    0.76510   1.19921   -1.000
 4001.00    0.73435   1.20276   -1.000
 4002.00    0.69405   1.20578   -1.000
 4003.00    0.65040   1.21110   -1.000
 4004.00    0.72305   1.21545   -1.000
 4005.00    0.83017   1.22207   -1.000
 4006.00    0.90520   1.22764   -1.000
 4007.00    0.97236   1.23544   -1.000
 4008.00    0.92461   1.24126   -1.000
 4009.00    0.85401   1.24790   -1.000
 4010.00    0.93095   1.25265   -1.000
 4011.00    1.03081   1.25763   -1.000
 4012.00    1.02530   1.26108   -1.000
 4013.00    1.00768   1.26422   -1.000
 4014.00    0.90859   1.26623   -1.000
 4015.00    0.80320   1.26798   -1.000
 4016.00    0.87979   1.26851   -1.000
 4017.00    0.96404   1.26893   -1.000
 4018.00    0.93027   1.26767   -1.000
 4019.00    0.89733   1.26700   -1.000
 4020.00    0.94805   1.26406   -1.000
 4021.00    1.00000   1.26134   -1.000
 4022.00    1.07379   1.25685   -1.000
 4023.00    1.13703   1.25287   -1.000
 4024.00    1.08664   1.24774   -1.000
 4025.00    1.05851   1.24353   -1.000
 4026.00    1.19936   1.23983   -1.000
 4027.00    1.25784   1.23742   -1.000
 4028.00    0.84127   1.23620   -1.000
 4029.00    0.50104   1.23641   -1.000
 4030.00    0.51066   1.23806   -1.000
 4031.00    0.57413   1.24037   -1.000
 4032.00    0.83957   1.24388   -1.000
 4033.00    1.04837   1.24642   -1.000
 4034.00    1.07960   1.24839   -1.000
 4035.00    1.04457   1.24855   -1.000
 4036.00    0.83325   1.24732   -1.000
 4037.00    0.73270   1.24438   -1.000
 4038.00    0.88509   1.24040   -1.000
 4039.00    0.99263   1.23590   -1.000
 4040.00    1.01148   1.23182   -1.000
 4041.00    1.00005   1.22905   -1.000
 4042.00    0.93644   1.22768   -1.000
 4043.00    0.94607   1.22850   -1.000
 4044.00    1.06617   1.22957   -1.000
 4045.00    1.06653   1.23284   -1.000
 4046.00    0.90819   1.23565   -1.000
 4047.00    0.92488   1.24010   -1.000
 4048.00    1.14594   1.24251   -1.000
 4049.00    1.24988   1.24372   -1.000
 4050.00    1.23324   1.24326   -1.000
 4051.00    1.13258   1.24144   -1.000
 4052.00    0.95562   1.23846   -1.000
 4053.00    0.94330   1.23402   -1.000
 4054.00    1.06275   1.23002   -1.000
 4055.00    1.08825   1.22476   -1.000
 4056.00    1.04759   1.22088   -1.000
 4057.00    1.05355   1.21674   -1.000
 4058.00    1.08830   1.21370   -1.000
 4059.00    0.99712   1.21179   -1.000
 4060.00    0.83798   1.21077   -1.000
 4061.00    0.78556   1.21087   -1.000
 4062.00    0.78316   1.21079   -1.000
 4063.00    0.79501   1.21192   -1.000
 4064.00    0.81261   1.21255   -1.000
 4065.00    0.73635   1.21487   -1.000
 4066.00    0.62773   1.21539   -1.000
 4067.00    0.75833   1.21584   -1.000
 4068.00    0.95840   1.21572   -1.000
 4069.00    1.00048   1.21610   -1.000
 4070.00    1.00462   1.21618   -1.000
 4071.00    0.89641   1.21694   -1.000
 4072.00    0.76643   1.21910   -1.000
 4073.00    0.91682   1.22372   -1.000
 4074.00    1.10947   1.22998   -1.000
 4075.00    1.12847   1.23727   -1.000
 4076.00    1.12826   1.24657   -1.000
 4077.00    1.01476   1.25707   -1.000
 4078.00    0.89296   1.26896   -1.000
 4079.00    0.75962   1.28147   -1.000
 4080.00    0.62584   1.29331   -1.000
 4081.00    0.72411   1.30396   -1.000
 4082.00    0.82824   1.31249   -1.000
 4083.00    1.10465   1.31849   -1.000
 4084.00    1.35904   1.32165   -1.000
 4085.00    1.25044   1.32191   -1.000
 4086.00    1.14554   1.31817   -1.000
 4087.00    1.07864   1.31115   -1.000
 4088.00    1.01334   1.29982   -1.000
 4089.00    0.95978   1.28530   -1.000
 4090.00    0.89336   1.26760   -1.000
 4091.00    0.75483   1.24840   -1.000
 4092.00    0.79410   1.22857    0.000
 4093.00    1.62902   1.20891    0.000
 4094.00    2.23015   1.19185    0.000
 4095.00    1.97262   1.17635    0.000
 4096.00    1.87572   1.16518    0.000
 4097.00    2.27282   1.15834    0.000
 4098.00    2.46710   1.15644    0.000
 4099.00    2.13128   1.15881    0.000
 4100.00    2.01103   1.16525    0.000
 4101.00    2.37493   1.17507    0.000
 4102.00    2.57561   1.18768    0.000
 4103.00    2.45865   1.20289    0.000
 4104.00    2.18466   1.21805    0.000
 4105.00    1.64420   1.23275    0.000
 4106.00    1.30493   1.24646    0.000
 4107.00    1.26474   1.25850    0.000
 4108.00    1.38050   1.26884    0.000
 4109.00    1.70005   1.27757    0.000
 4110.00    1.80737   1.28432    0.000
 4111.00    1.67041   1.28989    0.000
 4112.00    1.79500   1.29377    0.000
 4113.00    2.18507   1.29650    0.049
 4114.00    2.45917   1.29803    0.050
 4115.00    2.62944   1.29827    0.050
 4116.00    2.62621   1.29797    0.050
 4117.00    2.48609   1.29659    0.050
 4118.00    2.21067   1.29473    0.050
 4119.00    1.84137   1.29179    0.049
 4120.00    1.78886   1.28929    0.049
 4121.00    1.92914   1.28585    0.049
 4122.00    2.45171   1.28157    0.050
 4123.00    3.17738   1.27758    0.051
 4124.00    3.25274   1.27308    0.051
 4125.00    3.02824   1.26991    0.051
 4126.00    2.69708   1.26584    0.051
 4127.00    2.32357   1.26399    0.050
 4128.00    2.01467   1.26164    0.050
 4129.00    1.72764   1.26208    0.049
 4130.00    1.60212   1.26203    0.048
 4131.00    1.52256   1.26350    0.048
 4132.00    1.85640   1.26424    0.048
 4133.00    2.28729   1.26503    0.048
 4134.00    2.30217   1.26625    0.048
 4135.00    2.23853   1.26537    0.048
 4136.00    2.17720   1.26553    0.050
 4137.00    2.11621   1.26289    0.051
 4138.00    2.32360   1.26120    0.052
 4139.00    2.55950   1.25882    0.052
 4140.00    2.29266   1.25695    0.051
 4141.00    1.99104   1.25543    0.050
 4142.00    1.71978   1.25461    0.050
 4143.00    1.44957   1.25438    0.051
 4144.00    1.39371   1.25571    0.048
 4145.00    1.34406   1.25850    0.046
 4146.00    1.48558   1.26103    0.046
 4147.00    1.61101   1.26414    0.047
 4148.00    1.48755   1.26680    0.047
 4149.00    1.38882   1.27099    0.046
 4150.00    1.53391   1.27445    0.047
 4151.00    1.65519   1.28007    0.047
 4152.00    1.60753   1.28470    0.048
 4153.00    1.61673   1.29024    0.048
 4154.00    1.93637   1.29519    0.048
 4155.00    2.19680   1.29978    0.049
 4156.00    2.19839   1.30407    0.048
 4157.00    2.23378   1.30609    0.048
 4158.00    2.39073   1.30737    0.048
 4159.00    2.36201   1.30603    0.047
 4160.00    1.77301   1.30306    0.045
 4161.00    1.29047   1.29798    0.044
 4162.00    1.08130   1.29135    0.044
 4163.00    1.16674   1.28392    0.044
 4164.00    1.90297   1.27476    0.045
 4165.00    2.37743   1.26596    0.046
 4166.00    2.35045   1.25743    0.046
 4167.00    2.34202   1.24970    0.046
 4168.00    2.36461   1.24309    0.046
 4169.00    2.34826   1.23842    0.046
 4170.00    2.27489   1.23560    0.044
 4171.00    2.18427   1.23354    0.044
 4172.00    2.07142   1.23367    0.044
 4173.00    1.83302   1.23488    0.044
 4174.00    1.45215   1.23805    0.043
 4175.00    1.13221   1.24187    0.042
 4176.00    0.87323   1.24542    0.042
 4177.00    0.89038   1.24956    0.041
 4178.00    1.15128   1.25205    0.041
 4179.00    1.29390   1.25603    0.041
 4180.00    1.34453   1.25870    0.041
 4181.00    1.46120   1.26106    0.041
 4182.00    1.62304   1.26208    0.041
 4183.00    1.80894   1.26322    0.042
 4184.00    2.00928   1.26438    0.042
 4185.00    1.91986   1.26341    0.042
 4186.00    1.67890   1.26311    0.042
 4187.00    1.54556   1.26000    0.041
 4188.00    1.46104   1.25764    0.041
 4189.00    1.23568   1.25435    0.041
 4190.00    0.95536   1.25039    0.041
 4191.00    1.07958   1.24563    0.041
 4192.00    1.33816   1.24063    0.041
 4193.00    1.70148   1.23752    0.041
 4194.00    2.09399   1.23406    0.042
 4195.00    2.12762   1.23224    0.042
 4196.00    2.07891   1.23173    0.042
 4197.00    2.08157   1.23412    0.042
 4198.00    2.09368   1.23769    0.043
 4199.00    1.71361   1.24328    0.042
 4200.00    1.27808   1.25051    0.041
 4201.00    1.38998   1.25814    0.041
 4202.00    1.55770   1.26508    0.041
 4203.00    1.66210   1.27253    0.041
 4204.00    1.76238   1.27934    0.041
 4205.00    1.99852   1.28414    0.041
 4206.00    2.23805   1.28871    0.042
 4207.00    1.97368   1.29111    0.042
 4208.00    1.72329   1.29266    0.042
 4209.00    1.88367   1.29179    0.043
 4210.00    2.03508   1.28971    0.043
 4211.00    2.05594   1.28581    0.043
 4212.00    2.05887   1.28085    0.043
 4213.00    1.89235   1.27312    0.042
 4214.00    1.78921   1.26365    0.042
 4215.00    2.12185   1.25307    0.042
 4216.00    2.43258   1.24074    0.042
 4217.00    2.62693   1.23038    0.043
 4218.00    2.73400   1.21880    0.043
 4219.00    2.46837   1.20763    0.043
 4220.00    2.18888   1.19755    0.042
 4221.00    1.86052   1.18999    0.042
 4222.00    1.66045   1.18423    0.042
 4223.00    1.84032   1.18152    0.042
 4224.00    1.89042   1.18241    0.042
 4225.00    1.61306   1.18540    0.041
 4226.00    1.49437   1.19141    0.041
 4227.00    1.72046   1.19901    0.041
 4228.00    1.90986   1.21011    0.042
 4229.00    2.03009   1.22051    0.041
 4230.00    2.10787   1.22965    0.040
 4231.00    2.11575   1.23821    0.040
 4232.00    1.98771   1.24559    0.039
 4233.00    1.66346   1.25265    0.038
 4234.00    1.50463   1.25881    0.038
 4235.00    1.55583   1.26518    0.038
 4236.00    1.61593   1.26822    0.038
 4237.00    1.68599   1.27211    0.038
 4238.00    1.84896   1.27466    0.038
 4239.00    2.10362   1.27528    0.038
 4240.00    2.10072   1.27484    0.038
 4241.00    1.87367   1.27380    0.038
 4242.00    1.91673   1.27125    0.038
 4243.00    2.16686   1.26648    0.039
 4244.00    2.28941   1.26292    0.039
 4245.00    2.32598   1.25918    0.040
 4246.00    2.23725   1.25559    0.040
 4247.00    2.07452   1.25137    0.040
 4248.00    2.01387   1.24873    0.040
 4249.00    2.00577   1.24671    0.040
 4250.00    1.76573   1.24602    0.040
 4251.00    1.42221   1.24678    0.039
 4252.00    1.49414   1.24940    0.039
 4253.00    1.72534   1.25181    0.039
 4254.00    2.01335   1.25317    0.039
 4255.00    2.31988   1.25708    0.038
 4256.00    2.24639   1.25911    0.038
 4257.00    2.06919   1.26279    0.038
 4258.00    1.91610   1.26278    0.038
 4259.00    1.76843   1.26201    0.038
 4260.00    1.94971   1.25879    0.038
 4261.00    2.18983   1.25470    0.038
 4262.00    2.26351   1.25138    0.038
 4263.00    2.31442   1.24458    0.039
 4264.00    2.19751   1.23750    0.039
 4265.00    2.06421   1.22937    0.039
 4266.00    2.25654   1.22335    0.039
 4267.00    2.46878   1.21688    0.039
 4268.00    2.44056   1.21227    0.039
 4269.00    2.40555   1.20916    0.038
 4270.00    2.31046   1.20849    0.038
 4271.00    2.21694   1.20868    0.038
 4272.00    2.16471   1.21080    0.038
 4273.00    2.09755   1.21555    0.039
 4274.00    1.82515   1.21810    0.038
 4275.00    1.57284   1.21989    0.037
 4276.00    1.50299   1.22144    0.038
 4277.00    1.43702   1.22136    0.038
 4278.00    1.39691   1.21763    0.038
 4279.00    1.42809   1.21260    0.038
 4280.00    1.82832   1.20505    0.038
 4281.00    2.16510   1.19782    0.039
 4282.00    2.23698   1.19118   -2.000
 4283.00    2.29658   1.18181   -2.000
 4284.00    2.31377   1.17389   -2.000
 4285.00    2.32148   1.16329   -2.000
 4286.00    2.30160   1.15271   -2.000
 4287.00    2.24316   1.14246   -2.000
 4288.00    2.08905   1.13011   -2.000
 4289.00    1.86826   1.11700   -2.000
 4290.00    1.50489   1.10228   -2.000
 4291.00    1.39285   1.08872   -2.000
 4292.00    1.74745   1.07402   -2.000
 4293.00    2.06267   1.05937   -2.000
 4294.00    2.31400   1.04276   -2.000
 4295.00    2.33897   1.02725   -2.000
 4296.00    2.04191   1.01359   -2.000
 4297.00    1.78882   1.00047   -2.000
 4298.00    1.59079   0.99083    0.040
 4299.00    1.57430   0.98364    0.040
 4300.00    1.75806   0.98142    0.039
 4301.00    1.78439   0.98497    0.039
 4302.00    1.65752   0.99297    0.039
 4303.00    1.50801   1.00473    0.038
 4304.00    1.33906   1.02249    0.039
 4305.00    1.28579   1.04482    0.039
 4306.00    1.31993   1.07032    0.039
 4307.00    1.33926   1.10042    0.039
 4308.00    1.34876   1.13087    0.039
 4309.00    1.38819   1.16337    0.039
 4310.00    1.44502   1.19511    0.039
 4311.00    1.63659   1.22506    0.039
 4312.00    1.89644   1.25005    0.039
 4313.00    1.85712   1.27211    0.039
 4314.00    1.68652   1.28757    0.038
 4315.00    1.73236   1.29875    0.038
 4316.00    1.85973   1.30704    0.038
 4317.00    1.86652   1.31088    0.038
 4318.00    1.83477   1.31359    0.038
 4319.00    1.72018   1.31332    0.038
 4320.00    1.58346   1.31480    0.037
 4321.00    1.78735   1.31339    0.037
 4322.00    2.06577   1.31507    0.038
 4323.00    2.09558   1.31652    0.039
 4324.00    2.08213   1.31801    0.039
 4325.00    1.84891   1.32068    0.038
 4326.00    1.58661   1.32173    0.038
 4327.00    1.70063   1.32340    0.037
 4328.00    1.84981   1.31987    0.037
 4329.00    1.80758   1.31302    0.037
 4330.00    1.75440   1.30374    0.000
 4331.00    1.92654   1.29188    0.000
 4332.00    2.10225   1.28189    0.000
 4333.00    2.08514   1.27263    0.000
 4334.00    2.07248   1.26443    0.000
 4335.00    2.16634   1.25778    0.000
 4336.00    2.24259   1.25505    0.000
 4337.00    2.08968   1.25374    0.000
 4338.00    1.95675   1.25558    0.000
 4339.00    1.99849   1.26244    0.000
 4340.00    2.05128   1.27087    0.000
 4341.00    2.17538   1.28116    0.000
 4342.00    2.26490   1.29199    0.000
 4343.00    2.17997   1.30181    0.000
 4344.00    2.08485   1.31140    0.000
 4345.00    1.94810   1.32152    0.000
 4346.00    1.87195   1.32935    0.000
 4347.00    2.00076   1.33672    0.000
 4348.00    2.10028   1.34415    0.000
 4349.00    2.11621   1.35146    0.000
 4350.00    2.08933   1.35677    0.000
 4351.00    1.95805   1.36271   -1.000
 4352.00    1.91617   1.36989   -1.000
 4353.00    2.06231   1.37907   -1.000
 4354.00    2.18952   1.38773   -1.000
 4355.00    2.28214   1.39451   -1.000
 4356.00    2.33550   1.40182    0.181
 4357.00    2.32616   1.40663    0.050
 4358.00    2.35361   1.40911    0.035
 4359.00    2.43264   1.40917    0.035
 4360.00    2.35273   1.41015    0.035
 4361.00    2.07671   1.40885    0.035
 4362.00    1.93395   1.40579    0.035
 4363.00    1.93612   1.40098    0.035
 4364.00    2.03795   1.39438    0.036
 4365.00    2.23537   1.38672    0.036
 4366.00    2.19209   1.37751    0.036
 4367.00    1.94522   1.36856    0.035
 4368.00    1.85385   1.36058    0.035
 4369.00    1.87831   1.35367    0.035
 4370.00    1.96046   1.34557    0.035
 4371.00    2.08036   1.33666    0.035
 4372.00    2.06471   1.32876    0.035
 4373.00    1.97141   1.31918    0.036
 4374.00    1.94130   1.30662    0.035
 4375.00    1.94269   1.29667    0.035
 4376.00    1.97852   1.28923    0.035
 4377.00    2.02920   1.28503    0.035
 4378.00    1.82714   1.28055    0.035
 4379.00    1.53156   1.27683    0.034
 4380.00    1.33011   1.27508    0.034
 4381.00    1.15818   1.27507    0.034
 4382.00    1.37065   1.27788    0.034
 4383.00    1.68369   1.28132    0.034
 4384.00    1.77496   1.28857    0.034
 4385.00    1.81887   1.29870    0.034
 4386.00    2.01362   1.30957    0.034
 4387.00    2.23388   1.31975    0.035
 4388.00    2.10075   1.32852    0.035
 4389.00    1.92248   1.33616    0.035
 4390.00    1.78846   1.34301    0.034
 4391.00    1.65838   1.34693    0.034
 4392.00    1.78014   1.35087    0.034
 4393.00    1.91530   1.35399    0.034
 4394.00    2.05542   1.35443    0.035
 4395.00    2.19306   1.35268    0.035
 4396.00    2.12211   1.35139    0.035
 4397.00    2.05140   1.35203    0.035
 4398.00    1.98622   1.35004    0.035
 4399.00    1.90810   1.34908    0.035
 4400.00    1.67022   1.34932    0.035
 4401.00    1.45890   1.35161    0.034
 4402.00    1.47101   1.35698    0.034
 4403.00    1.47937   1.36282    0.034
 4404.00    1.46414   1.36783    0.034
 4405.00    1.45339   1.37263    0.035
 4406.00    1.46465   1.38037    0.035
 4407.00    1.54447   1.38790    0.035
 4408.00    1.89801   1.39302    0.035
 4409.00    2.17534   1.40004    0.035
 4410.00    2.19991   1.40822    0.035
 4411.00    2.19042   1.41386    0.035
 4412.00    2.08549   1.41859    0.036
 4413.00    1.95537   1.42171    0.036
 4414.00    1.76487   1.42345    0.036
 4415.00    1.68142   1.42408    0.035
 4416.00    1.81950   1.42623    0.035
 4417.00    1.86747   1.42936    0.034
 4418.00    1.75321   1.42919    0.034
 4419.00    1.75224   1.43003    0.034
 4420.00    1.92959   1.42952    0.035
 4421.00    2.00691   1.42711    0.035
 4422.00    1.94600   1.42604    0.035
 4423.00    1.89172   1.42421    0.034
 4424.00    1.84551   1.42414    0.034
 4425.00    1.87558   1.42311    0.034
 4426.00    1.98743   1.42080    0.034
 4427.00    2.00948   1.41996    0.034
 4428.00    1.94660   1.41970    0.034
 4429.00    1.92639   1.42207    0.035
 4430.00    1.94176   1.42417    0.035
 4431.00    1.86350   1.42655    0.035
 4432.00    1.71650   1.43084    0.035
 4433.00    1.82166   1.43240    0.035
 4434.00    2.08940   1.43401    0.035
 4435.00    2.13176   1.43611    0.035
 4436.00    2.04700   1.44006    0.036
 4437.00    1.90456   1.44570    0.035
 4438.00    1.73380   1.44930    0.034
 4439.00    1.78003   1.45227    0.035
 4440.00    1.91833   1.45236    0.036
 4441.00    2.14027   1.45113    0.036
 4442.00    2.39259   1.45016    0.036
 4443.00    2.30399   1.44737    0.036
 4444.00    2.11055   1.44512    0.036
 4445.00    2.02856   1.44171    0.036
 4446.00    1.97510   1.43559    0.035
 4447.00    2.04513   1.42797    0.035
 4448.00    2.14089   1.41879    0.035
 4449.00    2.09471   1.41320    0.035
 4450.00    2.02522   1.40567    0.034
 4451.00    1.96609   1.39996    0.035
 4452.00    1.90824   1.39559    0.035
 4453.00    2.04072   1.39129    0.034
 4454.00    2.18938   1.38996    0.034
 4455.00    2.09087   1.38772    0.034
 4456.00    1.98015   1.39281    0.034
 4457.00    1.98342   1.39809    0.034
 4458.00    1.98925   1.40367    0.033
 4459.00    2.04143   1.41087    0.033
 4460.00    2.08606   1.41819    0.033
 4461.00    1.97782   1.42811    0.000
 4462.00    1.88921   1.43578    0.000
 4463.00    2.03122   1.44808    0.000
 4464.00    2.13725   1.45997    0.000
 4465.00    1.95150   1.46961    0.000
 4466.00    1.78178   1.47990    0.000
 4467.00    1.70969   1.48870    0.000
 4468.00    1.69489   1.49702    0.000
 4469.00    1.95499   1.50347    0.000
 4470.00    2.17402   1.51083    0.000
 4471.00    2.23271   1.51674    0.000
 4472.00    2.26690   1.51990    0.000
 4473.00    2.22139   1.52121    0.000
 4474.00    2.16589   1.52215    0.000
 4475.00    2.08287   1.52144    0.000
 4476.00    2.01314   1.52166    0.000
 4477.00    1.97474   1.52332    0.000
 4478.00    2.01630   1.52308    0.000
 4479.00    2.22074   1.52226    0.000
 4480.00    2.35080   1.51953    0.000
 4481.00    2.34901   1.51775    0.000
 4482.00    2.33986   1.51578    0.033
 4483.00    2.31930   1.51585    0.033
 4484.00    2.19621   1.51810    0.033
 4485.00    1.93350   1.51831    0.033
 4486.00    1.82393   1.51900    0.032
 4487.00    1.89799   1.51722    0.032
 4488.00    1.95364   1.51759    0.032
 4489.00    1.98983   1.51960    0.032
 4490.00    2.05890   1.52334    0.032
 4491.00    2.15865   1.53070    0.032
 4492.00    2.20502   1.53640    0.032
 4493.00    2.20753   1.54324    0.032
 4494.00    2.21865   1.54781    0.032
 4495.00    2.23601   1.55489    0.032
 4496.00    2.14306   1.56534    0.032
 4497.00    1.98004   1.57362    0.032
 4498.00    2.02228   1.58230    0.032
 4499.00    2.17854   1.58819    0.032
 4500.00    2.23058   1.59275    0.032
 4501.00    2.23226   1.59579    0.031
 4502.00    2.23917   1.59825    0.031
 4503.00    2.24826   1.60148    0.031
 4504.00    2.25259   1.60110    0.031
 4505.00    2.25524   1.59857    0.031
 4506.00    2.32247   1.59462    0.031
 4507.00    2.40919   1.59041    0.031
 4508.00    2.36692   1.58460    0.031
 4509.00    2.29236   1.57952    0.030
 4510.00    2.21591   1.57372    0.031
 4511.00    2.13908   1.56545    0.031
 4512.00    2.20832   1.55846    0.031
 4513.00    2.30087   1.54977    0.031
 4514.00    2.31273   1.54238    0.031
 4515.00    2.31501   1.53209    0.031
 4516.00    2.31852   1.52148    0.031
 4517.00    2.32213   1.51280    0.031
 4518.00    2.18130   1.50156    0.031
 4519.00    2.03389   1.49119    0.030
 4520.00    2.17045   1.48040    0.030
 4521.00    2.30454   1.46990    0.030
 4522.00    2.13499   1.46039    0.030
 4523.00    1.97385   1.45361    0.030
 4524.00    1.97047   1.44852    0.030
 4525.00    1.96422   1.44717    0.031
 4526.00    1.92593   1.44386    0.030
 4527.00    1.90947   1.44262    0.030
 4528.00    2.06385   1.44441    0.030
 4529.00    2.18021   1.44827    0.030
 4530.00    2.07176   1.45876    0.030
 4531.00    1.98118   1.46557    0.030
 4532.00    1.97423   1.47416    0.030
 4533.00    2.00349   1.48036    0.030
 4534.00    2.17111   1.48518    0.031
 4535.00    2.24887   1.49209    0.031
 4536.00    2.04013   1.49819    0.030
 4537.00    1.90660   1.50449    0.030
 4538.00    1.97631   1.50645    0.030
 4539.00    2.04121   1.50815    0.030
 4540.00    2.09499   1.50768    0.030
 4541.00    2.09861   1.50689    0.031
 4542.00    2.00171   1.50501    0.030
 4543.00    2.01593   1.50501    0.030
 4544.00    2.22413   1.50649    0.030
 4545.00    2.27111   1.50525    0.030
 4546.00    2.07171   1.50696    0.030
 4547.00    1.98334   1.50807    0.030
 4548.00    2.04402   1.51070    0.030
 4549.00    2.07999   1.51405    0.030
 4550.00    2.08673   1.52010    0.000
 4551.00    1.99578   1.52761    0.000
 4552.00    1.80299   1.53290    0.000
 4553.00    1.86264   1.53849    0.000
 4554.00    2.15438   1.54397    0.000
 4555.00    2.31062   1.55050    0.000
 4556.00    2.35703   1.55493    0.000
 4557.00    2.30707   1.55935    0.000
 4558.00    2.18836   1.56316    0.000
 4559.00    2.14602   1.56522    0.000
 4560.00    2.15146   1.56893    0.000
 4561.00    2.16188   1.57111    0.000
 4562.00    2.17500   1.57301    0.000
 4563.00    2.20202   1.57361    0.000
 4564.00    2.23564   1.57101    0.000
 4565.00    2.18660   1.57083    0.000
 4566.00    2.10367   1.57203    0.000
 4567.00    2.04531   1.57205    0.000
 4568.00    1.99556   1.57095    0.000
 4569.00    1.97960   1.56824    0.000
 4570.00    1.97363   1.56591    0.000
 4571.00    2.08534   1.56181    0.000
 4572.00    2.22589   1.55725    0.000
 4573.00    2.26707   1.55575    0.000
 4574.00    2.28856   1.55229    0.000
 4575.00    2.27517   1.54951    0.000
 4576.00    2.25639   1.54732    0.000
 4577.00    2.23968   1.54522    0.000
 4578.00    2.22321   1.54402    0.000
 4579.00    2.10914   1.54154    0.000
 4580.00    1.98757   1.54179    0.000
 4581.00    1.99089   1.54249    0.000
 4582.00    1.99941   1.54455    0.000
 4583.00    1.99010   1.54578    0.000
 4584.00    1.97784   1.54592    0.000
 4585.00    1.84559   1.54645    0.000
 4586.00    1.73082   1.54624    0.000
 4587.00    1.92157   1.54806    0.000
 4588.00    2.10989   1.54837    0.000
 4589.00    2.27220   1.54954    0.000
 4590.00    2.39764   1.54980    0.000
 4591.00    2.24442   1.54949    0.000
 4592.00    2.11225   1.55138    0.000
 4593.00    2.10101   1.55105    0.000
 4594.00    2.09281   1.55378    0.000
 4595.00    2.09853   1.55589    0.000
 4596.00    2.07187   1.55887    0.000
 4597.00    1.92408   1.56403    0.000
 4598.00    1.82845   1.56673    0.000
 4599.00    1.89594   1.57211    0.000
 4600.00    1.94995   1.57582    0.000
 4601.00    1.96813   1.58062    0.000
 4602.00    1.96953   1.58737    0.000
 4603.00    1.93268   1.59272    0.000
 4604.00    1.95065   1.59699    0.000
 4605.00    2.07679   1.60115    0.000
 4606.00    2.14713   1.60406    0.000
 4607.00    2.12155   1.60714    0.000
 4608.00    2.10206   1.61127    0.000
 4609.00    2.09173   1.61346    0.000
 4610.00    2.07761   1.61622    0.000
 4611.00    2.05847   1.61614    0.000
 4612.00    2.05920   1.61688    0.000
 4613.00    2.08311   1.61770    0.000
 4614.00    2.21367   1.61838    0.000
 4615.00    2.45384   1.61989    0.000
 4616.00    2.51413   1.61916    0.000
 4617.00    2.41136   1.61876    0.000
 4618.00    2.20936   1.61774    0.000
 4619.00    1.92809   1.61682    0.000
 4620.00    1.87758   1.61521    0.000
 4621.00    1.98926   1.61402    0.000
 4622.00    2.10118   1.61127    0.000
 4623.00    2.21325   1.60801    0.000
 4624.00    2.28261   1.60613    0.000
 4625.00    2.32897   1.60185    0.000
 4626.00    2.34187   1.59803    0.000
 4627.00    2.33914   1.59450    0.000
 4628.00    2.26722   1.58972    0.000
 4629.00    2.16743   1.58592    0.000
 4630.00    2.13072   1.58174    0.000
 4631.00    2.11572   1.57849    0.000
 4632.00    2.21587   1.57468    0.000
 4633.00    2.34938   1.56905    0.000
 4634.00    2.24837   1.56571    0.000
 4635.00    2.09121   1.56245    0.000
 4636.00    2.03588   1.55977    0.000
 4637.00    2.00022   1.55723    0.000
 4638.00    1.99054   1.55402    0.000
 4639.00    1.98476   1.55112    0.000
 4640.00    1.99067   1.54868    0.000
 4641.00    1.99787   1.54830    0.000
 4642.00    2.05318   1.54753    0.000
 4643.00    2.11200   1.54733    0.000
 4644.00    1.97052   1.54750    0.000
 4645.00    1.82147   1.54877    0.000
 4646.00    1.86215   1.55116    0.000
 4647.00    1.90405   1.55272    0.000
 4648.00    1.95485   1.55698    0.000
 4649.00    1.99746   1.55961    0.000
 4650.00    1.90597   1.56182    0.000
 4651.00    1.82243   1.56513    0.000
 4652.00    1.82030   1.56694    0.000
 4653.00    1.81618   1.57078    0.000
 4654.00    1.79747   1.57034    0.000
 4655.00    1.79827   1.56702    0.000
 4656.00    1.90810   1.56483    0.000
 4657.00    1.98155   1.56155    0.000
 4658.00    1.89267   1.55982    0.000
 4659.00    1.83009   1.55678    0.000
 4660.00    1.86385   1.55143    0.000
 4661.00    1.91524   1.54627    0.000
 4662.00    2.02072   1.54084    0.000
 4663.00    2.04777   1.53817    0.000
 4664.00    1.87034   1.53900    0.000
 4665.00    1.74563   1.53953    0.000
 4666.00    1.73909   1.53981    0.000
 4667.00    1.71655   1.53883    0.000
 4668.00    1.66293   1.53957    0.000
 4669.00    1.65153   1.54383    0.000
 4670.00    1.71163   1.54696    0.000
 4671.00    1.81206   1.55069    0.000
 4672.00    1.97233   1.55289    0.000
 4673.00    2.00577   1.55329    0.000
 4674.00    1.87380   1.55488    0.000
 4675.00    1.74716   1.55589    0.000
 4676.00    1.62664   1.55863    0.000
 4677.00    1.56627   1.56083    0.000
 4678.00    1.56683   1.56170    0.000
 4679.00    1.64026   1.56299    0.000
 4680.00    1.77879   1.56416    0.000
 4681.00    1.87328   1.56602    0.000
 4682.00    1.93307   1.56800    0.000
 4683.00    1.91629   1.57083    0.000
 4684.00    1.84646   1.57322    0.000
 4685.00    1.85729   1.57458    0.000
 4686.00    1.91711   1.57426    0.000
 4687.00    2.04118   1.57465    0.000
 4688.00    2.19932   1.57562    0.000
 4689.00    2.24697   1.57512    0.000
 4690.00    2.24377   1.57407    0.000
 4691.00    2.19203   1.56960    0.000
 4692.00    2.12106   1.56659    0.000
 4693.00    2.19362   1.56333    0.000
 4694.00    2.31463   1.55914    0.000
 4695.00    2.16892   1.55657    0.000
 4696.00    1.94751   1.55170    0.000
 4697.00    1.82061   1.54739    0.000
 4698.00    1.71583   1.54279    0.000
 4699.00    1.64319   1.54112    0.000
 4700.00    1.57659   1.54206    0.000
 4701.00    1.65248   1.54203    0.000
 4702.00    1.74908   1.54124    0.000
 4703.00    1.89427   1.54126    0.000
 4704.00    2.04459   1.54549    0.000
 4705.00    1.95920   1.55054    0.000
 4706.00    1.85762   1.55654    0.000
 4707.00    1.83500   1.56085    0.000
 4708.00    1.81507   1.56504    0.000
 4709.00    1.73902   1.57111    0.000
 4710.00    1.66634   1.57599    0.000
 4711.00    1.70585   1.58353    0.000
 4712.00    1.74187   1.58900    0.000
 4713.00    1.72424   1.59205    0.000
 4714.00    1.70932   1.59523    0.000
 4715.00    1.72103   1.59600    0.000
 4716.00    1.74895   1.59820    0.000
 4717.00    1.89151   1.59819    0.000
 4718.00    1.99630   1.59621    0.000
 4719.00    1.89560   1.59491    0.000
 4720.00    1.79689   1.59191    0.000
 4721.00    1.70681   1.58867    0.000
 4722.00    1.67088   1.58372    0.000
 4723.00    1.82918   1.57984    0.000
 4724.00    1.96772   1.57747    0.000
 4725.00    2.04676   1.57581    0.000
 4726.00    2.09803   1.57370    0.000
 4727.00    2.07809   1.57086    0.000
 4728.00    2.03240   1.57103    0.000
 4729.00    1.92991   1.57167    0.000
 4730.00    1.82336   1.57390    0.000
 4731.00    1.70906   1.57541    0.000
 4732.00    1.68285   1.57657    0.000
 4733.00    1.80362   1.58123    0.000
 4734.00    1.90863   1.58452    0.000
 4735.00    1.99057   1.58768    0.000
 4736.00    2.02452   1.59043    0.000
 4737.00    1.99674   1.59261    0.000
 4738.00    1.97097   1.59736    0.000
 4739.00    1.94748   1.60047    0.000
 4740.00    1.86868   1.60134    0.000
 4741.00    1.73462   1.60255    0.000
 4742.00    1.71084   1.60332    0.000
 4743.00    1.78422   1.60408    0.000
 4744.00    1.81102   1.60306    0.000
 4745.00    1.80164   1.60092    0.000
 4746.00    1.81287   1.59874    0.000
 4747.00    1.83815   1.59537    0.000
 4748.00    1.90537   1.59171    0.000
 4749.00    1.99768   1.58653    0.000
 4750.00    2.07339   1.58227    0.000
 4751.00    2.14044   1.57715    0.000
 4752.00    2.06948   1.57073    0.000
 4753.00    1.93606   1.56569    0.000
 4754.00    1.88701   1.56014    0.000
 4755.00    1.87081   1.55627    0.000
 4756.00    1.91295   1.55143    0.000
 4757.00    1.97442   1.54667    0.000
 4758.00    1.89144   1.54425    0.000
 4759.00    1.76830   1.54292    0.000
 4760.00    1.77641   1.54325    0.000
 4761.00    1.81455   1.54214    0.026
 4762.00    1.82251   1.54258    0.026
 4763.00    1.82495   1.54505    0.025
 4764.00    1.92689   1.54889    0.025
 4765.00    2.04284   1.55319    0.025
 4766.00    1.95843   1.55452    0.025
 4767.00    1.85371   1.55774    0.025
 4768.00    1.78422   1.56145    0.025
 4769.00    1.71702   1.56507    0.025
 4770.00    1.79859   1.56853    0.025
 4771.00    1.88471   1.56763    0.025
 4772.00    1.99380   1.56804    0.025
 4773.00    2.09988   1.56844    0.025
 4774.00    2.11894   1.56762    0.025
 4775.00    2.13298   1.56814    0.025
 4776.00    2.07441   1.56467    0.025
 4777.00    2.00912   1.56290    0.025
 4778.00    1.88055   1.56227    0.024
 4779.00    1.76800   1.55971    0.024
 4780.00    1.76513   1.56145    0.024
 4781.00    1.76545   1.56024    0.024
 4782.00    1.78258   1.56014    0.024
 4783.00    1.79809   1.56328    0.024
 4784.00    1.80668   1.56399    0.024
 4785.00    1.79099   1.56884    0.024
 4786.00    1.69000   1.57147    0.024
 4787.00    1.62777   1.57356    0.025
 4788.00    1.68005   1.57851    0.024
 4789.00    1.70793   1.58069    0.024
 4790.00    1.67436   1.58425    0.024
 4791.00    1.70149   1.58695    0.025
 4792.00    1.86024   1.58814    0.025
 4793.00    1.97866   1.58954    0.026
 4794.00    2.02118   1.58972    0.025
 4795.00    1.99501   1.58964    0.025
 4796.00    1.85596   1.59011    0.025
 4797.00    1.81990   1.59016    0.025
 4798.00    1.93224   1.58891    0.025
 4799.00    1.97222   1.58825    0.025
 4800.00    1.92048   1.58689    0.025
 4801.00    1.88922   1.58738    0.025
 4802.00    1.88085   1.58865    0.026
 4803.00    1.88383   1.58801    0.026
 4804.00    1.89801   1.58935    0.026
 4805.00    1.84664   1.58972    0.025
 4806.00    1.73834   1.59117    0.025
 4807.00    1.74218   1.59385    0.025
 4808.00    1.83184   1.59385    0.025
 4809.00    1.88029   1.59589    0.025
 4810.00    1.90103   1.59708    0.025
 4811.00    1.89023   1.59743    0.025
 4812.00    1.86086   1.59878    0.025
 4813.00    1.85526   1.59620    0.025
 4814.00    1.86189   1.59523    0.025
 4815.00    1.85527   1.59508    0.025
 4816.00    1.84275   1.59291    0.025
 4817.00    1.83283   1.59120    0.025
 4818.00    1.82392   1.58611    0.026
 4819.00    1.85630   1.58249    0.026
 4820.00    1.90210   1.58241    0.026
 4821.00    1.87460   1.57990    0.026
 4822.00    1.82714   1.57679    0.025
 4823.00    1.88511   1.57312    0.025
 4824.00    1.96664   1.57043    0.025
 4825.00    1.87281   1.57115    0.025
 4826.00    1.74772   1.56998    0.026
 4827.00    1.80793   1.56764    0.025
 4828.00    1.89338   1.56606    0.025
 4829.00    1.88996   1.56505    0.025
 4830.00    1.87791   1.56524    0.025
 4831.00    1.81991   1.56459    0.025
 4832.00    1.75913   1.56387    0.025
 4833.00    1.81287   1.56189    0.025
 4834.00    1.86947   1.56066    0.026
 4835.00    1.89485   1.56072    0.026
 4836.00    1.91497   1.55971    0.025
 4837.00    1.79766   1.55936    0.025
 4838.00    1.68821   1.55554    0.025
 4839.00    1.68605   1.55206    0.025
 4840.00    1.68547   1.55100    0.025
 4841.00    1.69909   1.54693    0.025
 4842.00    1.73526   1.54273    0.025
 4843.00    1.92101   1.53546    0.025
 4844.00    2.05788   1.52635    0.025
 4845.00    1.94251   1.51795    0.025
 4846.00    1.84657   1.50600    0.025
 4847.00    1.83157   1.49536    0.025
 4848.00    1.82776   1.48383    0.000
 4849.00    1.86244   1.46876    0.000
 4850.00    1.88102   1.45249    0.000
 4851.00    1.85289   1.43460    0.000
 4852.00    1.83658   1.42442    0.000
 4853.00    1.84956   1.41711    0.000
 4854.00    1.80883   1.40573    0.000
 4855.00    1.65353   1.39501    0.000
 4856.00    1.57714   1.38453    0.000
 4857.00    1.64698   1.38512    0.000
 4858.00    1.67945   1.39226    0.000
 4859.00    1.65144   1.39463    0.000
 4860.00    1.58157   1.39756    0.000
 4861.00    1.45225   1.40049    0.000
 4862.00    1.42228   1.41011    0.000
 4863.00    1.51645   1.42502    0.000
 4864.00    1.54094   1.43651    0.000
 4865.00    1.48871   1.44495    0.000
 4866.00    1.45878   1.45152    0.000
 4867.00    1.45051   1.46133    0.000
 4868.00    1.46377   1.47315    0.000
 4869.00    1.49546   1.48447    0.000
 4870.00    1.54002   1.49105    0.000
 4871.00    1.59429   1.49379    0.000
 4872.00    1.57076   1.50012    0.000
 4873.00    1.49565   1.50611    0.000
 4874.00    1.53280   1.51275    0.000
 4875.00    1.63510   1.51599    0.024
 4876.00    1.70940   1.51334    0.024
 4877.00    1.76953   1.51612    0.024
 4878.00    1.73398   1.51919    0.024
 4879.00    1.65652   1.52174    0.024
 4880.00    1.66159   1.52368    0.024
 4881.00    1.69767   1.51995    0.024
 4882.00    1.69656   1.52424    0.024
 4883.00    1.68359   1.53105    0.024
 4884.00    1.66908   1.53470    0.024
 4885.00    1.65415   1.54027    0.023
 4886.00    1.70942   1.54149    0.023
 4887.00    1.78000   1.54991    0.024
 4888.00    1.82023   1.56160    0.024
 4889.00    1.85521   1.56642    0.024
 4890.00    1.71648   1.57300    0.024
 4891.00    1.55488   1.57759    0.024
 4892.00    1.59625   1.58357    0.024
 4893.00    1.65649   1.59134    0.023
 4894.00    1.51863   1.59236    0.023
 4895.00    1.36954   1.59333    0.024
 4896.00    1.35172   1.59626    0.023
 4897.00    1.34012   1.59649    0.023
 4898.00    1.68085   1.59568    0.024
 4899.00    2.00092   1.59272    0.024
 4900.00    1.83074   1.58931    0.024
 4901.00    1.68077   1.58919    0.023
 4902.00    1.79206   1.58659    0.023
 4903.00    1.88323   1.58117    0.023
 4904.00    1.79950   1.57634    0.023
 4905.00    1.72385   1.57106    0.023
 4906.00    1.70014   1.56791    0.023
 4907.00    1.67841   1.56437    0.023
 4908.00    1.66665   1.55748    0.023
 4909.00    1.66069   1.55110    0.023
 4910.00    1.67833   1.54513    0.023
 4911.00    1.71038   1.54114    0.023
 4912.00    1.79105   1.53919    0.023
 4913.00    1.84280   1.53480    0.023
 4914.00    1.81218   1.53052    0.023
 4915.00    1.78774   1.52818    0.023
 4916.00    1.77836   1.52966    0.023
 4917.00    1.77536   1.53381    0.023
 4918.00    1.78577   1.53577    0.023
 4919.00    1.79268   1.53736    0.023
 4920.00    1.79320   1.53924    0.023
 4921.00    1.76180   1.54551    0.023
 4922.00    1.67948   1.55340    0.023
 4923.00    1.63391   1.55541    0.022
 4924.00    1.63975   1.55737    0.022
 4925.00    1.67861   1.55946    0.022
 4926.00    1.75815   1.56267    0.023
 4927.00    1.77251   1.56696    0.023
 4928.00    1.71610   1.56416    0.023
 4929.00    1.70615   1.56221    0.023
 4930.00    1.74071   1.56573    0.023
 4931.00    1.78924   1.56815    0.023
 4932.00    1.84956   1.56987    0.023
 4933.00    1.80873   1.56910    0.023
 4934.00    1.69269   1.56898    0.022
 4935.00    1.65145   1.57605    0.022
 4936.00    1.65906   1.58285    0.022
 4937.00    1.65994   1.58536    0.022
 4938.00    1.65697   1.58866    0.022
 4939.00    1.71313   1.59177    0.023
 4940.00    1.79872   1.59651    0.000
 4941.00    1.89728   1.60129    0.000
 4942.00    2.00141   1.60147    0.000
 4943.00    1.98481   1.60213    0.000
 4944.00    1.92364   1.60035    0.000
 4945.00    1.88779   1.59765    0.000
 4946.00    1.85987   1.59619    0.000
 4947.00    1.85399   1.58890    0.000
 4948.00    1.85387   1.58371    0.000
 4949.00    1.89165   1.57815    0.000
 4950.00    1.93749   1.57196    0.000
 4951.00    1.92622   1.56929    0.000
 4952.00    1.90532   1.55834    0.000
 4953.00    1.83859   1.55234    0.000
 4954.00    1.76602   1.55289    0.000
 4955.00    1.78567   1.54937    0.000
 4956.00    1.81351   1.54838    0.000
 4957.00    1.78023   1.54224    0.000
 4958.00    1.74372   1.54005    0.000
 4959.00    1.79467   1.54574    0.000
 4960.00    1.84630   1.54432    0.000
 4961.00    1.81942   1.54423    0.000
 4962.00    1.79289   1.54472    0.000
 4963.00    1.77384   1.54399    0.000
 4964.00    1.76040   1.54711    0.000
 4965.00    1.81579   1.54489    0.000
 4966.00    1.85706   1.54354    0.000
 4967.00    1.78003   1.54449    0.000
 4968.00    1.71481   1.54042    0.000
 4969.00    1.72335   1.53842    0.000
 4970.00    1.73015   1.53433    0.000
 4971.00    1.72848   1.52927    0.000
 4972.00    1.72368   1.52584    0.000
 4973.00    1.70641   1.51863    0.000
 4974.00    1.70806   1.51430    0.000
 4975.00    1.77230   1.51024    0.000
 4976.00    1.81405   1.50497    0.000
 4977.00    1.79299   1.50155    0.000
 4978.00    1.74831   1.49684    0.000
 4979.00    1.64715   1.49716    0.000
 4980.00    1.58583   1.49782    0.000
 4981.00    1.60685   1.49584    0.000
 4982.00    1.61448   1.49839    0.000
 4983.00    1.59809   1.49874    0.000
 4984.00    1.59894   1.50102    0.000
 4985.00    1.62688   1.50493    0.000
 4986.00    1.64654   1.50299    0.000
 4987.00    1.65476   1.50686    0.000
 4988.00    1.72165   1.50831    0.000
 4989.00    1.85977   1.50437    0.000
 4990.00    1.89224   1.50604    0.000
 4991.00    1.81163   1.50255    0.000
 4992.00    1.73853   1.49973    0.000
 4993.00    1.67252   1.49825    0.000
 4994.00    1.63612   1.49054    0.000
 4995.00    1.62437   1.48809    0.000
 4996.00    1.68167   1.48424    0.000
 4997.00    1.78956   1.47778    0.000
 4998.00    1.75642   1.47499    0.000
 4999.00    1.63252   1.46897    0.000
 5000.00    1.63255   1.46443    0.000
 5001.00    1.70233   1.45976    0.000
 5002.00    1.73061   1.45534    0.000
 5003.00    1.73855   1.45529    0.000
 5004.00    1.69835   1.45111    0.000
 5005.00    1.63777   1.44754    0.000
 5006.00    1.63406   1.44508    0.000
 5007.00    1.65096   1.44288    0.000
 5008.00    1.65204   1.44561    0.000
 5009.00    1.64828   1.44307    0.000
 5010.00    1.64097   1.44313    0.000
 5011.00    1.63277   1.44796    0.000
 5012.00    1.61773   1.44781    0.000
 5013.00    1.60128   1.45155    0.000
 5014.00    1.57162   1.45340    0.000
 5015.00    1.53981   1.45752    0.000
 5016.00    1.57270   1.46732    0.000
 5017.00    1.61354   1.46824    0.000
 5018.00    1.57414   1.47225    0.000
 5019.00    1.52797   1.47914    0.000
 5020.00    1.50234   1.48275    0.000
 5021.00    1.47771   1.49037    0.000
 5022.00    1.54967   1.48941    0.000
 5023.00    1.62018   1.48919    0.000
 5024.00    1.51159   1.49677    0.000
 5025.00    1.40768   1.49567    0.000
 5026.00    1.39757   1.49502    0.000
 5027.00    1.40213   1.49272    0.000
 5028.00    1.57812   1.48583    0.000
 5029.00    1.72659   1.48878    0.022
 5030.00    1.65290   1.48563    0.021
 5031.00    1.59654   1.47735    0.021
 5032.00    1.64524   1.47779    0.021
 5033.00    1.69327   1.47399    0.021
 5034.00    1.73809   1.47342    0.022
 5035.00    1.75411   1.47328    0.022
 5036.00    1.65792   1.46691    0.022
 5037.00    1.56298   1.47288    0.021
 5038.00    1.47209   1.47821    0.021
 5039.00    1.42310   1.47861    0.021
 5040.00    1.48916   1.48405    0.021
 5041.00    1.54444   1.48556    0.022
 5042.00    1.57439   1.49276    0.021
 5043.00    1.56206   1.50090    0.021
 5044.00    1.46377   1.50272    0.021
 5045.00    1.42187   1.51011    0.021
 5046.00    1.47975   1.51564    0.021
 5047.00    1.53663   1.51971    0.021
 5048.00    1.59197   1.52490    0.021
 5049.00    1.60549   1.52665    0.021
 5050.00    1.56218   1.53187    0.022
 5051.00    1.54651   1.53355    0.022
 5052.00    1.56394   1.53234    0.022
 5053.00    1.59393   1.53631    0.022
 5054.00    1.63719   1.53556    0.022
 5055.00    1.66645   1.53362    0.022
 5056.00    1.68271   1.53113    0.022
 5057.00    1.67760   1.52686    0.022
 5058.00    1.65497   1.52634    0.022
 5059.00    1.67472   1.52053    0.022
 5060.00    1.72509   1.51395    0.022
 5061.00    1.73195   1.51211    0.022
 5062.00    1.71122   1.50822    0.022
 5063.00    1.72376   1.50338    0.022
 5064.00    1.75475   1.49673    0.022
 5065.00    1.72758   1.49259    0.022
 5066.00    1.67238   1.49041    0.022
 5067.00    1.62523   1.48487    0.022
 5068.00    1.58143   1.48082    0.022
 5069.00    1.56098   1.47821    0.022
 5070.00    1.54886   1.47638    0.022
 5071.00    1.50365   1.47210    0.022
 5072.00    1.44848   1.46762    0.022
 5073.00    1.44291   1.46927    0.022
 5074.00    1.44972   1.46885    0.022
 5075.00    1.42978   1.46655    0.022
 5076.00    1.40441   1.46821    0.022
 5077.00    1.46170   1.47158    0.022
 5078.00    1.53213   1.47530    0.022
 5079.00    1.59636   1.47632    0.022
 5080.00    1.65985   1.47865    0.022
 5081.00    1.54979   1.48576    0.022
 5082.00    1.42578   1.49011    0.022
 5083.00    1.43993   1.49139    0.021
 5084.00    1.46031   1.49535    0.021
 5085.00    1.44496   1.49899    0.021
 5086.00    1.43025   1.50036    0.021
 5087.00    1.46816   1.50078    0.021
 5088.00    1.50759   1.49993    0.021
 5089.00    1.57541   1.50024    0.021
 5090.00    1.63907   1.49883    0.021
 5091.00    1.65628   1.49351    0.021
 5092.00    1.66728   1.49232    0.021
 5093.00    1.62975   1.49173    0.021
 5094.00    1.59651   1.48633    0.021
 5095.00    1.58852   1.48403    0.021
 5096.00    1.58487   1.48163    0.021
 5097.00    1.60150   1.47854    0.021
 5098.00    1.60973   1.47880    0.021
 5099.00    1.58598   1.47431    0.021
 5100.00    1.56198   1.47378    0.021
 5101.00    1.53716   1.47842    0.020
 5102.00    1.50888   1.47537    0.020
 5103.00    1.47125   1.47647    0.020
 5104.00    1.46466   1.48066    0.021
 5105.00    1.52984   1.47964    0.021
 5106.00    1.56952   1.48377    0.021
 5107.00    1.55818   1.48483    0.021
 5108.00    1.53651   1.48400    0.021
 5109.00    1.49683   1.48944    0.021
 5110.00    1.50246   1.48788    0.021
 5111.00    1.57720   1.48601    0.021
 5112.00    1.60223   1.48782    0.021
 5113.00    1.56064   1.48360    0.021
 5114.00    1.55951   1.48163    0.021
 5115.00    1.60611   1.47830    0.021
 5116.00    1.64836   1.47151    0.021
 5117.00    1.68608   1.47006    0.021
 5118.00    1.67610   1.46583    0.021
 5119.00    1.62235   1.46058    0.021
 5120.00    1.63212   1.45800    0.021
 5121.00    1.69328   1.45338    0.021
 5122.00    1.65406   1.45199    0.021
 5123.00    1.54337   1.44965    0.021
 5124.00    1.43676   1.44724    0.020
 5125.00    1.33269   1.44834    0.020
 5126.00    1.32831   1.44555    0.020
 5127.00    1.37833   1.44700    0.021
 5128.00    1.36884   1.44778    0.021
 5129.00    1.33113   1.44340    0.021
 5130.00    1.36786   1.44551    0.020
 5131.00    1.43505   1.44238    0.020
 5132.00    1.48684   1.44077    0.020
 5133.00    1.53326   1.44465    0.021
 5134.00    1.56216   1.43641    0.021
 5135.00    1.58591   1.43514    0.021
 5136.00    1.55742   1.43898    0.021
 5137.00    1.51618   1.43227    0.021
 5138.00    1.53352   1.43210    0.021
 5139.00    1.56244   1.43078    0.021
 5140.00    1.52939   1.42805    0.021
 5141.00    1.48679   1.43417    0.021
 5142.00    1.50895   1.43148    0.021
 5143.00    1.53848   1.42798    0.021
 5144.00    1.50310   1.43484    0.021
 5145.00    1.46277   1.43563    0.021
 5146.00    1.46874   1.43468    0.021
 5147.00    1.47662   1.43801    0.021
 5148.00    1.46866   1.43831    0.021
 5149.00    1.45910   1.44054    0.022
 5150.00    1.38815   1.44102    0.022
 5151.00    1.32143   1.43442    0.021
 5152.00    1.32820   1.43230    0.021
 5153.00    1.33742   1.42946    0.021
 5154.00    1.37275   1.41911    0.021
 5155.00    1.41047   1.41044    0.021
 5156.00    1.46616   1.39892    0.021
 5157.00    1.51741   1.38514    0.022
 5158.00    1.54320   1.37279    0.022
 5159.00    1.55489   1.35416    0.022
 5160.00    1.50237   1.33847    0.021
 5161.00    1.46115   1.32779    0.021
 5162.00    1.46205   1.31566    0.021
 5163.00    1.44512   1.30495    0.021
 5164.00    1.37256   1.29112    0.021
 5165.00    1.29908   1.28278    0.021
 5166.00    1.22317   1.28419    0.021
 5167.00    1.17444   1.27908    0.021
 5168.00    1.18756   1.27607    0.021
 5169.00    1.19154   1.28151    0.021
 5170.00    1.17754   1.28623    0.021
 5171.00    1.19109   1.29135    0.021
 5172.00    1.25189   1.29086    0.021
 5173.00    1.28804   1.29385    0.021
 5174.00    1.28714   1.30715    0.021
 5175.00    1.28768   1.30712    0.021
 5176.00    1.29013   1.30751    0.020
 5177.00    1.27803   1.32140    0.020
 5178.00    1.24903   1.32795    0.020
 5179.00    1.26715   1.33405    0.020
 5180.00    1.33363   1.33952    0.020
 5181.00    1.32335   1.34434    0.020
 5182.00    1.24362   1.35935    0.020
 5183.00    1.19207   1.36338    0.020
 5184.00    1.16300   1.36396    0.020
 5185.00    1.17327   1.38044    0.019
 5186.00    1.21114   1.39134    0.020
 5187.00    1.29103   1.39519    0.020
 5188.00    1.39679   1.40261    0.020
 5189.00    1.45547   1.40811    0.020
 5190.00    1.48884   1.41507    0.000
 5191.00    1.42074   1.41963    0.000
 5192.00    1.30529   1.41827    0.000
 5193.00    1.30321   1.42208    0.000
 5194.00    1.34673   1.42523    0.000
 5195.00    1.38016   1.42334    0.000
 5196.00    1.41012   1.42384    0.000
 5197.00    1.41572   1.42125    0.000
 5198.00    1.41427   1.42024    0.000
 5199.00    1.46377   1.42241    0.000
 5200.00    1.52544   1.41900    0.000
 5201.00    1.54829   1.41997    0.000
 5202.00    1.56366   1.42309    0.000
 5203.00    1.47684   1.42467    0.000
 5204.00    1.37473   1.43035    0.000
 5205.00    1.35032   1.43311    0.000
 5206.00    1.33443   1.43834    0.000
 5207.00    1.31963   1.44675    0.000
 5208.00    1.30492   1.44932    0.000
 5209.00    1.29628   1.45560    0.000
 5210.00    1.28788   1.46361    0.000
 5211.00    1.39341   1.46705    0.020
 5212.00    1.49613   1.47232    0.020
 5213.00    1.47681   1.47568    0.021
 5214.00    1.46176   1.47743    0.021
 5215.00    1.51595   1.47900    0.021
 5216.00    1.56396   1.47621    0.020
 5217.00    1.54912   1.47754    0.021
 5218.00    1.52983   1.47858    0.021
 5219.00    1.47815   1.47384    0.021
 5220.00    1.43564   1.47757    0.021
 5221.00    1.44419   1.47936    0.021
 5222.00    1.44940   1.47657    0.021
 5223.00    1.43979   1.48182    0.021
 5224.00    1.43960   1.48242    0.021
 5225.00    1.47383   1.48425    0.021
 5226.00    1.47971   1.49149    0.021
 5227.00    1.39882   1.49213    0.021
 5228.00    1.36175   1.49961    0.021
 5229.00    1.43870   1.50868    0.021
 5230.00    1.49278   1.51010    0.021
 5231.00    1.49573   1.51627    0.021
 5232.00    1.51477   1.52102    0.021
 5233.00    1.56504   1.52248    0.021
 5234.00    1.59325   1.52697    0.021
 5235.00    1.58418   1.52778    0.021
 5236.00    1.57341   1.52726    0.021
 5237.00    1.56012   1.53045    0.021
 5238.00    1.57377   1.52940    0.021
 5239.00    1.62252   1.52350    0.021
 5240.00    1.63618   1.52317    0.020
 5241.00    1.60960   1.52281    0.020
 5242.00    1.58897   1.51730    0.020
 5243.00    1.57436   1.51456    0.020
 5244.00    1.53395   1.51124    0.020
 5245.00    1.47052   1.50959    0.020
 5246.00    1.48369   1.50826    0.020
 5247.00    1.55707   1.49944    0.020
 5248.00    1.59322   1.49799    0.020
 5249.00    1.60361   1.49892    0.020
 5250.00    1.57235   1.48928    0.020
 5251.00    1.51585   1.48388    0.020
 5252.00    1.52925   1.48019    0.020
 5253.00    1.57965   1.47214    0.020
 5254.00    1.54385   1.46517    0.020
 5255.00    1.46846   1.45414    0.020
 5256.00    1.48565   1.44664    0.020
 5257.00    1.53944   1.44288    0.020
 5258.00    1.57896   1.43006    0.020
 5259.00    1.61368   1.42226    0.020
 5260.00    1.56727   1.42327    0.020
 5261.00    1.49790   1.41536    0.020
 5262.00    1.50990   1.40949    0.020
 5263.00    1.54089   1.41440    0.020
 5264.00    1.49246   1.41585    0.021
 5265.00    1.42914   1.41847    0.021
 5266.00    1.34407   1.42591    0.021
 5267.00    1.25585   1.43272    0.021
 5268.00    1.23922   1.44487    0.021
 5269.00    1.23011   1.45406    0.021
 5270.00    1.23702   1.45899    0.021
 5271.00    1.24503   1.47540    0.021
 5272.00    1.27925   1.48806    0.021
 5273.00    1.31435   1.49262    0.021
 5274.00    1.40992   1.50671    0.021
 5275.00    1.50318   1.51691    0.021
 5276.00    1.52025   1.52161    0.021
 5277.00    1.53513   1.53280    0.021
 5278.00    1.51650   1.53992    0.021
 5279.00    1.50283   1.54464    0.021
 5280.00    1.53750   1.55081    0.021
 5281.00    1.57287   1.55298    0.021
 5282.00    1.61316   1.55618    0.021
 5283.00    1.63658   1.55927    0.021
 5284.00    1.56851   1.55821    0.021
 5285.00    1.50853   1.55919    0.021
 5286.00    1.48371   1.55952    0.021
 5287.00    1.47974   1.55599    0.021
 5288.00    1.55036   1.55498    0.021
 5289.00    1.61101   1.55374    0.021
 5290.00    1.64173   1.54956    0.021
 5291.00    1.64796   1.54911    0.021
 5292.00    1.59155   1.54897    0.021
 5293.00    1.54535   1.54700    0.021
 5294.00    1.52162   1.54823    0.021
 5295.00    1.49743   1.54945    0.020
 5296.00    1.47237   1.55081    0.020
 5297.00    1.46332   1.55352    0.020
 5298.00    1.48093   1.55541    0.020
 5299.00    1.51139   1.55952    0.020
 5300.00    1.56061   1.56449    0.020
 5301.00    1.60384   1.56683    0.020
 5302.00    1.63937   1.56877    0.020
 5303.00    1.62855   1.57194    0.020
 5304.00    1.56533   1.57458    0.020
 5305.00    1.53950   1.57389    0.020
 5306.00    1.55095   1.57318    0.020
 5307.00    1.55334   1.57292    0.020
 5308.00    1.54777   1.56954    0.020
 5309.00    1.59617   1.56654    0.020
 5310.00    1.68641   1.56268    0.020
 5311.00    1.67321   1.55678    0.020
 5312.00    1.58953   1.55231    0.019
 5313.00    1.56715   1.54398    0.019
 5314.00    1.58136   1.53595    0.019
 5315.00    1.58958   1.53326    0.020
 5316.00    1.59467   1.52393    0.020
 5317.00    1.63414   1.51263    0.020
 5318.00    1.68914   1.50987    0.020
 5319.00    1.64789   1.50550    0.020
 5320.00    1.56924   1.49984    0.020
 5321.00    1.54689   1.49612    0.020
 5322.00    1.54315   1.49261    0.019
 5323.00    1.55360   1.49367    0.020
 5324.00    1.56800   1.49290    0.020
 5325.00    1.49812   1.49098    0.020
 5326.00    1.40902   1.49527    0.020
 5327.00    1.41157   1.49890    0.020
 5328.00    1.43085   1.49871    0.020
 5329.00    1.43825   1.50032    0.020
 5330.00    1.44399   1.50619    0.020
 5331.00    1.48927   1.51218    0.020
 5332.00    1.53854   1.51278    0.020
 5333.00    1.54308   1.51583    0.020
 5334.00    1.54474   1.52042    0.020
 5335.00    1.51069   1.52179    0.020
 5336.00    1.47560   1.52649    0.020
 5337.00    1.44936   1.52843    0.021
 5338.00    1.42521   1.53021    0.021
 5339.00    1.46035   1.53674    0.021
 5340.00    1.49600   1.53878    0.021
 5341.00    1.53881   1.54220    0.020
 5342.00    1.57652   1.54892    0.020
 5343.00    1.56648   1.55254    0.020
 5344.00    1.55957   1.55849    0.020
 5345.00    1.57410   1.56324    0.020
 5346.00    1.58033   1.56615    0.020
 5347.00    1.54274   1.57226    0.020
 5348.00    1.51455   1.57569    0.020
 5349.00    1.52633   1.57761    0.020
 5350.00    1.54027   1.57986    0.020
 5351.00    1.56174   1.58066    0.020
 5352.00    1.57857   1.58197    0.020
 5353.00    1.58166   1.57966    0.020
 5354.00    1.58239   1.57622    0.020
 5355.00    1.57720   1.57558    0.020
 5356.00    1.59336   1.57059    0.020
 5357.00    1.65569   1.56464    0.020
 5358.00    1.67032   1.56189    0.020
 5359.00    1.59534   1.55620    0.020
 5360.00    1.55920   1.55020    0.020
 5361.00    1.58677   1.54759    0.019
 5362.00    1.60789   1.54384    0.019
 5363.00    1.61975   1.54065    0.020
 5364.00    1.61035   1.54048    0.020
 5365.00    1.57407   1.53889    0.019
 5366.00    1.55099   1.53831    0.019
 5367.00    1.54265   1.54104    0.019
 5368.00    1.52363   1.54187   -2.000
 5369.00    1.49410   1.54320   -2.000
 5370.00    1.48657   1.54706   -2.000
 5371.00    1.49813   1.54803   -2.000
 5372.00    1.51028   1.54960   -2.000
 5373.00    1.52290   1.55421   -2.000
 5374.00    1.54158   1.55502   -2.000
 5375.00    1.56434   1.55497   -2.000
 5376.00    1.56473   1.55644   -2.000
 5377.00    1.55196   1.55480   -2.000
 5378.00    1.55167   1.55302   -2.000
 5379.00    1.55778   1.55205   -2.000
 5380.00    1.51672   1.54785   -2.000
 5381.00    1.45469   1.54461   -2.000
 5382.00    1.49487   1.54187   -2.000
 5383.00    1.57407   1.53485    0.020
 5384.00    1.58898   1.53135    0.020
 5385.00    1.58303   1.52849    0.020
 5386.00    1.59677   1.52004    0.020
 5387.00    1.61585   1.51614    0.020
 5388.00    1.64465   1.51343    0.020
 5389.00    1.67561   1.50591    0.020
 5390.00    1.64258   1.50180    0.020
 5391.00    1.59819   1.49840    0.020
 5392.00    1.58271   1.49333    0.020
 5393.00    1.57115   1.49111    0.020
 5394.00    1.54605   1.48723    0.020
 5395.00    1.51964   1.48433    0.019
 5396.00    1.51939   1.48457    0.019
 5397.00    1.52072   1.48133    0.019
 5398.00    1.54330   1.48034    0.020
 5399.00    1.56582   1.48398    0.020
 5400.00    1.48760   1.48365    0.020
 5401.00    1.40904   1.48371    0.019
 5402.00    1.32159   1.48937    0.019
 5403.00    1.24854   1.49220    0.019
 5404.00    1.37070   1.49418    0.019
 5405.00    1.48221   1.50084    0.020
 5406.00    1.49802   1.50478    0.020
 5407.00    1.50112   1.50891    0.020
 5408.00    1.42025   1.51758    0.019
 5409.00    1.36055   1.52076    0.019
 5410.00    1.40971   1.52285    0.019
 5411.00    1.45015   1.53049    0.019
 5412.00    1.45439   1.53251    0.019
 5413.00    1.48866   1.53444    0.019
 5414.00    1.62610   1.53917    0.019
 5415.00    1.70392   1.53585    0.019
 5416.00    1.60928   1.53641    0.019
 5417.00    1.55475   1.53990    0.019
 5418.00    1.59926   1.53396    0.019
 5419.00    1.61064   1.53333    0.019
 5420.00    1.55149   1.53375    0.019
 5421.00    1.52008   1.52693    0.019
 5422.00    1.53998   1.52793    0.019
 5423.00    1.54634   1.52696    0.019
 5424.00    1.53083   1.52138    0.018
 5425.00    1.52867   1.52420    0.018
 5426.00    1.54544   1.52284    0.019
 5427.00    1.54574   1.52067    0.019
 5428.00    1.52552   1.52567    0.019
 5429.00    1.52270   1.52361    0.019
 5430.00    1.53902   1.52271    0.019
 5431.00    1.54741   1.52919    0.019
 5432.00    1.54810   1.52838    0.019
 5433.00    1.55191   1.52771    0.019
 5434.00    1.55838   1.53210    0.019
 5435.00    1.58198   1.53112    0.019
 5436.00    1.61847   1.53052    0.019
 5437.00    1.60295   1.53239    0.019
 5438.00    1.55303   1.52954    0.019
 5439.00    1.55867   1.52818    0.019
 5440.00    1.59651   1.52788    0.019
 5441.00    1.58685   1.52257    0.019
 5442.00    1.55323   1.52106    0.019
 5443.00    1.54801   1.51995    0.019
 5444.00    1.55519   1.51435    0.019
 5445.00    1.55817   1.51406    0.019
 5446.00    1.55958   1.51161    0.020
 5447.00    1.53846   1.50679    0.020
 5448.00    1.51017   1.50888    0.019
 5449.00    1.50554   1.50695    0.019
 5450.00    1.50719   1.50445    0.019
 5451.00    1.48305   1.50727    0.019
 5452.00    1.45329   1.50489    0.019
 5453.00    1.43494   1.50413    0.019
 5454.00    1.41855   1.50753    0.019
 5455.00    1.44256   1.50532    0.019
 5456.00    1.47186   1.50458    0.019
 5457.00    1.49167   1.50742    0.019
 5458.00    1.51060   1.50736    0.019
 5459.00    1.52485   1.50605    0.019
 5460.00    1.53883   1.50543    0.019
 5461.00    1.50043   1.50579    0.019
 5462.00    1.46158   1.50442    0.019
 5463.00    1.49768   1.50166    0.019
 5464.00    1.53354   1.50105    0.018
 5465.00    1.56380   1.50003    0.019
 5466.00    1.59041   1.49792    0.019
 5467.00    1.57022   1.49552    0.019
 5468.00    1.54878   1.49428    0.019
 5469.00    1.51661   1.49492    0.019
 5470.00    1.49445   1.49183    0.019
 5471.00    1.53642   1.49066    0.019
 5472.00    1.55364   1.49479    0.019
 5473.00    1.44678   1.49270    0.018
 5474.00    1.36698   1.49213    0.018
 5475.00    1.39697   1.49858    0.018
 5476.00    1.42350   1.49833    0.018
 5477.00    1.43841   1.49835    0.018
 5478.00    1.44840   1.50485   -2.000
 5479.00    1.44446   1.50711   -2.000
 5480.00    1.44705   1.50832   -2.000
 5481.00    1.46550   1.51189   -2.000
 5482.00    1.46722   1.51392   -2.000
 5483.00    1.43390   1.51636   -2.000
 5484.00    1.42388   1.51785   -2.000
 5485.00    1.45634   1.51844   -2.000
 5486.00    1.46818   1.52068   -2.000
 5487.00    1.44723   1.52020   -2.000
 5488.00    1.00098   1.51875   -2.000
 5489.00   -0.03940   1.51997   -2.000
 5490.00   -0.19336   1.51905   -2.000
 5491.00    0.74245   1.51651   -2.000
 5492.00    1.46741   1.51562   -2.000
 5493.00    1.96388   1.51501   -2.000
 5494.00    1.99448   1.51203   -2.000
 5495.00    1.57973   1.50910   -2.000
 5496.00    1.45118   1.50984   -2.000
 5497.00    1.56383   1.50696   -2.000
 5498.00    1.58588   1.50271   -2.000
 5499.00    1.54067   1.50503   -2.000
 5500.00    1.54434   1.50333   -2.000
 5501.00    1.57987   1.49941   -2.000
 5502.00    1.55711   1.50226    0.019
 5503.00    1.50107   1.50133    0.019
 5504.00    1.47935   1.49989    0.019
 5505.00    1.47467   1.50392    0.019
 5506.00    1.51891   1.50309    0.019
 5507.00    1.58418   1.50348    0.019
 5508.00    1.57490   1.50817    0.019
 5509.00    1.53816   1.50872    0.018
 5510.00    1.56214   1.51048    0.018
 5511.00    1.60507   1.51362    0.018
 5512.00    1.56366   1.51475    0.018
 5513.00    1.50031   1.51698    0.018
 5514.00    1.48485   1.51825    0.018
 5515.00    1.47957   1.51965    0.018
 5516.00    1.52555   1.52129    0.018
 5517.00    1.58013   1.52082    0.018
 5518.00    1.59933   1.52169    0.018
 5519.00    1.61404   1.52229    0.019
 5520.00    1.54932   1.52116    0.018
 5521.00    1.47759   1.52185    0.018
 5522.00    1.45033   1.52170    0.018
 5523.00    1.42540   1.52092    0.018
 5524.00    1.47248   1.52252    0.018
 5525.00    1.52000   1.52259    0.018
 5526.00    1.49864   1.52234    0.018
 5527.00    1.47736   1.52515    0.018
 5528.00    1.45770   1.52602    0.018
 5529.00    1.44344   1.52607    0.018
 5530.00    1.49523   1.53025    0.018
 5531.00    1.53901   1.53246    0.019
 5532.00    1.51615   1.53211    0.018
 5533.00    1.49786   1.53594    0.018
 5534.00    1.50808   1.53849    0.018
 5535.00    1.51937   1.53817    0.018
 5536.00    1.53584   1.54144    0.019
 5537.00    1.54450   1.54339    0.019
 5538.00    1.52213   1.54336    0.019
 5539.00    1.50188   1.54557    0.019
 5540.00    1.48857   1.54603    0.019
 5541.00    1.47217   1.54628    0.019
 5542.00    1.44712   1.54742    0.019
 5543.00    1.44667   1.54613    0.019
 5544.00    1.50494   1.54597    0.019
 5545.00    1.54942   1.54607    0.019
 5546.00    1.56550   1.54383    0.019
 5547.00    1.54883   1.54305    0.019
 5548.00    1.47346   1.54175    0.019
 5549.00    1.44641   1.53892    0.019
 5550.00    1.49512   1.53769    0.019
 5551.00    1.49127   1.53495    0.018
 5552.00    1.41503   1.53171    0.018
 5553.00    1.39358   1.53041    0.018
 5554.00    1.43851   1.52685    0.018
 5555.00    1.46813   1.52345    0.018
 5556.00    1.48138   1.52259    0.018
 5557.00    1.47006   1.51920    0.018
 5558.00    1.43559   1.51584    0.018
 5559.00    1.47049   1.51558    0.018
 5560.00    1.56303   1.51287    0.018
 5561.00    1.60378   1.50983    0.018
 5562.00    1.60666   1.51087    0.018
 5563.00    1.55964   1.50879    0.018
 5564.00    1.48056   1.50566    0.018
 5565.00    1.44332   1.50853    0.018
 5566.00    1.42959   1.50704    0.018
 5567.00    1.41821   1.50301    0.018
 5568.00    1.40797   1.50720    0.017
 5569.00    1.40991   1.50569    0.018
 5570.00    1.41698   1.50016    0.018
 5571.00    1.42572   1.50443    0.018
 5572.00    1.43506   1.50242    0.018
 5573.00    1.44616   1.49544    0.018
 5574.00    1.45781   1.49807    0.018
 5575.00    1.43407   1.49537    0.018
 5576.00    1.40130   1.48823    0.018
 5577.00    1.43474   1.48851    0.018
 5578.00    1.48188   1.48500    0.019
 5579.00    1.49369   1.47920    0.019
 5580.00    1.49974   1.47790    0.019
 5581.00    1.49571   1.47455    0.019
 5582.00    1.49044   1.47089    0.019
 5583.00    1.41356   1.46903    0.019
 5584.00    1.33066   1.46730    0.019
 5585.00    1.35916   1.46626    0.018
 5586.00    1.39305   1.46458    0.018
 5587.00    1.34369   1.46500    0.019
 5588.00    1.29376   1.46609    0.019
 5589.00    1.28417   1.46534    0.019
 5590.00    1.27649   1.46840    0.019
 5591.00    1.30656   1.47099    0.019
 5592.00    1.33197   1.47121    0.019
 5593.00    1.30336   1.47609    0.019
 5594.00    1.28153   1.47929    0.019
 5595.00    1.31419   1.48032    0.019
 5596.00    1.34743   1.48625    0.019
 5597.00    1.38421   1.48990    0.019
 5598.00    1.42022   1.49120    0.019
 5599.00    1.45254   1.49623    0.019
 5600.00    1.47143   1.49924    0.019
 5601.00    1.43816   1.50077    0.019
 5602.00    1.41623   1.50437    0.019
 5603.00    1.43097   1.50502    0.018
 5604.00    1.44290   1.50574    0.018
 5605.00    1.44713   1.50840    0.018
 5606.00    1.45089   1.50667    0.018
 5607.00    1.45352   1.50573    0.018
 5608.00    1.45729   1.50773    0.018
 5609.00    1.46335   1.50437    0.018
 5610.00    1.44994   1.50257    0.017
 5611.00    1.40216   1.50505    0.017
 5612.00    1.38242   1.50128    0.017
 5613.00    1.40603   1.49965    0.017
 5614.00    1.43548   1.50326    0.017
 5615.00    1.47284   1.49998    0.017
 5616.00    1.47828   1.49869    0.017
 5617.00    1.44557   1.50351    0.017
 5618.00    1.42228   1.50206    0.017
 5619.00    1.40893   1.50114    0.018
 5620.00    1.41351   1.50555    0.017
 5621.00    1.43475   1.50507    0.017
 5622.00    1.41011   1.50459    0.017
 5623.00    1.34789   1.50819    0.017
 5624.00    1.31431   1.50770    0.017
 5625.00    1.30137   1.50689    0.018
 5626.00    1.31517   1.50923    0.018
 5627.00    1.34591   1.50906    0.018
 5628.00    1.39456   1.50802    0.018
 5629.00    1.45313   1.50840    0.018
 5630.00    1.45635   1.50847    0.018
 5631.00    1.43294   1.50771    0.018
 5632.00    1.41701   1.50659    0.018
 5633.00    1.40420   1.50716    0.018
 5634.00    1.40510   1.50692    0.018
 5635.00    1.41087   1.50506    0.018
 5636.00    1.46402   1.50636    0.018
 5637.00    1.53139   1.50643    0.018
 5638.00    1.49574   1.50434    0.018
 5639.00    1.43444   1.50613    0.018
 5640.00    1.45903   1.50595    0.017
 5641.00    1.50097   1.50374    0.017
 5642.00    1.48387   1.50525    0.017
 5643.00    1.45743   1.50390    0.017
 5644.00    1.42452   1.50172    0.017
 5645.00    1.39085   1.50272    0.017
 5646.00    1.42677   1.49955    0.017
 5647.00    1.46826   1.49733    0.017
 5648.00    1.41298   1.49831    0.017
 5649.00    1.35341   1.49380    0.017
 5650.00    1.39629   1.49170    0.017
 5651.00    1.43944   1.49341    0.017
 5652.00    1.43906   1.48888    0.017
 5653.00    1.43646   1.48747    0.017
 5654.00    1.39280   1.49050    0.017
 5655.00    1.35763   1.48710    0.017
 5656.00    1.41647   1.48675    0.017
 5657.00    1.46830   1.49131    0.017
 5658.00    1.46589   1.48991    0.017
 5659.00    1.44908   1.49034    0.017
 5660.00    1.34783   1.49557    0.017
 5661.00    1.26722   1.49666    0.017
 5662.00    1.28268   1.49783    0.017
 5663.00    1.30670   1.50193    0.017
 5664.00    1.36328   1.50404    0.017
 5665.00    1.40402   1.50607    0.018
 5666.00    1.39449   1.50867    0.017
 5667.00    1.38183   1.51008    0.017
 5668.00    1.36070   1.51199    0.017
 5669.00    1.36260   1.51314    0.017
 5670.00    1.41762   1.51330    0.017
 5671.00    1.44805   1.51456    0.017
 5672.00    1.42939   1.51453    0.017
 5673.00    1.40321   1.51334    0.017
 5674.00    1.36396   1.51396    0.017
 5675.00    1.36397   1.51341    0.018
 5676.00    1.42375   1.51132    0.018
 5677.00    1.44076   1.51158    0.018
 5678.00    1.40057   1.51146    0.018
 5679.00    1.37011   1.50928    0.017
 5680.00    1.35111   1.50921    0.017
 5681.00    1.34853   1.50991    0.017
 5682.00    1.36301   1.50818    0.017
 5683.00    1.38120   1.50767    0.017
 5684.00    1.40278   1.50874    0.017
 5685.00    1.42043   1.50740    0.017
 5686.00    1.43490   1.50619    0.017
 5687.00    1.43349   1.50685    0.016
 5688.00    1.42078   1.50507    0.016
 5689.00    1.41076   1.50277    0.016
 5690.00    1.40242   1.50268    0.016
 5691.00    1.41707   1.50002    0.016
 5692.00    1.44423   1.49672    0.016
 5693.00    1.44528   1.49576    0.016
 5694.00    1.43398   1.49213    0.016
 5695.00    1.43795   1.48889    0.017
 5696.00    1.44817   1.48767    0.017
 5697.00    1.41591   1.48348    0.017
 5698.00    1.36884   1.48195    0.017
 5699.00    1.35859   1.48149    0.017
 5700.00    1.35917   1.47728    0.017
 5701.00    1.34511   1.47901    0.017
 5702.00    1.32749   1.48028    0.017
 5703.00    1.36619   1.47656    0.017
 5704.00    1.41599   1.48199    0.017
 5705.00    1.39999   1.48549    0.017
 5706.00    1.37388   1.48256    0.017
 5707.00    1.36624   1.49061    0.017
 5708.00    1.36070   1.49581    0.017
 5709.00    1.36261   1.49374    0.017
 5710.00    1.36508   1.50264    0.017
 5711.00    1.38892   1.50841    0.017
 5712.00    1.41363   1.50676    0.017
 5713.00    1.36563   1.51463    0.017
 5714.00    1.31976   1.51985    0.017
 5715.00    1.38461   1.51810    0.017
 5716.00    1.44593   1.52366    0.017
 5717.00    1.44664   1.52776    0.017
 5718.00    1.44640   1.52578    0.017
 5719.00    1.43621   1.52888    0.017
 5720.00    1.43265   1.53201    0.017
 5721.00    1.47883   1.53012    0.017
 5722.00    1.51211   1.53127    0.017
 5723.00    1.47177   1.53385    0.016
 5724.00    1.43704   1.53248    0.016
 5725.00    1.42775   1.53241    0.016
 5726.00    1.41699   1.53477    0.016
 5727.00    1.40080   1.53407    0.016
 5728.00    1.39033   1.53344    0.016
 5729.00    1.39768   1.53559    0.016
 5730.00    1.40770   1.53540    0.016
 5731.00    1.42480   1.53461    0.016
 5732.00    1.44355   1.53621    0.016
 5733.00    1.46604   1.53595    0.016
 5734.00    1.47551   1.53540    0.016
 5735.00    1.45938   1.53630    0.016
 5736.00    1.45455   1.53532    0.016
 5737.00    1.46907   1.53509    0.016
 5738.00    1.48321   1.53536    0.016
 5739.00    1.49678   1.53346    0.016
 5740.00    1.49243   1.53358    0.000
 5741.00    1.46447   1.53342    0.000
 5742.00    1.46375   1.53068    0.000
 5743.00    1.49466   1.53127    0.000
 5744.00    1.51097   1.53094    0.000
 5745.00    1.51232   1.52766    0.000
 5746.00    1.49733   1.52887    0.000
 5747.00    1.46758   1.52867    0.000
 5748.00    1.46156   1.52512    0.000
 5749.00    1.47442   1.52702    0.000
 5750.00    1.45834   1.52720    0.000
 5751.00    1.42201   1.52370    0.000
 5752.00    1.41577   1.52623    0.000
 5753.00    1.42801   1.52676    0.000
 5754.00    1.43486   1.52335    0.000
 5755.00    1.43881   1.52639    0.000
 5756.00    1.42935   1.52721    0.000
 5757.00    1.41364   1.52374    0.000
 5758.00    1.39997   1.52681    0.000
 5759.00    1.38712   1.52761    0.000
 5760.00    1.42259   1.52381    0.000
 5761.00    1.47460   1.52633    0.000
 5762.00    1.46687   1.52673    0.000
 5763.00    1.44194   1.52226    0.000
 5764.00    1.42649   1.52368    0.000
 5765.00    1.41329   1.52349    0.000
 5766.00    1.43966   1.51822    0.000
 5767.00    1.47361   1.51819    0.000
 5768.00    1.48344   1.51751    0.000
 5769.00    1.48969   1.51176    0.000
 5770.00    1.47865   1.51037    0.000
 5771.00    1.46573   1.50988    0.000
 5772.00    1.49865   1.50450    0.000
 5773.00    1.53485   1.50219    0.000
 5774.00    1.56765   1.50286    0.000
 5775.00    1.60032   1.49905    0.000
 5776.00    1.54227   1.49639    0.000
 5777.00    1.48599   1.49889    0.000
 5778.00    1.50695   1.49769    0.000
 5779.00    1.52218   1.49518    0.000
 5780.00    1.44547   1.49948    0.000
 5781.00    1.37584   1.50124    0.000
 5782.00    1.37799   1.49916    0.000
 5783.00    1.38036   1.50445    0.000
 5784.00    1.38429   1.50875    0.000
 5785.00    1.38415   1.50722    0.000
 5786.00    1.36142   1.51229    0.000
 5787.00    1.34371   1.51816    0.000
 5788.00    1.34826   1.51721    0.000
 5789.00    1.35721   1.52102    0.000
 5790.00    1.38216   1.52726    0.000
 5791.00    1.41313   1.52682   -2.000
 5792.00    1.46247   1.52896   -2.000
 5793.00    1.48406   1.53454   -2.000
 5794.00    1.43357   1.53444   -2.000
 5795.00    1.39701   1.53508   -2.000
 5796.00    1.39153   1.53935   -2.000
 5797.00    1.40531   1.53936   -2.000
 5798.00    1.45636   1.53903   -2.000
 5799.00    1.48668   1.54179   -2.000
 5800.00    1.48202   1.54175   -2.000
 5801.00    1.46887   1.54103   -2.000
 5802.00    1.44316   1.54252   -2.000
 5803.00    1.43467   1.54249   -2.000
 5804.00    1.44858   1.54184   -2.000
 5805.00    1.46288   1.54252   -2.000
 5806.00    1.47763   1.54273   -2.000
 5807.00    1.48443   1.54240   -2.000
 5808.00    1.48321   1.54274   -2.000
 5809.00    1.48425   1.54345   -2.000
 5810.00    1.48730   1.54355   -2.000
 5811.00    1.46785   1.54381    0.000
 5812.00    1.43074   1.54510    0.000
 5813.00    1.40721   1.54560    0.000
 5814.00    1.39305   1.54582    0.000
 5815.00    1.40345   1.54752    0.000
 5816.00    1.42871   1.54827    0.000
 5817.00    1.45261   1.54834    0.000
 5818.00    1.47579   1.55018    0.000
 5819.00    1.48838   1.55089    0.000
 5820.00    1.49612   1.55067    0.000
 5821.00    1.52218   1.55242    0.000
 5822.00    1.55548   1.55286    0.000
 5823.00    1.54501   1.55221    0.000
 5824.00    1.51983   1.55374    0.000
 5825.00    1.48739   1.55379    0.000
 5826.00    1.45290   1.55256    0.000
 5827.00    1.44260   1.55374    0.000
 5828.00    1.43794   1.55341    0.000
 5829.00    1.42721   1.55145    0.000
 5830.00    1.41535   1.55205    0.000
 5831.00    1.41978   1.55134    0.000
 5832.00    1.42657   1.54844    0.000
 5833.00    1.44455   1.54814    0.000
 5834.00    1.46371   1.54699    0.000
 5835.00    1.42030   1.54293    0.000
 5836.00    1.37266   1.54144    0.000
 5837.00    1.38882   1.53980    0.000
 5838.00    1.40708   1.53453    0.000
 5839.00    1.41888   1.53176    0.000
 5840.00    1.43042   1.52978    0.000
 5841.00    1.43386   1.52357    0.000
 5842.00    1.43584   1.51968    0.000
 5843.00    1.41576   1.51787    0.000
 5844.00    1.39738   1.51152    0.000
 5845.00    1.39549   1.50690    0.000
 5846.00    1.39357   1.50589    0.000
 5847.00    1.39143   1.50061    0.000
 5848.00    1.39049   1.49586    0.000
 5849.00    1.39600   1.49606    0.000
 5850.00    1.39777   1.49293    0.000
 5851.00    1.38331   1.48864    0.000
 5852.00    1.37355   1.49007    0.000
 5853.00    1.38055   1.48962    0.000
 5854.00    1.38211   1.48620    0.000
 5855.00    1.36741   1.48828    0.000
 5856.00    1.35742   1.49018    0.000
 5857.00    1.35942   1.48780    0.000
 5858.00    1.36588   1.48968    0.000
 5859.00    1.38210   1.49277    0.000
 5860.00    1.37700   1.49113    0.000
 5861.00    1.33130   1.49194    0.000
 5862.00    1.31069   1.49476    0.000
 5863.00    1.33180   1.49325    0.000
 5864.00    1.34999   1.49226    0.000
 5865.00    1.36392   1.49321    0.000
 5866.00    1.38499   1.49107    0.000
 5867.00    1.41519   1.48806    0.000
 5868.00    1.43458   1.48559    0.000
 5869.00    1.44178   1.48176    0.000
 5870.00    1.44952   1.47698    0.000
 5871.00    1.45782   1.47010    0.000
 5872.00    1.46300   1.46339    0.000
 5873.00    1.46544   1.45764    0.000
 5874.00    1.44208   1.44624    0.000
 5875.00    1.39875   1.43576    0.000
 5876.00    1.35686   1.43056    0.000
 5877.00    1.31594   1.41587    0.000
 5878.00    1.29539   1.40148    0.000
 5879.00    1.28698   1.39900    0.000
 5880.00    1.27761   1.38387    0.000
 5881.00    1.26773   1.36661    0.000
 5882.00    1.28455   1.36905    0.000
 5883.00    1.31341   1.35741    0.000
 5884.00    1.29963   1.33946    0.000
 5885.00    1.26933   1.34808    0.000
 5886.00    1.26448   1.34335    0.000
 5887.00    1.26803   1.32733    0.000
 5888.00    1.24612   1.34150    0.000
 5889.00    1.21718   1.34532    0.000
 5890.00    1.19243   1.33354    0.000
 5891.00    1.16863   1.35048    0.000
 5892.00    1.15569   1.36147    0.000
 5893.00    1.14472   1.35508    0.000
 5894.00    1.18096   1.37124    0.000
 5895.00    1.22378   1.38547    0.000
 5896.00    1.26499   1.38385    0.000
 5897.00    1.30603   1.39662    0.000
 5898.00    1.29978   1.41022    0.000
 5899.00    1.29052   1.41198    0.000
 5900.00    1.28334   1.42032    0.000
 5901.00    1.27623   1.43014    0.015
 5902.00    1.27243   1.43329    0.015
 5903.00    1.26969   1.43812    0.015
 5904.00    1.29670   1.44363    0.015
 5905.00    1.32039   1.44671    0.015
 5906.00    1.29668   1.44940    0.015
 5907.00    1.27632   1.45163    0.015
 5908.00    1.28720   1.45415    0.015
 5909.00    1.29744   1.45585    0.015
 5910.00    1.30335   1.45630    0.015
 5911.00    1.30820   1.45832    0.015
 5912.00    1.30743   1.45959    0.015
 5913.00    1.30486   1.45947    0.015
 5914.00    1.29464   1.46136    0.014
 5915.00    1.28444   1.46220    0.014
 5916.00    1.27425   1.46202    0.014
 5917.00    1.27311   1.46411    0.015
 5918.00    1.29852   1.46450    0.015
 5919.00    1.32251   1.46423    0.015
 5920.00    1.34288   1.46635    0.015
 5921.00    1.35985   1.46649    0.015
 5922.00    1.36944   1.46608    0.015
 5923.00    1.37366   1.46797    0.015
 5924.00    1.36783   1.46820    0.015
 5925.00    1.36579   1.46765    0.015
 5926.00    1.36998   1.46897    0.015
 5927.00    1.36608   1.46959    0.015
 5928.00    1.35058   1.46890    0.015
 5929.00    1.33434   1.46937    0.015
 5930.00    1.31717   1.47049    0.015
 5931.00    1.31159   1.46979    0.015
 5932.00    1.31892   1.46925    0.015
 5933.00    1.32578   1.47068    0.015
 5934.00    1.33220   1.47008    0.015
 5935.00    1.33703   1.46859    0.015
 5936.00    1.34049   1.46987    0.015
 5937.00    1.35276   1.46949    0.015
 5938.00    1.37177   1.46768    0.015
 5939.00    1.39444   1.46858    0.015
 5940.00    1.41958   1.46818    0.015
 5941.00    1.40761   1.46655    0.015
 5942.00    1.37386   1.46752    0.015
 5943.00    1.33969   1.46710    0.015
 5944.00    1.30532   1.46587    0.014
 5945.00    1.28587   1.46748    0.014
 5946.00    1.27303   1.46732    0.014
 5947.00    1.28039   1.46626    0.014
 5948.00    1.29543   1.46873    0.014
 5949.00    1.31563   1.46941    0.014
 5950.00    1.33749   1.46827    0.014
 5951.00    1.35211   1.47122    0.014
 5952.00    1.36478   1.47323    0.014
 5953.00    1.36854   1.47192    0.014
 5954.00    1.37033   1.47426    0.014
 5955.00    1.38146   1.47733    0.015
 5956.00    1.39425   1.47629    0.015
 5957.00    1.37390   1.47726    0.015
 5958.00    1.34907   1.48042    0.014
 5959.00    1.33608   1.47967    0.015
 5960.00    1.32422   1.47927    0.015
 5961.00    1.31943   1.48177    0.015
 5962.00    1.31506   1.48103    0.015
 5963.00    1.37128   1.47934    0.015
 5964.00    1.42849   1.48089    0.015
 5965.00    1.39995   1.48005    0.015
 5966.00    1.37216   1.47749    0.015
 5967.00    1.36331   1.47812    0.015
 5968.00    1.35410   1.47737    0.015
 5969.00    1.34009   1.47444    0.014
 5970.00    1.32680   1.47444    0.014
 5971.00    1.32008   1.47401    0.014
 5972.00    1.31567   1.47110    0.014
 5973.00    1.32648   1.47098    0.014
 5974.00    1.33592   1.47129    0.014
 5975.00    1.33837   1.46874    0.014
 5976.00    1.33792   1.46880    0.014
 5977.00    1.32542   1.47003    0.014
 5978.00    1.31669   1.46819    0.014
 5979.00    1.32089   1.46843    0.014
 5980.00    1.31994   1.47045    0.014
 5981.00    1.30413   1.46943    0.014
 5982.00    1.29324   1.46948    0.014
 5983.00    1.29446   1.47164    0.014
 5984.00    1.28901   1.47136    0.014
 5985.00    1.26936   1.47094    0.014
 5986.00    1.26736   1.47265    0.014
 5987.00    1.29795   1.47291    0.014
 5988.00    1.32250   1.47190    0.014
 5989.00    1.33732   1.47248    0.014
 5990.00    1.33993   1.47260    0.014
 5991.00    1.32526   1.47122    0.014
 5992.00    1.32563   1.47091    0.014
 5993.00    1.34472   1.47035    0.014
 5994.00    1.36289   1.46874    0.014
 5995.00    1.38005   1.46822    0.015
 5996.00    1.37007   1.46699    0.015
 5997.00    1.33385   1.46508    0.015
 5998.00    1.32319   1.46483    0.015
 5999.00    1.33436   1.46352    0.015
 6000.00    1.33576   1.46172    0.014
 6001.00    1.32983   1.46176    0.014
 6002.00    1.33540   1.46069    0.014
 6003.00    1.34857   1.45947    0.014
 6004.00    1.34265   1.45950    0.014
 6005.00    1.32570   1.45882    0.014
 6006.00    1.32513   1.45890    0.014
 6007.00    1.33283   1.45882    0.014
 6008.00    1.33341   1.45813    0.014
 6009.00    1.33088   1.45956    0.014
 6010.00    1.29775   1.46005    0.014
 6011.00    1.25318   1.45952    0.014
 6012.00    1.24747   1.46173    0.014
 6013.00    1.25409   1.46313    0.014
 6014.00    1.28412   1.46283    0.014
 6015.00    1.32036   1.46525    0.014
 6016.00    1.34135   1.46830    0.014
 6017.00    1.35904   1.46870    0.014
 6018.00    1.37139   1.47022    0.014
 6019.00    1.38282   1.47467    0.014
 6020.00    1.39395   1.47646    0.015
 6021.00    1.40505   1.47672    0.015
 6022.00    1.39425   1.48129    0.015
 6023.00    1.38143   1.48450    0.014
 6024.00    1.37493   1.48409    0.014
 6025.00    1.36878   1.48765    0.015
 6026.00    1.33812   1.49132    0.014
 6027.00    1.30725   1.49087    0.014
 6028.00    1.30871   1.49309    0.014
 6029.00    1.30972   1.49632    0.014
 6030.00    1.30013   1.49614    0.014
 6031.00    1.29021   1.49730    0.014
 6032.00    1.27606   1.49975    0.014
 6033.00    1.26670   1.49958    0.014
 6034.00    1.29851   1.50012    0.014
 6035.00    1.32478   1.50203    0.014
 6036.00    1.31572   1.50160    0.014
 6037.00    1.31054   1.50154    0.014
 6038.00    1.32473   1.50311    0.014
 6039.00    1.34067   1.50253    0.014
 6040.00    1.36369   1.50168    0.014
 6041.00    1.37819   1.50274    0.014
 6042.00    1.36407   1.50240    0.014
 6043.00    1.35014   1.50066    0.014
 6044.00    1.33673   1.50095    0.014
 6045.00    1.33325   1.50103    0.014
 6046.00    1.35380   1.49857    0.014
 6047.00    1.37009   1.49794    0.014
 6048.00    1.37745   1.49851    0.014
 6049.00    1.38007   1.49595    0.014
 6050.00    1.37407   1.49447    0.014
 6051.00    1.37327   1.49551    0.014
 6052.00    1.38075   1.49373    0.014
 6053.00    1.37079   1.49157    0.014
 6054.00    1.33650   1.49286    0.014
 6055.00    1.31355   1.49255    0.014
 6056.00    1.30451   1.49011    0.014
 6057.00    1.31127   1.49133    0.014
 6058.00    1.33512   1.49273    0.014
 6059.00    1.35383   1.49038    0.014
 6060.00    1.36763   1.49108    0.015
 6061.00    1.35443   1.49366    0.015
 6062.00    1.31850   1.49147    0.014
 6063.00    1.30176   1.49125    0.014
 6064.00    1.29922   1.49403    0.014
 6065.00    1.30693   1.49230    0.014
 6066.00    1.32131   1.49087    0.014
 6067.00    1.33394   1.49278    0.014
 6068.00    1.34557   1.49197    0.014
 6069.00    1.34887   1.48958    0.014
 6070.00    1.34804   1.48950    0.014
 6071.00    1.34713   1.48915    0.014
 6072.00    1.34618   1.48663    0.014
 6073.00    1.34756   1.48517    0.014
 6074.00    1.34979   1.48498    0.014
 6075.00    1.32125   1.48291    0.014
 6076.00    1.28314   1.48088    0.014
 6077.00    1.26091   1.48068    0.014
 6078.00    1.24281   1.47938    0.014
 6079.00    1.26185   1.47780    0.014
 6080.00    1.28874   1.47716    0.014
 6081.00    1.31374   1.47646    0.014
 6082.00    1.33842   1.47625    0.014
 6083.00    1.34488   1.47503    0.014
 6084.00    1.34903   1.47400    0.014
 6085.00    1.33398   1.47535    0.014
 6086.00    1.31725   1.47408    0.014
 6087.00    1.33547   1.47167    0.014
 6088.00    1.35551   1.47401    0.014
 6089.00    1.34425   1.47357    0.014
 6090.00    1.33207   1.46959    0.014
 6091.00    1.29425   1.47166    0.014
 6092.00    1.25723   1.47284    0.014
 6093.00    1.23717   1.46831    0.014
 6094.00    1.22021   1.46941    0.014
 6095.00    1.24084   1.47216    0.014
 6096.00    1.25961   1.46800    0.014
 6097.00    1.26301   1.46789    0.014
 6098.00    1.26475   1.47176    0.014
 6099.00    1.25618   1.46857    0.014
 6100.00    1.24678   1.46739    0.014
 6101.00    1.23334   1.47193    0.014
 6102.00    1.22401   1.46980    0.014
 6103.00    1.23098   1.46719    0.014
 6104.00    1.23253   1.47110    0.014
 6105.00    1.21628   1.47101    0.014
 6106.00    1.21191   1.46806    0.014
 6107.00    1.24060   1.46935    0.014
 6108.00    1.27708   1.46971    0.014
 6109.00    1.33210   1.46692    0.014
 6110.00    1.37893   1.46591    0.014
 6111.00    1.40887   1.46688    0.014
 6112.00    1.42572   1.46469    0.014
 6113.00    1.41912   1.46108    0.014
 6114.00    1.40685   1.46240    0.014
 6115.00    1.38568   1.46185    0.014
 6116.00    1.36597   1.45634    0.014
 6117.00    1.34827   1.45700    0.014
 6118.00    1.33095   1.45791    0.014
 6119.00    1.31412   1.45209    0.014
 6120.00    1.30680   1.45217    0.014
 6121.00    1.30963   1.45397    0.014
 6122.00    1.29454   1.44830    0.014
 6123.00    1.26257   1.44730    0.014
 6124.00    1.25415   1.44983    0.014
 6125.00    1.26526   1.44579    0.014
 6126.00    1.30021   1.44388    0.014
 6127.00    1.35259   1.44581    0.014
 6128.00    1.36605   1.44299    0.014
 6129.00    1.35456   1.44130    0.014
 6130.00    1.36194   1.44353    0.014
 6131.00    1.37991   1.44173    0.015
 6132.00    1.39909   1.44032    0.015
 6133.00    1.41886   1.44295    0.015
 6134.00    1.42975   1.44237    0.015
 6135.00    1.43690   1.44103    0.015
 6136.00    1.43704   1.44332    0.015
 6137.00    1.43464   1.44400    0.016
 6138.00    1.41471   1.44224    0.015
 6139.00    1.38943   1.44323    0.014
 6140.00    1.35852   1.44543    0.014
 6141.00    1.32618   1.44288    0.014
 6142.00    1.29701   1.43962    0.014
 6143.00    1.26849   1.44064    0.014
 6144.00    1.27711   1.43883    0.014
 6145.00    1.29176   1.43299    0.014
 6146.00    1.32281   1.43062    0.014
 6147.00    1.35585   1.42819    0.014
 6148.00    1.33359   1.42140    0.014
 6149.00    1.30671   1.41644    0.014
 6150.00    1.30269   1.41283    0.014
 6151.00    1.29976   1.40631    0.014
 6152.00    1.28616   1.40055    0.014
 6153.00    1.27274   1.39640    0.014
 6154.00    1.27827   1.39069    0.014
 6155.00    1.28445   1.38594    0.014
 6156.00    1.30336   1.38244    0.014
 6157.00    1.31809   1.37814    0.014
 6158.00    1.28455   1.37580    0.014
 6159.00    1.25021   1.37447    0.014
 6160.00    1.20951   1.37141    0.014
 6161.00    1.17381   1.37120    0.014
 6162.00    1.16821   1.37327    0.014
 6163.00    1.15990   1.37144    0.014
 6164.00    1.13871   1.37258    0.014
 6165.00    1.12110   1.37849    0.014
 6166.00    1.11738   1.37818    0.014
 6167.00    1.11982   1.37800    0.014
 6168.00    1.14214   1.38490    0.014
 6169.00    1.16482   1.38679    0.014
 6170.00    1.18851   1.38511    0.014
 6171.00    1.20543   1.39016    0.014
 6172.00    1.20651   1.39388    0.014
 6173.00    1.20577   1.39237    0.014
 6174.00    1.20136   1.39394    0.014
 6175.00    1.20540   1.39624    0.014
 6176.00    1.22432   1.39545    0.014
 6177.00    1.23423   1.39547    0.014
 6178.00    1.23024   1.39606    0.014
 6179.00    1.22902   1.39531    0.014
 6180.00    1.23155   1.39486    0.014
 6181.00    1.22950   1.39423    0.014
 6182.00    1.22198   1.39310    0.014
 6183.00    1.23211   1.39314    0.014
 6184.00    1.26081   1.39278    0.014
 6185.00    1.27738   1.39107    0.014
 6186.00    1.28269   1.39187    0.014
 6187.00    1.26151   1.39319    0.014
 6188.00    1.21868   1.39107    0.014
 6189.00    1.19590   1.39213    0.014
 6190.00    1.18755   1.39518    0.014
 6191.00    1.18891   1.39322    0.014
 6192.00    1.19640   1.39384    0.014
 6193.00    1.22541   1.39732    0.014
 6194.00    1.26632   1.39632    0.014
 6195.00    1.31440   1.39664    0.014
 6196.00    1.36594   1.39849   -2.000
 6197.00    1.28351   1.39670   -2.000
 6198.00    1.14554   1.39667   -2.000
 6199.00    1.02444   1.39741   -2.000
 6200.00    0.90931   1.39433   -2.000
 6201.00    0.99433   1.39328   -2.000
 6202.00    1.13925   1.39387   -2.000
 6203.00    1.40444   1.39016   -2.000
 6204.00    1.69951   1.38700   -2.000
 6205.00    1.73918   1.38684   -2.000
 6206.00    1.72743   1.38389   -2.000
 6207.00    1.58856   1.37944   -2.000
 6208.00    1.42964   1.37832    0.015
 6209.00    1.35019   1.37691    0.014
 6210.00    1.28006   1.37199    0.014
 6211.00    1.25450   1.36994    0.014
 6212.00    1.23249   1.37032    0.014
 6213.00    1.22326   1.36601    0.013
 6214.00    1.21461   1.36284    0.013
 6215.00    1.20437   1.36400    0.013
 6216.00    1.19367   1.36192    0.013
 6217.00    1.16134   1.35850    0.013
 6218.00    1.13080   1.35934    0.013
 6219.00    1.13288   1.35957    0.013
 6220.00    1.13907   1.35610    0.013
 6221.00    1.19038   1.35513    0.013
 6222.00    1.23579   1.35775    0.014
 6223.00    1.23564   1.35561    0.014
 6224.00    1.23245   1.35201    0.014
 6225.00    1.21146   1.35542    0.014
 6226.00    1.19448   1.35537    0.014
 6227.00    1.19616   1.34982    0.014
 6228.00    1.19160   1.35278    0.014
 6229.00    1.16341   1.35493    0.014
 6230.00    1.14101   1.34823    0.014
 6231.00    1.13697   1.34941    0.014
 6232.00    1.14394   1.35341    0.014
 6233.00    1.18046   1.34782    0.014
 6234.00    1.20257   1.34689    0.014
 6235.00    1.19149   1.35115    0.014
 6236.00    1.18192   1.34693    0.013
 6237.00    1.17535   1.34358    0.013
 6238.00    1.17190   1.34732    0.013
 6239.00    1.17386   1.34502    0.013
 6240.00    1.17251   1.34014    0.013
 6241.00    1.16612   1.34333    0.013
 6242.00    1.16183   1.34293    0.013
 6243.00    1.16035   1.33789    0.013
 6244.00    1.16020   1.34031    0.013
 6245.00    1.16161   1.34079    0.013
 6246.00    1.16517   1.33701    0.013
 6247.00    1.17096   1.33979    0.013
 6248.00    1.18844   1.34102    0.013
 6249.00    1.21663   1.33827    0.013
 6250.00    1.22746   1.34172    0.013
 6251.00    1.22430   1.34416    0.013
 6252.00    1.21036   1.34169    0.013
 6253.00    1.18879   1.34513    0.013
 6254.00    1.19125   1.34981    0.014
 6255.00    1.20868   1.34878    0.014
 6256.00    1.21865   1.35151    0.014
 6257.00    1.22458   1.35738    0.014
 6258.00    1.20237   1.35707    0.014
 6259.00    1.16687   1.35874    0.014
 6260.00    1.09296   1.36542    0.015
 6261.00    1.00340   1.36628    0.016
 6262.00    0.98640   1.36630    0.016
 6263.00    0.99464   1.37164    0.017
 6264.00    1.10152   1.37356    0.017
 6265.00    1.23734   1.37280    0.017
 6266.00    1.32564   1.37576    0.016
 6267.00    1.40240   1.37796    0.015
 6268.00    1.36478   1.37787    0.014
 6269.00    1.30470   1.37920    0.014
 6270.00    1.26983   1.38102    0.014
 6271.00    1.23882   1.38141    0.014
 6272.00    1.23813   1.38188    0.014
 6273.00    1.24086   1.38367    0.014
 6274.00    1.22026   1.38427    0.014
 6275.00    1.19790   1.38442    0.014
 6276.00    1.17418   1.38584    0.014
 6277.00    1.15040   1.38634    0.013
 6278.00    1.13062   1.38661    0.013
 6279.00    1.11115   1.38732    0.013
 6280.00    1.10335   1.38745    0.000
 6281.00    1.09742   1.38802    0.000
 6282.00    1.12329   1.38827    0.000
 6283.00    1.14922   1.38822    0.000
 6284.00    1.17586   1.38828    0.000
 6285.00    1.19883   1.38754    0.000
 6286.00    1.19451   1.38775    0.000
 6287.00    1.19145   1.38784    0.000
 6288.00    1.19566   1.38656    0.000
 6289.00    1.19826   1.38600    0.000
 6290.00    1.19363   1.38621    0.000
 6291.00    1.19039   1.38607    0.000
 6292.00    1.19232   1.38505    0.000
 6293.00    1.19384   1.38496    0.000
 6294.00    1.19407   1.38643    0.000
 6295.00    1.19337   1.38584    0.000
 6296.00    1.19023   1.38524    0.000
 6297.00    1.18999   1.38737    0.000
 6298.00    1.19636   1.38697    0.000
 6299.00    1.20729   1.38607    0.000
 6300.00    1.22715   1.38964    0.000
 6301.00    1.23548   1.38994    0.000
 6302.00    1.22411   1.38678    0.000
 6303.00    1.21804   1.39029    0.000
 6304.00    1.21993   1.39345    0.000
 6305.00    1.23235   1.38931    0.000
 6306.00    1.25862   1.39022    0.000
 6307.00    1.28123   1.39544    0.000
 6308.00    1.29958   1.39307    0.000
 6309.00    1.29983   1.39124    0.000
 6310.00    1.28160   1.39648    0.000
 6311.00    1.26545   1.39664    0.000
 6312.00    1.25118   1.39349    0.000
 6313.00    1.24219   1.39817    0.000
 6314.00    1.23739   1.40054    0.000
 6315.00    1.22143   1.39721    0.000
 6316.00    1.19766   1.40023    0.000
 6317.00    1.18217   1.40398    0.000
 6318.00    1.17176   1.40206    0.000
 6319.00    1.18294   1.40269    0.000
 6320.00    1.20570   1.40642    0.000
 6321.00    1.21945   1.40677    0.013
 6322.00    1.22901   1.40528    0.013
 6323.00    1.22736   1.40685    0.013
 6324.00    1.22120   1.40847    0.013
 6325.00    1.23162   1.40740    0.013
 6326.00    1.24771   1.40747    0.013
 6327.00    1.25318   1.40853    0.013
 6328.00    1.25561   1.40817    0.013
 6329.00    1.24074   1.40787    0.013
 6330.00    1.22176   1.40817    0.013
 6331.00    1.19639   1.40761    0.013
 6332.00    1.16979   1.40719    0.013
 6333.00    1.15476   1.40773    0.013
 6334.00    1.14144   1.40742    0.013
 6335.00    1.14285   1.40632    0.013
 6336.00    1.14587   1.40630    0.013
 6337.00    1.14485   1.40667    0.013
 6338.00    1.14356   1.40576    0.013
 6339.00    1.14874   1.40544    0.013
 6340.00    1.15416   1.40577    0.013
 6341.00    1.18086   1.40379    0.013
 6342.00    1.20732   1.40249    0.013
 6343.00    1.22277   1.40309    0.013
 6344.00    1.23668   1.40108    0.013
 6345.00    1.22621   1.39820    0.013
 6346.00    1.21614   1.39826    0.013
 6347.00    1.21003   1.39824    0.013
 6348.00    1.20631   1.39504    0.013
 6349.00    1.21992   1.39324    0.013
 6350.00    1.23122   1.39445    0.013
 6351.00    1.22980   1.39305    0.013
 6352.00    1.22129   1.39048    0.013
 6353.00    1.18142   1.39159    0.013
 6354.00    1.14693   1.39260    0.013
 6355.00    1.13201   1.39087    0.013
 6356.00    1.12228   1.39150    0.013
 6357.00    1.12835   1.39451    0.014
 6358.00    1.12944   1.39463    0.014
 6359.00    1.11762   1.39463    0.014
 6360.00    1.11105   1.39783    0.014
 6361.00    1.11617   1.39988    0.014
 6362.00    1.12978   1.40033    0.014
 6363.00    1.15979   1.40239    0.014
 6364.00    1.17449   1.40490    0.014
 6365.00    1.16341   1.40586    0.014
 6366.00    1.15420   1.40683    0.014
 6367.00    1.14771   1.40862    0.014
 6368.00    1.14455   1.40935    0.013
 6369.00    1.14570   1.40962    0.013
 6370.00    1.16081   1.41028    0.013
 6371.00    1.19189   1.41028    0.013
 6372.00    1.21963   1.41022    0.013
 6373.00    1.24399   1.41026    0.013
 6374.00    1.24114   1.40985    0.013
 6375.00    1.21409   1.40915    0.013
 6376.00    1.19706   1.40822    0.013
 6377.00    1.18787   1.40737    0.013
 6378.00    1.18924   1.40718    0.013
 6379.00    1.19787   1.40608    0.013
 6380.00    1.20409   1.40349    0.013
 6381.00    1.20885   1.40397    0.014
 6382.00    1.20739   1.40488    0.013
 6383.00    1.20264   1.40128    0.013
 6384.00    1.20868   1.40063    0.013
 6385.00    1.21966   1.40365    0.014
 6386.00    1.21078   1.40133    0.014
 6387.00    1.19410   1.39843    0.014
 6388.00    1.16410   1.40235    0.013
 6389.00    1.12964   1.40294    0.013
 6390.00    1.13407   1.39786    0.013
 6391.00    1.14945   1.40068    0.013
 6392.00    1.14089   1.40520    0.013
 6393.00    1.12676   1.40159    0.013
 6394.00    1.10158   1.40070    0.013
 6395.00    1.07433   1.40555    0.013
 6396.00    1.07881   1.40638    0.014
 6397.00    1.08784   1.40359    0.014
 6398.00    1.12147   1.40512    0.014
 6399.00    1.15766   1.40840    0.013
 6400.00    1.17893   1.40666    0.013
 6401.00    1.19920   1.40516    0.014
 6402.00    1.20031   1.40836    0.013
 6403.00    1.20079   1.41038    0.013
 6404.00    1.18903   1.40786    0.013
 6405.00    1.17691   1.40746    0.014
 6406.00    1.15330   1.41118    0.014
 6407.00    1.12961   1.41009    0.014
 6408.00    1.10488   1.40683    0.014
 6409.00    1.08292   1.41039    0.014
 6410.00    1.08767   1.41202    0.014
 6411.00    1.09467   1.40758    0.014
 6412.00    1.11741   1.40900    0.014
 6413.00    1.13995   1.41328    0.013
 6414.00    1.16150   1.41107    0.013
 6415.00    1.17518   1.40983    0.013
 6416.00    1.15489   1.41338    0.013
 6417.00    1.13303   1.41332    0.013
 6418.00    1.10558   1.41092    0.013
 6419.00    1.08911   1.41334    0.013
 6420.00    1.10549   1.41463    0.013
 6421.00    1.12955   1.41170    0.013
 6422.00    1.17313   1.41293    0.013
 6423.00    1.20461   1.41639    0.013
 6424.00    1.20957   1.41583    0.013
 6425.00    1.20496   1.41419    0.013
 6426.00    1.18220   1.41578    0.013
 6427.00    1.15904   1.41794    0.013
 6428.00    1.13521   1.41631    0.014
 6429.00    1.11698   1.41468    0.014
 6430.00    1.10690   1.41702    0.014
 6431.00    1.11323   1.41826    0.014
 6432.00    1.14057   1.41634    0.014
 6433.00    1.17899   1.41712    0.014
 6434.00    1.22988   1.42001    0.014
 6435.00    1.25605   1.41827    0.014
 6436.00    1.25766   1.41548    0.014
 6437.00    1.23335   1.41840    0.014
 6438.00    1.18635   1.41961    0.014
 6439.00    1.16682   1.41383    0.014
 6440.00    1.16853   1.41337    0.014
 6441.00    1.17856   1.41837    0.014
 6442.00    1.19424   1.41512    0.014
 6443.00    1.20049   1.41187    0.013
 6444.00    1.20113   1.41602    0.013
 6445.00    1.20101   1.41495    0.013
 6446.00    1.20051   1.40974    0.013
 6447.00    1.19021   1.41270    0.013
 6448.00    1.17551   1.41552    0.014
 6449.00    1.15739   1.40969    0.014
 6450.00    1.13796   1.40974    0.014
 6451.00    1.14803   1.41504    0.014
 6452.00    1.16779   1.41022    0.014
 6453.00    1.17751   1.40826    0.013
 6454.00    1.18445   1.41443    0.013
 6455.00    1.16770   1.41222    0.013
 6456.00    1.14558   1.40838    0.013
 6457.00    1.13714   1.41317    0.014
 6458.00    1.13117   1.41398    0.014
 6459.00    1.15576   1.40911    0.014
 6460.00    1.18460   1.41150    0.014
 6461.00    1.19603   1.41343    0.014
 6462.00    1.20572   1.40770    0.014
 6463.00    1.17217   1.40835    0.014
 6464.00    1.13590   1.41177    0.014
 6465.00    1.11767   1.40723    0.014
 6466.00    1.09999   1.40537    0.014
 6467.00    1.09023   1.40835    0.014
 6468.00    1.08111   1.40517    0.013
 6469.00    1.08954   1.40096    0.013
 6470.00    1.09849   1.40252    0.013
 6471.00    1.11463   1.40019    0.013
 6472.00    1.12965   1.39397    0.013
 6473.00    1.13424   1.39355    0.013
 6474.00    1.14042   1.39287    0.013
 6475.00    1.15729   1.38735    0.013
 6476.00    1.17609   1.38386    0.014
 6477.00    1.20503   1.38251    0.013
 6478.00    1.22519   1.37841    0.013
 6479.00    1.20829   1.37364    0.013
 6480.00    1.19095   1.37075    0.013
 6481.00    1.17204   1.36694    0.014
 6482.00    1.15701   1.36269    0.014
 6483.00    1.15339   1.35944    0.014
 6484.00    1.15261   1.35534    0.014
 6485.00    1.15894   1.35279    0.014
 6486.00    1.15954   1.35079    0.014
 6487.00    1.14777   1.34808    0.014
 6488.00    1.13240   1.34725    0.014
 6489.00    1.11029   1.34682    0.014
 6490.00    1.08988   1.34650    0.014
 6491.00    1.07223   1.34660    0.014
 6492.00    1.05815   1.34826    0.014
 6493.00    1.04920   1.35048    0.014
 6494.00    1.05397   1.35110    0.013
 6495.00    1.07603   1.35362    0.013
 6496.00    1.08712   1.35735    0.013
 6497.00    1.08603   1.36040    0.013
 6498.00    1.07549   1.36301    0.013
 6499.00    1.05568   1.36579    0.013
 6500.00    1.04676   1.37001    0.013
 6501.00    1.04724   1.37242    0.013
 6502.00    1.04706   1.37412    0.013
 6503.00    1.04637   1.37765    0.013
 6504.00    1.06631   1.37995    0.013
 6505.00    1.10003   1.38041    0.014
 6506.00    1.11426   1.38195    0.014
 6507.00    1.11706   1.38468    0.014
 6508.00    1.11647   1.38483    0.014
 6509.00    1.11415   1.38459    0.014
 6510.00    1.12838   1.38703    0.014
 6511.00    1.14993   1.38828    0.014
 6512.00    1.15017   1.38773    0.014
 6513.00    1.14231   1.38839    0.014
 6514.00    1.13424   1.39009    0.014
 6515.00    1.12609   1.39029    0.014
 6516.00    1.12749   1.38972    0.014
 6517.00    1.13146   1.39093    0.014
 6518.00    1.14051   1.39211    0.014
 6519.00    1.15069   1.39202    0.013
 6520.00    1.15656   1.39258    0.013
 6521.00    1.16167   1.39380    0.013
 6522.00    1.15988   1.39401    0.013
 6523.00    1.15717   1.39344    0.013
 6524.00    1.15151   1.39406    0.013
 6525.00    1.14556   1.39442    0.013
 6526.00    1.14289   1.39335    0.013
 6527.00    1.14041   1.39294    0.013
 6528.00    1.12691   1.39278    0.000
 6529.00    1.11326   1.39107    0.000
 6530.00    1.11919   1.39011    0.000
 6531.00    1.12500   1.38938    0.000
 6532.00    1.12759   1.38630    0.000
 6533.00    1.13051   1.38344    0.000
 6534.00    1.13796   1.38221    0.000
 6535.00    1.14762   1.37835    0.000
 6536.00    1.17709   1.37285    0.000
 6537.00    1.19736   1.37067    0.000
 6538.00    1.15740   1.36674    0.000
 6539.00    1.12227   1.35921    0.000
 6540.00    1.11183   1.35543    0.000
 6541.00    1.10466   1.35163    0.000
 6542.00    1.11103   1.34180    0.000
 6543.00    1.11726   1.33514    0.000
 6544.00    1.12301   1.33262    0.000
 6545.00    1.12784   1.32088    0.000
 6546.00    1.12999   1.30873    0.000
 6547.00    1.13612   1.30921    0.000
 6548.00    1.15205   1.30339    0.000
 6549.00    1.16080   1.28840    0.000
 6550.00    1.15433   1.28642    0.000
 6551.00    1.15130   1.28722    0.000
 6552.00    1.15460   1.27099    0.000
 6553.00    1.14327   1.26272    0.000
 6554.00    1.10838   1.27256    0.000
 6555.00    1.07455   1.26709    0.000
 6556.00    1.04224   1.25477    0.000
 6557.00    1.02691   1.26438    0.000
 6558.00    1.03266   1.27228    0.000
 6559.00    1.05049   1.26331    0.000
 6560.00    1.08155   1.26662    0.000
 6561.00    1.11476   1.28150    0.000
 6562.00    1.15007   1.27938    0.000
 6563.00    1.16114   1.27641    0.000
 6564.00    1.15157   1.29202    0.000
 6565.00    1.14911   1.30256    0.000
 6566.00    1.15198   1.30219    0.000
 6567.00    1.15328   1.30960    0.000
 6568.00    1.15353   1.32024    0.000
 6569.00    1.12535   1.32286    0.000
 6570.00    1.08075   1.32652    0.000
 6571.00    1.05137   1.33516    0.000
 6572.00    1.02965   1.33993    0.000
 6573.00    1.03029   1.34216    0.000
 6574.00    1.04065   1.34687    0.000
 6575.00    1.05040   1.35067    0.000
 6576.00    1.05992   1.35191    0.000
 6577.00    1.08336   1.35499    0.000
 6578.00    1.11122   1.35827    0.000
 6579.00    1.12432   1.35820    0.000
 6580.00    1.13352   1.35912    0.000
 6581.00    1.16303   1.36121    0.000
 6582.00    1.19693   1.36093    0.000
 6583.00    1.22907   1.36019    0.000
 6584.00    1.26092   1.36223    0.000
 6585.00    1.26983   1.36303    0.000
 6586.00    1.27576   1.36080    0.000
 6587.00    1.26919   1.36161    0.000
 6588.00    1.26148   1.36381    0.000
 6589.00    1.24412   1.36275    0.000
 6590.00    1.22622   1.36257    0.000
 6591.00    1.17913   1.36419    0.000
 6592.00    1.13190   1.36373    0.000
 6593.00    1.13017   1.36284    0.000
 6594.00    1.12810   1.36477    0.000
 6595.00    1.11839   1.36622    0.000
 6596.00    1.10824   1.36579    0.000
 6597.00    1.09236   1.36676    0.000
 6598.00    1.07887   1.36775    0.000
 6599.00    1.08577   1.36708    0.000
 6600.00    1.09341   1.36813    0.000
 6601.00    1.10579   1.37019    0.000
 6602.00    1.11418   1.36997    0.000
 6603.00    1.10266   1.36982    0.000
 6604.00    1.08996   1.37154    0.000
 6605.00    1.07255   1.37253    0.000
 6606.00    1.05873   1.37169    0.000
 6607.00    1.05695   1.37208    0.000
 6608.00    1.06585   1.37345    0.000
 6609.00    1.10494   1.37291    0.014
 6610.00    1.13407   1.37235    0.014
 6611.00    1.13910   1.37337    0.014
 6612.00    1.14417   1.37381    0.014
 6613.00    1.14930   1.37245    0.014
 6614.00    1.15172   1.37146    0.014
 6615.00    1.14923   1.37179    0.014
 6616.00    1.13664   1.37092    0.014
 6617.00    1.10804   1.36938    0.014
 6618.00    1.09779   1.36889    0.014
 6619.00    1.11309   1.36825    0.014
 6620.00    1.11042   1.36693    0.014
 6621.00    1.08573   1.36623    0.014
 6622.00    1.06845   1.36558    0.014
 6623.00    1.05915   1.36380    0.014
 6624.00    1.06092   1.36296    0.014
 6625.00    1.07323   1.36298    0.014
 6626.00    1.07970   1.36096    0.014
 6627.00    1.08128   1.35987    0.014
 6628.00    1.08718   1.36122    0.014
 6629.00    1.09630   1.36020    0.014
 6630.00    1.11874   1.35769    0.014
 6631.00    1.14984   1.35880    0.015
 6632.00    1.13880   1.35988    0.015
 6633.00    1.10381   1.35643    0.015
 6634.00    1.09965   1.35576    0.015
 6635.00    1.11074   1.35871    0.015
 6636.00    1.08931   1.35702    0.015
 6637.00    1.05397   1.35414    0.014
 6638.00    1.04066   1.35614    0.014
 6639.00    1.03543   1.35698    0.014
 6640.00    1.02419   1.35365    0.014
 6641.00    1.01110   1.35338    0.014
 6642.00    1.00389   1.35532    0.014
 6643.00    0.99821   1.35312    0.014
 6644.00    1.02088   1.35094    0.014
 6645.00    1.04954   1.35215    0.014
 6646.00    1.06932   1.35157    0.014
 6647.00    1.08761   1.34956    0.014
 6648.00    1.10279   1.34963    0.014
 6649.00    1.11758   1.34892    0.014
 6650.00    1.10980   1.34723    0.014
 6651.00    1.10005   1.34707    0.014
 6652.00    1.05586   1.34690    0.014
 6653.00    1.00991   1.34465    0.015
 6654.00    1.03391   1.34414    0.015
 6655.00    1.05902   1.34540    0.015
 6656.00    1.07467   1.34309    0.015
 6657.00    1.08922   1.34133    0.015
 6658.00    1.08069   1.34299    0.015
 6659.00    1.07248   1.34324    0.014
 6660.00    1.06805   1.34025    0.015
 6661.00    1.06295   1.33969    0.015
 6662.00    1.05231   1.34218    0.015
 6663.00    1.03800   1.34016    0.015
 6664.00    1.00111   1.33718    0.014
 6665.00    0.97878   1.33919    0.014
 6666.00    1.02721   1.34078    0.014
 6667.00    1.06807   1.33736    0.014
 6668.00    1.07909   1.33574    0.014
 6669.00    1.08388   1.33897    0.014
 6670.00    1.06823   1.33802    0.014
 6671.00    1.05561   1.33375    0.014
 6672.00    1.05138   1.33540    0.014
 6673.00    1.04459   1.33824    0.014
 6674.00    1.03167   1.33515    0.014
 6675.00    1.02142   1.33351    0.014
 6676.00    1.01665   1.33669    0.014
 6677.00    1.02996   1.33652    0.015
 6678.00    1.07555   1.33291    0.015
 6679.00    1.07176   1.33428    0.015
 6680.00    0.99079   1.33711    0.015
 6681.00    0.95101   1.33501    0.015
 6682.00    0.96773   1.33366    0.015
 6683.00    1.00250   1.33580    0.015
 6684.00    1.05905   1.33623    0.015
 6685.00    1.09283   1.33404    0.015
 6686.00    1.10238   1.33434    0.015
 6687.00    1.09410   1.33592    0.015
 6688.00    1.06907   1.33470    0.015
 6689.00    1.03688   1.33307    0.015
 6690.00    0.99878   1.33387    0.015
 6691.00    1.00157   1.33444    0.015
 6692.00    1.03417   1.33281    0.014
 6693.00    1.03862   1.33184    0.014
 6694.00    1.02506   1.33243    0.014
 6695.00    0.98941   1.33192    0.014
 6696.00    0.94140   1.32912    0.000
 6697.00    0.93590   1.32820    0.000
 6698.00    0.95110   1.32921    0.000
 6699.00    1.01277   1.32757    0.000
 6700.00    1.09399   1.32464    0.000
 6701.00    1.11065   1.32434    0.000
 6702.00    1.10405   1.32469    0.000
 6703.00    1.03591   1.32073    0.000
 6704.00    0.94904   1.31804    0.000
 6705.00    0.95861   1.31970    0.000
 6706.00    0.99260   1.31867    0.000
 6707.00    0.96401   1.31447    0.000
 6708.00    0.92254   1.31372    0.000
 6709.00    0.94929   1.31542    0.000
 6710.00    0.98710   1.31230    0.000
 6711.00    0.99083   1.30927    0.000
 6712.00    0.99043   1.31148    0.000
 6713.00    0.98445   1.31248    0.000
 6714.00    0.97801   1.30948    0.000
 6715.00    1.00265   1.30873    0.000
 6716.00    1.02876   1.31142    0.000
 6717.00    1.05488   1.31084    0.000
 6718.00    1.08102   1.30856    0.000
 6719.00    1.10903   1.31005    0.000
 6720.00    1.13548   1.31252    0.000
 6721.00    1.13140   1.31122    0.000
 6722.00    1.12720   1.30993    0.000
 6723.00    1.12152   1.31219    0.000
 6724.00    1.11173   1.31292    0.000
 6725.00    1.06918   1.31060    0.000
 6726.00    1.02787   1.31050    0.000
 6727.00    0.99397   1.31284    0.000
 6728.00    0.97764   1.31166    0.000
 6729.00    1.04456   1.30920    0.000
 6730.00    1.10568   1.31075    0.000
 6731.00    1.14441   1.31154    0.000
 6732.00    1.16251   1.30838    0.000
 6733.00    1.11418   1.30744    0.000
 6734.00    1.07122   1.30991    0.000
 6735.00    1.04293   1.30850    0.000
 6736.00    1.03145   1.30518    0.000
 6737.00    1.05927   1.30699    0.000
 6738.00    1.08133   1.30855    0.000
 6739.00    1.09175   1.30541    0.000
 6740.00    1.08656   1.30483    0.000
 6741.00    1.05391   1.30792    0.000
 6742.00    1.03959   1.30721    0.000
 6743.00    1.05349   1.30465    0.000
 6744.00    1.07144   1.30711    0.000
 6745.00    1.09487   1.30934    0.000
 6746.00    1.08318   1.30732    0.000
 6747.00    1.02969   1.30774    0.000
 6748.00    0.99466   1.31065    0.000
 6749.00    0.97898   1.31056    0.000
 6750.00    0.99503   1.30949    0.000
 6751.00    1.04044   1.31181    0.000
 6752.00    1.05284   1.31337    0.000
 6753.00    1.03829   1.31202    0.018
 6754.00    1.00342   1.31276    0.019
 6755.00    0.95395   1.31482    0.019
 6756.00    0.89214   1.31457    0.019
 6757.00    0.82255   1.31388    0.019
 6758.00    0.86735   1.31553    0.019
 6759.00    0.97521   1.31631    0.019
 6760.00    1.08674   1.31505    0.019
 6761.00    1.20003   1.31541    0.019
 6762.00    1.20758   1.31689    0.020
 6763.00    1.17139   1.31645    0.020
 6764.00    1.13845   1.31566    0.019
 6765.00    1.10667   1.31665    0.019
 6766.00    1.13150   1.31694    0.019
 6767.00    1.17324   1.31611    0.019
 6768.00    1.22097   1.31595    0.019
 6769.00    1.27019   1.31616    0.020
 6770.00    1.17678   1.31552    0.019
 6771.00    1.05474   1.31502    0.019
 6772.00    1.07192   1.31472    0.019
 6773.00    1.11097   1.31392    0.019
 6774.00    1.03276   1.31382    0.019
 6775.00    0.94086   1.31317    0.019
 6776.00    0.99218   1.31152    0.019
 6777.00    1.05479   1.31087    0.019
 6778.00    1.06669   1.31120    0.019
 6779.00    1.07639   1.30977    0.019
 6780.00    1.02788   1.30840    0.019
 6781.00    0.98033   1.30939    0.019
 6782.00    1.00624   1.30892    0.019
 6783.00    1.03454   1.30679    0.019
 6784.00    1.10596   1.30696    0.018
 6785.00    1.16806   1.30818    0.018
 6786.00    1.12822   1.30674    0.018
 6787.00    1.09045   1.30603    0.018
 6788.00    1.06866   1.30784    0.018
 6789.00    1.04918   1.30764    0.018
 6790.00    1.04311   1.30622    0.019
 6791.00    1.04128   1.30725    0.019
 6792.00    1.05910   1.30841    0.019
 6793.00    1.08699   1.30709    0.019
 6794.00    1.15295   1.30729    0.020
 6795.00    1.19832   1.30905    0.020
 6796.00    1.17866   1.30840    0.020
 6797.00    1.14420   1.30753    0.019
 6798.00    1.07014   1.30888    0.020
 6799.00    1.04646   1.30945    0.020
 6800.00    1.13858   1.30799    0.019
 6801.00    1.18554   1.30853    0.019
 6802.00    1.14273   1.30989    0.019
 6803.00    1.11026   1.30908    0.019
 6804.00    1.09568   1.30865    0.019
 6805.00    1.04675   1.30976    0.019
 6806.00    0.94573   1.30998    0.019
 6807.00    0.90545   1.30891    0.018
 6808.00    0.94613   1.30948    0.018
 6809.00    0.99567   1.31040    0.018
 6810.00    1.05563   1.31004    0.018
 6811.00    1.10564   1.31003    0.019
 6812.00    1.14536   1.31079    0.019
 6813.00    1.14792   1.31064    0.019
 6814.00    1.11654   1.30987    0.020
 6815.00    1.08029   1.31045    0.020
 6816.00    1.04011   1.31110    0.019
 6817.00    0.99761   1.31078    0.019
 6818.00    0.95346   1.31035    0.019
 6819.00    0.96971   1.31077    0.019
 6820.00    1.02349   1.31044    0.019
 6821.00    1.04790   1.30925    0.019
 6822.00    1.05639   1.30914    0.019
 6823.00    1.02038   1.30958    0.019
 6824.00    0.96339   1.30918    0.019
 6825.00    0.98979   1.30782    0.019
 6826.00    1.05009   1.30743    0.019
 6827.00    1.02440   1.30716    0.019
 6828.00    0.96886   1.30591    0.019
 6829.00    1.02520   1.30498    0.019
 6830.00    1.11426   1.30493    0.019
 6831.00    1.09932   1.30485    0.019
 6832.00    1.05919   1.30338    0.019
 6833.00    1.05614   1.30222    0.019
 6834.00    1.06034   1.30200    0.019
 6835.00    1.11629   1.30159    0.019
 6836.00    1.18013   1.30048    0.019
 6837.00    1.18043   1.29978    0.020
 6838.00    1.17361   1.30043    0.020
 6839.00    1.08235   1.29986    0.020
 6840.00    0.98477   1.29787    0.021
 6841.00    0.97409   1.29740    0.020
 6842.00    0.96687   1.29829    0.020
 6843.00    0.97361   1.29734    0.020
 6844.00    0.98263   1.29553    0.020
 6845.00    1.07803   1.29682    0.019
 6846.00    1.16355   1.29751    0.019
 6847.00    1.08202   1.29461    0.019
 6848.00    1.00718   1.29358    0.019
 6849.00    1.00223   1.29576    0.019
 6850.00    1.00405   1.29541    0.019
 6851.00    1.05618   1.29285    0.019
 6852.00    1.09759   1.29450    0.019
 6853.00    1.07827   1.29613    0.019
 6854.00    1.05898   1.29310    0.018
 6855.00    1.03978   1.29226    0.018
 6856.00    1.01698   1.29557    0.018
 6857.00    0.98084   1.29571    0.018
 6858.00    0.96644   1.29328    0.019
 6859.00    1.01934   1.29544    0.019
 6860.00    1.04519   1.29750    0.019
 6861.00    0.99984   1.29472    0.019
 6862.00    0.97354   1.29473    0.019
 6863.00    0.99029   1.29877    0.019
 6864.00    0.99571   1.29882    0.019
 6865.00    0.97895   1.29653    0.019
 6866.00    0.96894   1.29905    0.019
 6867.00    0.97045   1.30157    0.020
 6868.00    0.97402   1.29908    0.020
 6869.00    0.98068   1.29929    0.020
 6870.00    1.00016   1.30336    0.020
 6871.00    1.03646   1.30367    0.019
 6872.00    1.08004   1.30134    0.019
 6873.00    1.13203   1.30364    0.019
 6874.00    1.13258   1.30665    0.019
 6875.00    1.08063   1.30462    0.019
 6876.00    1.05102   1.30421    0.019
 6877.00    1.04152   1.30794    0.018
 6878.00    0.99802   1.30917    0.018
 6879.00    0.92755   1.30674    0.018
 6880.00    0.90917   1.30813    0.018
 6881.00    0.92713   1.31148    0.019
 6882.00    0.94300   1.31029    0.019
 6883.00    0.95759   1.30900    0.019
 6884.00    1.01766   1.31209    0.019
 6885.00    1.10203   1.31405    0.019
 6886.00    1.02948   1.31160    0.019
 6887.00    0.88413   1.31183    0.019
 6888.00    0.90171   1.31506    0.019
 6889.00    0.98441   1.31485    0.019
 6890.00    0.98097   1.31301    0.020
 6891.00    0.94816   1.31483    0.020
 6892.00    0.99047   1.31681    0.019
 6893.00    1.05432   1.31505    0.019
 6894.00    1.02644   1.31444    0.019
 6895.00    0.97683   1.31650    0.019
 6896.00    0.99624   1.31671    0.019
 6897.00    1.02879   1.31535    0.019
 6898.00    1.02666   1.31584    0.019
 6899.00    1.01940   1.31664    0.019
 6900.00    1.00917   1.31567    0.019
 6901.00    0.99863   1.31521    0.019
 6902.00    0.96680   1.31586    0.019
 6903.00    0.93346   1.31537    0.019
 6904.00    0.96933   1.31481    0.019
 6905.00    1.00769   1.31502    0.019
 6906.00    1.07287   1.31436    0.019
 6907.00    1.13501   1.31344    0.020
 6908.00    1.08870   1.31374    0.019
 6909.00    1.04323   1.31405    0.019
 6910.00    1.01109   1.31290    0.019
 6911.00    0.97451   1.31277    0.019
 6912.00    0.89353   1.31332    0.019
 6913.00    0.82754   1.31275    0.019
 6914.00    0.86928   1.31210    0.019
 6915.00    0.89926   1.31250    0.019
 6916.00    0.86438   1.31320    0.019
 6917.00    0.84637   1.31271    0.019
 6918.00    0.90274   1.31278    0.019
 6919.00    0.95287   1.31274    0.019
 6920.00    0.98037   1.31309    0.019
 6921.00    0.99642   1.31392    0.019
 6922.00    0.97765   1.31381    0.019
 6923.00    0.95736   1.31374    0.019
 6924.00    0.93312   1.31426    0.019
 6925.00    0.92477   1.31498    0.019
 6926.00    0.95171   1.31382    0.019
 6927.00    0.98267   1.31392    0.019
 6928.00    1.02139   1.31595    0.019
 6929.00    1.04182   1.31607    0.020
 6930.00    1.03149   1.31455    0.020
 6931.00    1.02201   1.31501    0.020
 6932.00    1.01380   1.31689    0.020
 6933.00    0.98785   1.31562    0.020
 6934.00    0.93892   1.31450    0.020
 6935.00    0.92333   1.31662    0.020
 6936.00    0.94578   1.31771    0.020
 6937.00    0.94022   1.31570    0.020
 6938.00    0.90645   1.31537    0.020
 6939.00    0.90143   1.31791    0.020
 6940.00    0.92190   1.31784    0.020
 6941.00    0.96990   1.31650    0.019
 6942.00    1.03943   1.31804    0.019
 6943.00    1.04760   1.31967    0.019
 6944.00    1.01356   1.31830    0.019
 6945.00    0.97898   1.31808    0.019
 6946.00    0.94406   1.32048    0.019
 6947.00    0.92661   1.32089    0.019
 6948.00    0.91835   1.32013    0.019
 6949.00    0.92934   1.32136    0.019
 6950.00    0.94912   1.32282    0.019
 6951.00    0.90798   1.32214    0.019
 6952.00    0.84292   1.32224    0.019
 6953.00    0.86918   1.32331    0.020
 6954.00    0.92598   1.32343    0.020
 6955.00    0.95940   1.32328    0.020
 6956.00    0.98626   1.32359    0.020
 6957.00    1.01686   1.32377    0.020
 6958.00    1.04833   1.32349    0.021
 6959.00    0.99516   1.32349    0.020
 6960.00    0.92628   1.32212    0.020
 6961.00    0.95510   1.32147    0.020
 6962.00    0.99791   1.32248    0.019
 6963.00    1.02892   1.32213    0.019
 6964.00    1.05871   1.31986    0.019
 6965.00    1.02630   1.31957    0.019
 6966.00    0.98974   1.32094    0.019
 6967.00    0.96436   1.31887    0.019
 6968.00    0.93935   1.31691    0.019
 6969.00    0.91777   1.31892    0.019
 6970.00    0.89631   1.31992    0.019
 6971.00    0.87808   1.31644    0.019
 6972.00    0.86448   1.31582    0.019
 6973.00    0.91995   1.31931    0.020
 6974.00    0.96406   1.31932    0.020
 6975.00    0.89919   1.31681    0.020
 6976.00    0.85189   1.31829    0.020
 6977.00    0.92689   1.32071    0.021
 6978.00    0.98115   1.31872    0.021
 6979.00    0.92412   1.31770    0.020
 6980.00    0.88987   1.32082    0.020
 6981.00    0.95378   1.32195    0.020
 6982.00    0.98397   1.31976    0.021
 6983.00    0.89441   1.31994    0.020
 6984.00    0.83541   1.32206    0.019
 6985.00    0.86748   1.32172    0.020
 6986.00    0.90434   1.32016    0.020
 6987.00    0.95332   1.32090    0.020
 6988.00    0.96997   1.32153    0.019
 6989.00    0.91597   1.32001    0.019
 6990.00    0.89627   1.31913    0.019
 6991.00    0.94166   1.32030    0.019
 6992.00    0.94754   1.32057    0.020
 6993.00    0.88802   1.31847    0.019
 6994.00    0.87580   1.31727    0.020
 6995.00    0.93224   1.31831    0.020
 6996.00    0.97336   1.31876    0.020
 6997.00    0.99495   1.31682    0.020
 6998.00    0.99387   1.31562    0.020
 6999.00    0.96729   1.31666    0.021
 7000.00    0.95107   1.31680    0.021
 7001.00    0.94511   1.31464    0.020
 7002.00    0.91816   1.31460    0.020
 7003.00    0.87283   1.31706    0.020
 7004.00    0.86404   1.31633    0.020
 7005.00    0.88341   1.31281    0.020
 7006.00    0.90565   1.31351    0.020
 7007.00    0.92983   1.31742    0.020
 7008.00    0.90820   1.31665    0.020
 7009.00    0.85936   1.31357    0.020
 7010.00    0.88174   1.31562    0.020
 7011.00    0.94100   1.31908    0.019
 7012.00    0.89635   1.31708    0.019
 7013.00    0.80504   1.31567    0.019
 7014.00    0.82286   1.31978    0.019
 7015.00    0.88278   1.32228    0.020
 7016.00    0.87960   1.31892    0.020
 7017.00    0.85571   1.31896    0.020
 7018.00    0.86381   1.32451    0.020
 7019.00    0.88071   1.32595    0.020
 7020.00    0.95577   1.32346    0.021
 7021.00    1.04398   1.32531    0.021
 7022.00    0.97996   1.32993    0.021
 7023.00    0.88844   1.32915    0.021
 7024.00    0.90702   1.32798    0.021
 7025.00    0.94085   1.33229    0.021
 7026.00    0.87969   1.33545    0.021
 7027.00    0.80910   1.33276    0.020
 7028.00    0.82462   1.33309    0.020
 7029.00    0.84553   1.33856    0.020
 7030.00    0.89781   1.33941    0.020
 7031.00    0.95054   1.33658    0.020
 7032.00    0.88660   1.33859    0.020
 7033.00    0.82758   1.34218    0.020
 7034.00    0.90380   1.33974    0.020
 7035.00    0.97351   1.33791    0.020
 7036.00    0.95169   1.34133    0.021
 7037.00    0.92925   1.34175    0.021
 7038.00    0.90111   1.33665    0.021
 7039.00    0.87670   1.33553    0.021
 7040.00    0.87748   1.33810    0.021
 7041.00    0.87902   1.33536    0.021
 7042.00    0.88454   1.33050    0.021
 7043.00    0.91774   1.32984    0.021
 7044.00    1.06751   1.32887    0.022
 7045.00    1.15100   1.32398    0.022
 7046.00    1.00392   1.32076    0.022
 7047.00    0.90178   1.32032    0.021
 7048.00    0.93116   1.31729    0.022
 7049.00    0.62573   1.31244    0.020
 7050.00   -0.51548   1.31018   -2.000
 7051.00   -0.88276   1.30922   -2.000
 7052.00    0.41456   1.30613   -2.000
 7053.00    1.26411   1.30317   -2.000
 7054.00    1.27744   1.30165   -2.000
 7055.00    1.28985   1.29987   -2.000
 7056.00    1.30077   1.29841   -2.000
 7057.00    1.29221   1.29685   -2.000
 7058.00    1.25578   1.29571   -2.000
 7059.00    1.27787   1.29492   -2.000
 7060.00    1.37361   1.29442   -2.000
 7061.00    1.40025   1.29281   -2.000
 7062.00    1.35026   1.29156   -2.000
 7063.00    1.33104   1.29180   -2.000
 7064.00    1.34189   1.29146   -2.000
 7065.00    1.32924   1.28932   -2.000
 7066.00    1.29630   1.28749   -2.000
 7067.00    1.27892   1.28773   -2.000
 7068.00    1.27336   1.28597   -2.000
 7069.00    1.24449   1.28275   -2.000
 7070.00    1.20006   1.28119   -2.000
 7071.00    1.22026   1.28043   -2.000
 7072.00    1.27825   1.27733   -2.000
 7073.00    1.27398   1.27282   -2.000
 7074.00    1.23796   1.27050   -2.000
 7075.00    1.24037   1.26906   -2.000
 7076.00    1.25975   1.26515   -2.000
 7077.00    1.29988   1.26089   -2.000
 7078.00    1.34787   1.25843   -2.000
 7079.00    1.31091   1.25612   -2.000
 7080.00    1.24660   1.25221   -2.000
 7081.00    1.26690   1.24969   -2.000
 7082.00    1.31000   1.24790   -2.000
 7083.00    1.29350   1.24583   -2.000
 7084.00    1.26384   1.24310   -2.000
 7085.00    1.26826   1.24148   -2.000
 7086.00    1.27866   1.24104   -2.000
 7087.00    1.23197   1.24002   -2.000
 7088.00    1.17763   1.24003   -2.000
 7089.00    1.24946   1.23929   -2.000
 7090.00    1.33328   1.23963   -2.000
 7091.00    1.25885   1.23995   -2.000
 7092.00    1.17513   1.24086   -2.000
 7093.00    1.18557   1.24111   -2.000
 7094.00    1.19808   1.24291   -2.000
 7095.00    1.17696   1.24437   -2.000
 7096.00    1.15898   1.24413   -2.000
 7097.00    1.21926   1.24526   -2.000
 7098.00    1.26942   1.24794   -2.000
 7099.00    1.18525   1.24941   -2.000
 7100.00    1.10937   1.24792   -2.000
 7101.00    1.10702   1.24982   -2.000
 7102.00    1.11153   1.25279   -2.000
 7103.00    1.16078   1.25222   -2.000
 7104.00    1.19586   1.25042   -2.000
 7105.00    1.15879   1.25315   -2.000
 7106.00    1.13365   1.25519   -2.000
 7107.00    1.15762   1.25227   -2.000
 7108.00    1.16512   1.25088   -2.000
 7109.00    1.11649   1.25366   -2.000
 7110.00    1.10167   1.25371   -2.000
 7111.00    1.18397   1.24894   -2.000
 7112.00    1.22313   1.24845   -2.000
 7113.00    1.15641   1.25126   -2.000
 7114.00    1.11847   1.24911   -2.000
 7115.00    1.14144   1.24416   -2.000
 7116.00    1.17440   1.24399   -2.000
 7117.00    1.22575   1.24573   -2.000
 7118.00    1.26277   1.24273   -2.000
 7119.00    1.27677   1.23910   -2.000
 7120.00    1.25037   1.23914   -2.000
 7121.00    1.16700   1.23967   -2.000
 7122.00    1.16537   1.23675   -2.000
 7123.00    1.26514   1.23512   -2.000
 7124.00    1.29363   1.23624   -2.000
 7125.00    1.24417   1.23576   -2.000
 7126.00    1.26595   1.23377   -2.000
 7127.00    1.35640   1.23337   -2.000
 7128.00    1.38067   1.23467   -2.000
 7129.00    1.34865   1.23441   -2.000
 7130.00    1.24675   1.23399   -2.000
 7131.00    1.09251   1.23498   -2.000
 7132.00    1.08118   1.23595   -2.000
 7133.00    1.16386   1.23539   -2.000
 7134.00    1.14978   1.23649   -2.000
 7135.00    1.07997   1.23934   -2.000
 7136.00    1.08100   1.23927   -2.000
 7137.00    1.11758   1.23797   -2.000
 7138.00    1.15385   1.24046   -2.000
 7139.00    1.18999   1.24368   -2.000
 7140.00    1.20642   1.24287   -2.000
 7141.00    1.21551   1.24227   -2.000
 7142.00    1.20401   1.24598   -2.000
 7143.00    1.18600   1.24798   -2.000
 7144.00    1.17031   1.24581   -2.000
 7145.00    1.15523   1.24593   -2.000
 7146.00    1.15554   1.25028   -2.000
 7147.00    1.15917   1.25117   -2.000
 7148.00    1.07696   1.24782   -2.000
 7149.00    0.98008   1.24806   -2.000
 7150.00    1.02016   1.25109   -2.000
 7151.00    1.07796   1.25183   -2.000
 7152.00    1.16603   1.24925   -2.000
 7153.00    1.25684   1.24902   -2.000
 7154.00    1.21323   1.24963   -2.000
 7155.00    1.16226   1.24950   -2.000
 7156.00    1.10685   1.24830   -2.000
 7157.00    1.05258   1.24803   -2.000
 7158.00    1.11191   1.24809   -2.000
 7159.00    1.17573   1.24723   -2.000
 7160.00    1.34178   1.24592   -2.000
 7161.00    1.49227   1.24487   -2.000
 7162.00    1.44687   1.24575   -2.000
 7163.00    1.39084   1.24543   -2.000
 7164.00    1.24424   1.24390   -2.000
 7165.00    1.11114   1.24171   -2.000
 7166.00    1.06369   1.24213   -2.000
 7167.00    1.04342   1.24306   -2.000
 7168.00    1.15808   1.24222   -2.000
 7169.00    1.25215   1.24026   -2.000
 7170.00    1.26330   1.23962   -2.000
 7171.00    1.24605   1.23997   -2.000
 7172.00    1.13388   1.23938   -2.000
 7173.00    1.05671   1.23842   -2.000
 7174.00    1.07825   1.23791   -2.000
 7175.00    1.09678   1.23786   -2.000
 7176.00    1.10805   1.23683   -2.000
 7177.00    1.11575   1.23585   -2.000
 7178.00    1.11604   1.23559   -2.000
 7179.00    1.16130   1.23603   -2.000
 7180.00    1.28796   1.23606   -2.000
 7181.00    1.31353   1.23470   -2.000
 7182.00    1.17908   1.23346   -2.000
 7183.00    1.10815   1.23420   -2.000
 7184.00    1.12547   1.23535   -2.000
 7185.00    1.11960   1.23476   -2.000
 7186.00    1.08536   1.23315   -2.000
 7187.00    1.08950   1.23294   -2.000
 7188.00    1.13503   1.23387   -2.000
 7189.00    1.15396   1.23403   -2.000
 7190.00    1.14759   1.23322   -2.000
 7191.00    1.13983   1.23319   -2.000
 7192.00    1.13091   1.23353   -2.000
 7193.00    1.09192   1.23351   -2.000
 7194.00    1.03075   1.23333   -2.000
 7195.00    1.04838   1.23380   -2.000
 7196.00    1.11709   1.23459   -2.000
 7197.00    1.16896   1.23434   -2.000
 7198.00    1.21128   1.23391   -2.000
 7199.00    1.26477   1.23493   -2.000
 7200.00    1.32378   1.23719   -2.000
 7201.00    1.32667   1.23752   -2.000
 7202.00    1.30558   1.23681   -2.000
 7203.00    1.29000   1.23827   -2.000
 7204.00    1.27643   1.24101   -2.000
 7205.00    1.16859   1.24199   -2.000
 7206.00    1.03154   1.24248   -2.000
 7207.00    1.02551   1.24434   -2.000
 7208.00    1.05331   1.24632   -2.000
 7209.00    1.05181   1.24726   -2.000
 7210.00    1.04415   1.24903   -2.000
 7211.00    1.09143   1.25210   -2.000
 7212.00    1.14783   1.25360   -2.000
 7213.00    1.13973   1.25405   -2.000
 7214.00    1.12357   1.25604   -2.000
 7215.00    1.15210   1.25896   -2.000
 7216.00    1.18451   1.26040   -2.000
 7217.00    1.09400   1.26101   -2.000
 7218.00    0.99725   1.26286   -2.000
