###################################################################
## OUTPUT of StarlightChains_v04.for    [Cid@UFSC - 01/Apr/2007] ##
###################################################################

## Some input info
KUG0210-078._37_30.txt                   [arq_obs]
Base.CB07.vall.4m                        [arq_base]
Masks.EmLines.NEW.gm                     [arq_masks]
StCv04.C11.config                        [arq_config]
   66                                    [N_base]
    0                                    [N_YAV_components = # of components with extra extinction!]
    0                                    [i_FitPowerLaw (1/0 = Yes/No)]
-9.99                                    [alpha_PowerLaw]
CCM                                      [red_law_option]
 1.458241                                [q_norm = A(l_norm)/A(V)]

## (Re)Sampling Parameters
 3741.00                                 [l_ini (A)]
 7218.00                                 [l_fin (A)]
    1.00                                 [dl    (A)]     (OBS: dl_cushion =    50.00 A)

## Normalization info
 4020.00                                 [l_norm (A) - for base]
 4010.00                                 [llow_norm (A) - window for f_obs]
 4060.00                                 [lupp_norm (A) - window for f_obs]
1.886922E-17                             [fobs_norm (in input units)]

## S/N
 3691.00                                 [llow_SN (A) - window for S/N]
 7268.00                                 [lupp_SN (A) - window for S/N]
   4.564                                 [S/N in S/N window]
   4.641                                 [S/N in norm. window]
   0.029                                 [S/N_err in S/N window]
   0.030                                 [S/N_err in norm. window]
  1.0000                                 [fscale_chi2]

## etc...
    -2007624                             [idum_orig]
  2423                                   [NOl_eff]
  1811                                   [Nl_eff]
   612    NSIGMA                         [Ntot_cliped & clip_method]
 10221400                                [Nglobal_steps]
   7                                     [N_chains]
   7                                     [NEX0s_base = N_base in EX0s-fits]
 0   0   1        0   2.0   2.083E+04    [Clip-Bug, RC-Crash & Burn-In warning-flags, n_censored_weights, wei_nsig_threshold & wei_limit]
    67     66.573     66.011      0.563  [idt_all, wdt_TotTime, wdt_UsrTime & wdt_SysTime (sec)]

## Synthesis Results - Best model ##

 1.08362E-05                             [chi2/Nl_eff]
     6.52363                             [adev (%)]

   130.00000                             [sum-of-x (%)]
 6.71348E-18                             [Flux_tot (units of input spectrum!)]
 2.18364E-13                             [Mini_tot (???)]
 1.16425E-13                             [Mcor_tot (???)]

  -7.91                                  [v0_min  (km/s)]
  96.75                                  [vd_min  (km/s)]
-0.9648                                  [AV_min  (mag)]
 0.0000                                  [YAV_min (mag)]

# j     x_j(%)      Mini_j(%)     Mcor_j(%)     age_j(yr)     Z_j      (L/M)_j    YAV?  Mstars   component_j        a/Fe...       SSP_chi2r SSP_adev(%)   SSP_AV   SSP_x(%)
  1      0.0000     0.0000E+00    0.0000E+00    1.000000E+06  0.00400  1.094E-02    0   1.0000   age020_m42            0.0000     1.6194E-05     8.2532   2.2674   129.0855
  2      0.0000     0.0000E+00    0.0000E+00    3.160000E+06  0.00400  4.007E-02    0   0.9999   age045_m42            0.0000     1.5925E-05     7.7037   1.6201   133.4320
  3      0.0000     0.0000E+00    0.0000E+00    5.010000E+06  0.00400  2.539E-02    0   0.9488   age055_m42            0.0000     1.5571E-05     7.8706   1.9010   132.3741
  4      0.0000     0.0000E+00    0.0000E+00    6.610000E+06  0.00400  2.620E-02    0   0.9220   age061_m42            0.0000     1.5308E-05     7.5510   1.5453   133.8402
  5      0.0000     0.0000E+00    0.0000E+00    1.000000E+07  0.00400  1.322E-02    0   0.8862   age070_m42            0.0000     1.4084E-05     6.8867   1.2483   138.0587
  6      0.0000     0.0000E+00    0.0000E+00    1.445000E+07  0.00400  7.883E-03    0   0.8571   age078_m42            0.0000     1.4512E-05     7.1251   1.5603   135.3409
  7      0.0000     0.0000E+00    0.0000E+00    2.512000E+07  0.00400  5.251E-03    0   0.8174   age090_m42            0.0000     1.3988E-05     6.7480   1.1269   138.4379
  8      0.0000     0.0000E+00    0.0000E+00    4.000000E+07  0.00400  3.649E-03    0   0.7851   age104_m42            0.0000     1.3836E-05     6.6768   0.9158   138.5624
  9      0.0000     0.0000E+00    0.0000E+00    5.500000E+07  0.00400  3.098E-03    0   0.7629   age110_m42            0.0000     1.4534E-05     6.8851   1.0862   137.2795
 10      0.0000     0.0000E+00    0.0000E+00    1.015200E+08  0.00400  2.228E-03    0   0.7207   age116_m42            0.0000     1.4699E-05     6.9778   1.1173   136.8181
 11      0.0000     0.0000E+00    0.0000E+00    2.861200E+08  0.00400  1.093E-03    0   0.6648   age125_m42            0.0000     1.3925E-05     6.8375   0.5581   140.3424
 12      0.0000     0.0000E+00    0.0000E+00    5.088000E+08  0.00400  6.597E-04    0   0.6365   age130_m42            0.0000     1.3836E-05     6.8369   0.5623   140.5830
 13      0.0000     0.0000E+00    0.0000E+00    1.434000E+09  0.00400  2.132E-04    0   0.5798   age139_m42            0.0000     1.1593E-05     6.1633  -0.3731   141.1765
 14      0.0000     0.0000E+00    0.0000E+00    4.250000E+09  0.00400  5.895E-05    0   0.5377   age158_m42            0.0000     1.0650E-05     6.5712  -0.8204   135.5965
 15      0.0000     0.0000E+00    0.0000E+00    7.500000E+09  0.00400  3.510E-05    0   0.5212   age171_m42            0.0000     1.0644E-05     6.7612  -1.0000   134.2351
 16      0.0000     0.0000E+00    0.0000E+00    1.300000E+10  0.00400  2.005E-05    0   0.5034   age193_m42            0.0000     1.2185E-05     7.2861  -1.0000   128.0236
 17      0.0000     0.0000E+00    0.0000E+00    1.800000E+10  0.00400  1.525E-05    0   0.4967   age213_m42            0.0000     1.2316E-05     7.4611  -1.0000   126.6904
 18      0.0000     0.0000E+00    0.0000E+00    1.000000E+06  0.00800  1.238E-02    0   1.0000   age020_m52            0.0000     1.6147E-05     8.2518   2.2638   129.3376
 19      0.0000     0.0000E+00    0.0000E+00    3.160000E+06  0.00800  3.074E-02    0   0.9966   age045_m52            0.0000     1.6021E-05     8.2139   2.1915   130.2308
 20      0.0000     0.0000E+00    0.0000E+00    5.010000E+06  0.00800  2.668E-02    0   0.9443   age055_m52            0.0000     1.5446E-05     7.8550   1.9755   131.6452
 21      0.0000     0.0000E+00    0.0000E+00    6.610000E+06  0.00800  2.136E-02    0   0.9177   age061_m52            0.0000     1.2476E-05     6.6875   0.7390   140.0956
 22      0.0000     0.0000E+00    0.0000E+00    1.000000E+07  0.00800  1.215E-02    0   0.8827   age070_m52            0.0000     1.4053E-05     6.8338   1.4197   138.3450
 23      0.0000     0.0000E+00    0.0000E+00    1.445000E+07  0.00800  8.717E-03    0   0.8552   age078_m52            0.0000     1.4312E-05     6.9847   1.5338   136.7904
 24      0.0000     0.0000E+00    0.0000E+00    2.512000E+07  0.00800  5.592E-03    0   0.8162   age090_m52            0.0000     1.4024E-05     6.6379   1.2071   139.1418
 25      0.0000     0.0000E+00    0.0000E+00    4.000000E+07  0.00800  3.896E-03    0   0.7841   age104_m52            0.0000     1.4155E-05     6.6839   1.1405   138.7512
 26      0.0000     0.0000E+00    0.0000E+00    1.015200E+08  0.00800  2.148E-03    0   0.7226   age116_m52            0.0000     1.4238E-05     6.8045   1.0956   137.3299
 27      0.0000     0.0000E+00    0.0000E+00    2.861200E+08  0.00800  9.925E-04    0   0.6683   age125_m52            0.0000     1.3762E-05     6.6519   0.6470   140.6354
 28      0.0000     0.0000E+00    0.0000E+00    9.047900E+08  0.00800  3.141E-04    0   0.6138   age135_m52            0.0000     1.2914E-05     6.3722  -0.0724   141.1431
 29      0.0000     0.0000E+00    0.0000E+00    1.434000E+09  0.00800  1.719E-04    0   0.5853   age139_m52            0.0000     1.1031E-05     6.3151  -0.6621   138.8529
 30      0.0000     0.0000E+00    0.0000E+00    2.500000E+09  0.00800  7.872E-05    0   0.5600   age150_m52            0.0000     1.0648E-05     6.6314  -0.9385   135.0443
 31      0.0000     0.0000E+00    0.0000E+00    4.250000E+09  0.00800  4.336E-05    0   0.5426   age158_m52            0.0000     1.0643E-05     6.7225  -0.9601   134.1052
 32      0.0000     0.0000E+00    0.0000E+00    6.250000E+09  0.00800  3.159E-05    0   0.5319   age166_m52            0.0000     1.1728E-05     7.0510  -1.0000   128.4046
 33      0.0000     0.0000E+00    0.0000E+00    1.300000E+10  0.00800  1.361E-05    0   0.5073   age193_m52            0.0000     2.4843E-05    13.6535  -1.0000   111.1786
 34      0.0000     0.0000E+00    0.0000E+00    1.800000E+10  0.00800  9.886E-06    0   0.4990   age213_m52            0.0000     3.0132E-05    15.1335  -1.0000   106.6596
 35      0.0000     0.0000E+00    0.0000E+00    1.000000E+06  0.02000  1.544E-02    0   1.0000   age020_m62            0.0000     1.6171E-05     8.2884   2.2550   129.9028
 36      0.0000     0.0000E+00    0.0000E+00    3.160000E+06  0.02000  3.762E-02    0   0.9858   age045_m62            0.0000     1.6098E-05     8.3521   2.1861   131.4276
 37      0.0000     0.0000E+00    0.0000E+00    5.010000E+06  0.02000  3.296E-02    0   0.9342   age055_m62            0.0000     1.5574E-05     7.8236   1.8736   133.1711
 38      0.0000     0.0000E+00    0.0000E+00    8.710000E+06  0.02000  1.154E-02    0   0.8861   age067_m62            0.0000     1.3125E-05     6.5680   0.8209   146.6896
 39      0.0000     0.0000E+00    0.0000E+00    1.445000E+07  0.02000  7.663E-03    0   0.8472   age078_m62            0.0000     1.3533E-05     6.6660   1.0674   141.7457
 40      0.0000     0.0000E+00    0.0000E+00    2.512000E+07  0.02000  4.532E-03    0   0.8099   age090_m62            0.0000     1.3479E-05     6.6819   1.0634   141.1958
 41      0.0000     0.0000E+00    0.0000E+00    5.500000E+07  0.02000  2.733E-03    0   0.7595   age110_m62            0.0000     1.3500E-05     6.6298   1.1100   138.5692
 42      0.0000     0.0000E+00    0.0000E+00    1.609000E+08  0.02000  1.369E-03    0   0.6985   age120_m62            0.0000     1.4059E-05     6.6882   0.9894   139.5868
 43      0.0000     0.0000E+00    0.0000E+00    2.861200E+08  0.02000  9.013E-04    0   0.6714   age125_m62            0.0000     1.4382E-05     6.5668   0.7729   141.3665
 44      0.0000     0.0000E+00    0.0000E+00    5.088000E+08  0.02000  5.028E-04    0   0.6449   age130_m62            0.0000     1.5004E-05     6.5952   0.4555   140.9460
 45      0.0000     0.0000E+00    0.0000E+00    9.047900E+08  0.02000  2.428E-04    0   0.6179   age135_m62            0.0000     1.2398E-05     6.3344  -0.0990   138.0089
 46      0.0000     0.0000E+00    0.0000E+00    1.434000E+09  0.02000  1.263E-04    0   0.5908   age139_m62            0.0000     1.0705E-05     6.3119  -0.5465   135.9681
 47      0.0000     0.0000E+00    0.0000E+00    2.500000E+09  0.02000  5.985E-05    0   0.5673   age150_m62            0.0000     1.0499E-05     6.7460  -0.9213   134.2687
 48      0.0000     0.0000E+00    0.0000E+00    4.250000E+09  0.02000  3.271E-05    0   0.5468   age158_m62            0.0000     1.2920E-05     7.7190  -1.0000   125.2755
 49      6.9475     1.2081E+01    1.1708E+01    1.000000E+10  0.02000  1.360E-05    0   0.5167   age181_m62            0.0000     2.2151E-05    12.3024  -1.0000   112.0912
 50      0.0000     0.0000E+00    0.0000E+00    1.800000E+10  0.02000  7.124E-06    0   0.5013   age213_m62            0.0000     3.0843E-05    15.0907  -1.0000   103.6344
 51      0.0000     0.0000E+00    0.0000E+00    1.000000E+06  0.05000  2.592E-02    0   0.9998   age020_m72            0.0000     1.6103E-05     8.2974   2.2409   130.2816
 52      0.0000     0.0000E+00    0.0000E+00    3.160000E+06  0.05000  4.845E-02    0   0.9577   age045_m72            0.0000     1.5897E-05     8.2161   2.0947   131.7020
 53      0.0000     0.0000E+00    0.0000E+00    5.010000E+06  0.05000  3.072E-02    0   0.9147   age055_m72            0.0000     1.4308E-05     7.3653   1.6311   137.2476
 54      0.0000     0.0000E+00    0.0000E+00    6.610000E+06  0.05000  1.455E-02    0   0.8877   age061_m72            0.0000     1.5513E-05     8.3758   0.8522   149.6159
 55      0.0000     0.0000E+00    0.0000E+00    1.000000E+07  0.05000  9.074E-03    0   0.8524   age070_m72            0.0000     1.5263E-05     8.0079   1.8220   136.5984
 56      0.0000     0.0000E+00    0.0000E+00    2.512000E+07  0.05000  4.250E-03    0   0.7902   age090_m72            0.0000     1.4816E-05     7.3997   1.5557   136.9744
 57      0.0000     0.0000E+00    0.0000E+00    4.000000E+07  0.05000  3.087E-03    0   0.7618   age104_m72            0.0000     1.4732E-05     7.2808   1.3452   138.3905
 58      0.0000     0.0000E+00    0.0000E+00    1.015200E+08  0.05000  1.700E-03    0   0.7096   age116_m72            0.0000     1.4319E-05     6.7459   1.1232   139.6841
 59      0.0000     0.0000E+00    0.0000E+00    2.861200E+08  0.05000  7.384E-04    0   0.6633   age125_m72            0.0000     1.4325E-05     6.4998   0.6862   140.2385
 60      0.0000     0.0000E+00    0.0000E+00    5.088000E+08  0.05000  3.819E-04    0   0.6372   age130_m72            0.0000     1.3231E-05     6.3048   0.2516   138.7053
 61     76.2326     1.0757E+01    1.2327E+01    9.047900E+08  0.05000  1.676E-04    0   0.6110   age135_m72            0.0000     1.1215E-05     6.5178  -0.4166   134.1011
 62      0.0000     0.0000E+00    0.0000E+00    1.434000E+09  0.05000  8.837E-05    0   0.5874   age139_m72            0.0000     1.0468E-05     6.5894  -0.8778   133.6366
 63      0.0000     0.0000E+00    0.0000E+00    2.500000E+09  0.05000  4.233E-05    0   0.5598   age150_m72            0.0000     1.2487E-05     7.4840  -1.0000   125.5340
 64     46.8199     7.7162E+01    7.5965E+01    6.250000E+09  0.05000  1.435E-05    0   0.5249   age166_m72            0.0000     2.5294E-05    13.5439  -1.0000   108.0548
 65      0.0000     0.0000E+00    0.0000E+00    1.300000E+10  0.05000  6.513E-06    0   0.5036   age193_m72            0.0000     3.8952E-05    17.2250  -1.0000    99.0298
 66      0.0000     0.0000E+00    0.0000E+00    1.800000E+10  0.05000  4.527E-06    0   0.4945   age213_m72            0.0000     4.8562E-05    19.1577  -1.0000    93.2412


## Synthesis Results - Average & Chains ##

# j      x_j: min, <> & last-chain-values for 1 ...  7 chains
  1      0.0000      0.2098      0.0000      0.0325      0.0000      0.0326      0.0431      0.0359      0.0785
  2      0.0000      0.1798      0.0215      0.0000      0.0008      0.0000      0.0653      0.0201      0.0676
  3      0.0000      0.2556      0.0555      0.0102      0.0000      0.0118      0.0000      0.0569      0.0245
  4      0.0000      0.2850      0.0091      0.0441      0.0006      0.0133      0.0000      0.0202      0.0000
  5      0.0000      0.2389      0.0044      0.0685      0.0027      0.0249      0.0306      0.0285      0.0648
  6      0.0000      0.2520      0.0165      0.0393      0.0003      0.0640      0.0745      0.0219      0.0271
  7      0.0000      0.2831      0.0058      0.0625      0.0000      0.0071      0.0257      0.0515      0.1196
  8      0.0000      0.2394      0.0078      0.0503      0.0000      0.0010      0.0268      0.0000      0.0000
  9      0.0000      0.2451      0.0000      0.0139      0.0000      0.0000      0.1863      0.0000      0.0000
 10      0.0000      0.1869      0.0099      0.0081      0.0008      0.0218      0.0419      0.0093      0.0117
 11      0.0000      0.2232      0.0079      0.0098      0.0004      0.0125      0.0000      0.0300      0.1398
 12      0.0000      0.3104      0.0127      0.0000      0.0000      0.0000      0.0000      0.0062      0.0106
 13      0.0000      0.2634      0.0000      0.1473      0.0000      0.0000      0.1478      0.0310      0.1699
 14      0.0000      0.3547      0.0049      0.0357      0.0000      0.0225      0.1637      0.0936      0.0556
 15      0.0000      0.2260      0.0074      0.0041      0.0033      0.0000      0.0065      0.0416      0.0168
 16      0.0000      0.2386      0.0000      0.0290      0.0015      0.0091      0.0345      0.0471      0.0000
 17      0.0000      0.1500      0.0031      0.0147      0.0000      0.0632      0.0601      0.0000      0.0124
 18      0.0000      0.1733      0.0025      0.0525      0.0002      0.0126      0.0000      0.0452      0.0039
 19      0.0000      0.2736      0.0421      0.0204      0.0007      0.1088      0.0312      0.0638      0.0195
 20      0.0000      0.1992      0.0000      0.0208      0.0038      0.0012      0.0248      0.0111      0.0571
 21      0.0000      0.3007      0.0073      0.0202      0.0003      0.0541      0.0000      0.0287      0.0294
 22      0.0000      0.2705      0.0000      0.0499      0.0012      0.0286      0.0000      0.0486      0.0458
 23      0.0000      0.2247      0.0112      0.0191      0.0000      0.0000      0.0000      0.0224      0.0000
 24      0.0000      0.2508      0.0268      0.0206      0.0000      0.0554      0.0395      0.0820      0.0000
 25      0.0000      0.2042      0.0000      0.0091      0.0010      0.1038      0.0511      0.0038      0.0130
 26      0.0000      0.2591      0.0000      0.0067      0.0007      0.0039      0.0649      0.0546      0.1028
 27      0.0000      0.2394      0.0142      0.0073      0.0000      0.0114      0.1871      0.0000      0.0296
 28      0.0000      0.2804      0.0029      0.0148      0.0003      0.0437      0.1000      0.0000      0.0649
 29      0.0000      0.2627      0.0000      0.0155      0.0000      0.0254      0.0860      0.0178      0.0409
 30      0.0000      0.1794      0.0284      0.0267      0.0000      0.0056      0.0013      0.0401      0.0444
 31      0.0000      0.1941      0.0104      0.0251      0.0011      0.0377      0.2121      0.0075      0.0144
 32      0.0000      0.2329      0.0000      0.0342      0.0000      0.0408      0.2834      0.0000      0.1827
 33      0.0000      0.2639      0.0028      0.0806      0.0188      0.0657      0.0499      0.0370      0.0907
 34      0.0000      0.2496      0.0506      0.0790      0.0209      0.0722      0.0430      0.0724      0.1247
 35      0.0000      0.2217      0.0047      0.0331      0.0003      0.0000      0.0060      0.0783      0.0000
 36      0.0000      0.2297      0.0000      0.0325      0.0018      0.0044      0.0472      0.0000      0.1082
 37      0.0000      0.2520      0.0311      0.0199      0.0003      0.0000      0.1502      0.0189      0.0550
 38      0.0000      0.2003      0.0051      0.0179      0.0000      0.0000      0.0348      0.0268      0.0000
 39      0.0000      0.2178      0.0182      0.0233      0.0008      0.0351      0.0324      0.0324      0.0582
 40      0.0000      0.2793      0.0021      0.1183      0.0000      0.0443      0.1135      0.0514      0.1806
 41      0.0000      0.2287      0.0000      0.0120      0.0000      0.0101      0.0263      0.0203      0.0525
 42      0.0000      0.2505      0.0030      0.0000      0.0022      0.0252      0.0435      0.0000      0.0282
 43      0.0000      0.2547      0.0092      0.0456      0.0001      0.0000      0.0661      0.0225      0.0688
 44      0.0000      4.0520     10.3412      3.4327      4.9775      3.4891      2.8376      3.4574      1.9470
 45      0.0000     25.4403      8.4408     31.6432     35.0756     31.4607     29.1630     31.6172     29.6829
 46      0.0000      0.1983      0.0055      0.0503      0.0009      0.0998      0.0676      0.0480      0.0948
 47      0.0000      0.2203      0.0000      0.0109      0.0028      0.0064      0.0134      0.0271      0.1531
 48      0.0000      0.3018      0.0595      0.3108      0.0291      0.2612      0.1999      0.2571      0.2496
 49      6.9475      5.6199      7.2494      6.0682      6.3661      6.0927      6.2137      6.1155      6.1004
 50      0.0000      6.3856      5.6936      6.1885     11.8334      6.2035      6.2819      6.1080      6.0282
 51      0.0000      0.2965      0.0000      0.0392      0.0015      0.0796      0.0877      0.0026      0.0000
 52      0.0000      0.2423      0.0000      0.0331      0.0004      0.0000      0.0613      0.0000      0.0581
 53      0.0000      0.1420      0.0273      0.0061      0.0004      0.0061      0.1353      0.0026      0.0000
 54      0.0000      0.2945      0.0008      0.0430      0.0000      0.0000      0.1714      0.0000      0.0000
 55      0.0000      0.2482      0.0112      0.0306      0.0004      0.0000      0.0000      0.0000      0.0389
 56      0.0000      0.2922      0.0112      0.0000      0.0000      0.0128      0.0000      0.0176      0.0838
 57      0.0000      0.2894      0.0029      0.0126      0.0012      0.0248      0.0000      0.0015      0.0056
 58      0.0000      0.2433      0.0321      0.0409      0.0000      0.0459      0.1391      0.0362      0.1862
 59      0.0000      0.1750      0.0000      0.0000      0.0024      0.0000      0.0618      0.0241      0.0535
 60      0.0000      0.2411      0.0299      0.0826      0.0000      0.0616      0.0248      0.1621      0.0557
 61     76.2326     40.3225     59.0280     46.6669     32.6203     46.7488     47.5500     46.4458     48.6456
 62      0.0000      0.2954      0.0797      0.0729      0.3738      0.0581      0.1379      0.0683      0.1567
 63      0.0000     14.1282     17.9746     13.4932     19.4554     13.9501     14.1266     13.8803     13.8607
 64     46.8199      2.7350      3.6204      3.0100      2.2843      2.9860      2.9829      2.9663      3.0453
 65      0.0000      0.2841      0.1575      0.1434      0.0528      0.2304      0.0662      0.2662      0.1595
 66      0.0000      0.2334      0.0490      0.1352      0.0158      0.0413      0.0892      0.1144      0.1943

# j      m_j: min, <> & last-chain-values for 1 ...  7 chains
  1  0.0000E+00  1.5029E-03  0.0000E+00  2.3756E-04  0.0000E+00  2.3748E-04  3.1181E-04  2.6124E-04  5.6853E-04
  2  0.0000E+00  3.5153E-04  4.0698E-05  0.0000E+00  1.1844E-06  0.0000E+00  1.2903E-04  4.0019E-05  1.3372E-04
  3  0.0000E+00  7.4843E-04  1.5741E-04  3.0382E-05  0.0000E+00  3.5076E-05  0.0000E+00  1.6941E-04  7.2576E-05
  4  0.0000E+00  7.8568E-04  2.4369E-05  1.2403E-04  1.2162E-06  3.7262E-05  0.0000E+00  5.6573E-05  0.0000E+00
  5  0.0000E+00  1.2548E-03  2.2431E-05  3.6693E-04  1.0900E-05  1.3309E-04  1.6247E-04  1.5239E-04  3.4428E-04
  6  0.0000E+00  2.1470E-03  1.3595E-04  3.4093E-04  1.7556E-06  5.5460E-04  6.4197E-04  1.8971E-04  2.3325E-04
  7  0.0000E+00  3.4531E-03  6.8701E-05  7.7761E-04  0.0000E+00  8.8409E-05  3.1656E-04  6.3912E-04  1.4751E-03
  8  0.0000E+00  4.0350E-03  1.2729E-04  8.6472E-04  0.0000E+00  1.6836E-05  4.5760E-04  0.0000E+00  0.0000E+00
  9  0.0000E+00  4.7288E-03  0.0000E+00  2.7245E-04  0.0000E+00  0.0000E+00  3.6359E-03  0.0000E+00  0.0000E+00
 10  0.0000E+00  4.7358E-03  2.4389E-04  2.0849E-04  1.5997E-05  5.6222E-04  1.0738E-03  2.4010E-04  3.0035E-04
 11  0.0000E+00  1.0635E-02  3.6577E-04  4.7766E-04  1.3874E-05  6.0740E-04  0.0000E+00  1.4513E-03  6.7376E-03
 12  0.0000E+00  2.3462E-02  9.3192E-04  0.0000E+00  0.0000E+00  0.0000E+00  0.0000E+00  4.7556E-04  8.0917E-04
 13  0.0000E+00  5.6131E-02  0.0000E+00  3.2006E-02  0.0000E+00  0.0000E+00  3.1848E-02  6.7105E-03  3.6606E-02
 14  0.0000E+00  2.5346E-01  3.3766E-03  2.6019E-02  0.0000E+00  1.6347E-02  1.1834E-01  6.7980E-02  4.0146E-02
 15  0.0000E+00  2.6297E-01  8.2913E-03  4.9027E-03  3.0005E-03  0.0000E+00  7.6461E-03  4.9220E-02  1.9803E-02
 16  0.0000E+00  4.6937E-01  0.0000E+00  5.8112E-02  2.3424E-03  1.8118E-02  6.8565E-02  9.4294E-02  0.0000E+00
 17  0.0000E+00  3.8281E-01  7.7113E-03  3.8336E-02  0.0000E+00  1.6419E-01  1.5513E-01  0.0000E+00  3.2045E-02
 18  0.0000E+00  1.0965E-03  1.5072E-05  3.3875E-04  7.6400E-07  8.1037E-05  0.0000E+00  2.9056E-04  2.4770E-05
 19  0.0000E+00  6.9499E-04  1.0355E-04  5.2874E-05  1.3178E-06  2.8123E-04  8.0017E-05  1.6472E-04  5.0056E-05
 20  0.0000E+00  5.5231E-04  0.0000E+00  5.8877E-05  8.2814E-06  3.4517E-06  6.9492E-05  3.1287E-05  1.6006E-04
 21  0.0000E+00  1.0124E-03  2.3759E-05  6.9470E-05  7.8450E-07  1.8543E-04  0.0000E+00  9.8061E-05  9.9940E-05
 22  0.0000E+00  1.5396E-03  0.0000E+00  2.8964E-04  5.1752E-06  1.6588E-04  0.0000E+00  2.8137E-04  2.6370E-04
 23  0.0000E+00  1.7271E-03  8.3191E-05  1.4945E-04  0.0000E+00  0.0000E+00  0.0000E+00  1.7514E-04  0.0000E+00
 24  0.0000E+00  2.8676E-03  2.9675E-04  2.4010E-04  0.0000E+00  6.4445E-04  4.5674E-04  9.5302E-04  0.0000E+00
 25  0.0000E+00  3.2199E-03  0.0000E+00  1.4645E-04  1.2152E-05  1.6656E-03  8.1433E-04  6.0192E-05  2.0783E-04
 26  0.0000E+00  6.8300E-03  0.0000E+00  1.8015E-04  1.3648E-05  1.0492E-04  1.7311E-03  1.4629E-03  2.7405E-03
 27  0.0000E+00  1.2631E-02  7.2656E-04  3.9053E-04  0.0000E+00  6.1134E-04  9.9797E-03  0.0000E+00  1.5789E-03
 28  0.0000E+00  4.2933E-02  4.2650E-04  2.3060E-03  3.7767E-05  6.8064E-03  1.5484E-02  0.0000E+00  1.0047E-02
 29  0.0000E+00  7.0083E-02  0.0000E+00  4.2077E-03  0.0000E+00  6.9023E-03  2.3207E-02  4.8336E-03  1.1035E-02
 30  0.0000E+00  9.9971E-02  1.5313E-02  1.5146E-02  0.0000E+00  3.1891E-03  7.3740E-04  2.2728E-02  2.5013E-02
 31  0.0000E+00  1.9026E-01  9.8515E-03  2.5054E-02  8.5937E-04  3.7618E-02  2.1026E-01  7.4832E-03  1.4264E-02
 32  0.0000E+00  3.0719E-01  0.0000E+00  4.6043E-02  0.0000E+00  5.4778E-02  3.7804E-01  0.0000E+00  2.4364E-01
 33  0.0000E+00  7.7059E-01  7.8773E-03  2.4007E-01  4.2660E-02  1.9518E-01  1.4728E-01  1.0997E-01  2.6773E-01
 34  0.0000E+00  9.8696E-01  1.9355E-01  3.1834E-01  6.4220E-02  2.9059E-01  1.7204E-01  2.9108E-01  4.9875E-01
 35  0.0000E+00  1.1249E-03  2.2882E-05  1.7125E-04  1.2997E-06  0.0000E+00  3.0578E-05  4.0372E-04  0.0000E+00
 36  0.0000E+00  4.7155E-04  0.0000E+00  6.8074E-05  2.7983E-06  9.2385E-06  9.7994E-05  0.0000E+00  2.2453E-04
 37  0.0000E+00  5.5962E-04  6.6860E-05  4.5058E-05  5.4877E-07  0.0000E+00  3.3739E-04  4.2577E-05  1.2340E-04
 38  0.0000E+00  1.2052E-03  2.9716E-05  1.0963E-04  0.0000E+00  0.0000E+00  2.1174E-04  1.6414E-04  0.0000E+00
 39  0.0000E+00  1.8870E-03  1.5277E-04  2.0533E-04  5.2522E-06  3.0923E-04  2.8346E-04  2.8562E-04  5.0996E-04
 40  0.0000E+00  3.9104E-03  2.8650E-05  1.6886E-03  0.0000E+00  6.3122E-04  1.6074E-03  7.3160E-04  2.5568E-03
 41  0.0000E+00  4.9790E-03  0.0000E+00  2.6731E-04  0.0000E+00  2.2373E-04  5.7888E-04  4.4886E-04  1.1551E-03
 42  0.0000E+00  1.0013E-02  1.1466E-04  0.0000E+00  6.7774E-05  1.0251E-03  1.7599E-03  0.0000E+00  1.1385E-03
 43  0.0000E+00  1.4865E-02  5.2208E-04  2.7107E-03  3.7633E-06  0.0000E+00  3.8994E-03  1.3342E-03  4.0610E-03
 44  0.0000E+00  4.0720E-01  1.0059E+00  3.5168E-01  3.8913E-01  3.5674E-01  2.8836E-01  3.5323E-01  1.9782E-01
 45  0.0000E+00  5.0726E+00  1.6291E+00  6.4322E+00  5.4408E+00  6.3823E+00  5.8803E+00  6.4093E+00  5.9838E+00
 46  0.0000E+00  7.2689E-02  1.9504E-03  1.8807E-02  2.6573E-04  3.7208E-02  2.5065E-02  1.7875E-02  3.5130E-02
 47  0.0000E+00  1.6357E-01  0.0000E+00  8.2287E-03  1.6039E-03  4.8696E-03  1.0057E-02  2.0431E-02  1.1496E-01
 48  0.0000E+00  3.9525E-01  7.5471E-02  4.1497E-01  2.9665E-02  3.4807E-01  2.6483E-01  3.4237E-01  3.3056E-01
 49  1.1708E+01  1.6729E+01  2.0888E+01  1.8415E+01  1.4742E+01  1.8452E+01  1.8705E+01  1.8507E+01  1.8359E+01
 50  0.0000E+00  3.5205E+01  3.0384E+01  3.4783E+01  5.0754E+01  3.4798E+01  3.5024E+01  3.4237E+01  3.3602E+01
 51  0.0000E+00  8.9613E-04  0.0000E+00  1.2070E-04  3.5868E-06  2.4466E-04  2.6797E-04  8.1048E-06  0.0000E+00
 52  0.0000E+00  3.7525E-04  0.0000E+00  5.2336E-05  5.2650E-07  0.0000E+00  9.5942E-05  0.0000E+00  9.1046E-05
 53  0.0000E+00  3.3129E-04  6.1565E-05  1.4626E-05  7.4469E-07  1.4432E-05  3.1920E-04  6.0772E-06  0.0000E+00
 54  0.0000E+00  1.4078E-03  3.6993E-06  2.0936E-04  0.0000E+00  0.0000E+00  8.2871E-04  0.0000E+00  0.0000E+00
 55  0.0000E+00  1.8271E-03  7.9581E-05  2.2982E-04  2.2244E-06  0.0000E+00  0.0000E+00  0.0000E+00  2.8921E-04
 56  0.0000E+00  4.2567E-03  1.5811E-04  0.0000E+00  0.0000E+00  1.8971E-04  0.0000E+00  2.6138E-04  1.2342E-03
 57  0.0000E+00  5.5951E-03  5.4939E-05  2.4776E-04  1.8351E-05  4.8699E-04  0.0000E+00  3.0321E-05  1.0929E-04
 58  0.0000E+00  7.9567E-03  1.0177E-03  1.3640E-03  0.0000E+00  1.5274E-03  4.6019E-03  1.2024E-03  6.1551E-03
 59  0.0000E+00  1.2314E-02  0.0000E+00  0.0000E+00  1.3320E-04  0.0000E+00  4.3956E-03  1.7238E-03  3.8048E-03
 60  0.0000E+00  3.1512E-02  3.7857E-03  1.1015E-02  0.0000E+00  8.1941E-03  3.2789E-03  2.1550E-02  7.3580E-03
 61  1.2327E+01  1.1517E+01  1.6320E+01  1.3589E+01  7.2484E+00  1.3586E+01  1.3735E+01  1.3487E+01  1.4048E+01
 62  0.0000E+00  1.5384E-01  4.0163E-02  3.8724E-02  1.5146E-01  3.0775E-02  7.2601E-02  3.6146E-02  8.2491E-02
 63  0.0000E+00  1.4639E+01  1.8027E+01  1.4253E+01  1.5682E+01  1.4706E+01  1.4802E+01  1.4622E+01  1.4520E+01
 64  7.5965E+01  7.8381E+00  1.0043E+01  8.7945E+00  5.0930E+00  8.7066E+00  8.6451E+00  8.6429E+00  8.8238E+00
 65  0.0000E+00  1.7210E+00  9.2351E-01  8.8572E-01  2.4869E-01  1.4198E+00  4.0548E-01  1.6395E+00  9.7692E-01
 66  0.0000E+00  1.9972E+00  4.0603E-01  1.1798E+00  1.0540E-01  3.5935E-01  7.7225E-01  9.9523E-01  1.6813E+00

# AV, chi2 & Mass for <> & i_chain = 1 ...  7 solutions
AV      -0.9648     -0.2559     -0.2841     -0.2050     -0.3229     -0.2130     -0.2173     -0.2094     -0.2219
chi2 1.0836E-05  2.3962E-05  2.1382E-05  2.2286E-05  2.1843E-05  2.2196E-05  2.2090E-05  2.2257E-05  2.2007E-05
Mass 1.1643E-13  1.7078E-13  1.6988E-13  1.7937E-13  2.0065E-13  1.7782E-13  1.7786E-13  1.7882E-13  1.7680E-13
  -7.91                                  [v0_min (km/s) before EX0s...]
  96.75                                  [vd_min (km/s) before EX0s...]


## Synthetic spectrum (Best Model) ##l_obs f_obs f_syn wei
 3478    [Nl_obs]
 3741.00    0.51077   0.73813    0.000
 3742.00    0.57894   0.70934    0.000
 3743.00    0.57467   0.66191    0.000
 3744.00    0.42018   0.61426    0.000
 3745.00    0.17816   0.57081   -1.000
 3746.00   -0.00831   0.52843    0.000
 3747.00   -0.16658   0.48473    0.000
 3748.00   -0.06930   0.44674    0.000
 3749.00    0.14035   0.43674   -1.000
 3750.00    0.40571   0.47478   -1.000
 3751.00    0.69210   0.55425   -1.000
 3752.00    0.73381   0.64862   -1.000
 3753.00    0.69711   0.73591   -1.000
 3754.00    0.72186   0.80116   -1.000
 3755.00    0.76307   0.82373   -1.000
 3756.00    0.64529   0.78747   -1.000
 3757.00    0.49261   0.70929   -1.000
 3758.00    0.27194   0.63836   -1.000
 3759.00    0.03940   0.61333   -1.000
 3760.00   -0.02503   0.63049    0.000
 3761.00   -0.06714   0.66106    0.000
 3762.00    0.12908   0.68437   -1.000
 3763.00    0.34770   0.69755   -1.000
 3764.00    0.40242   0.70331   -1.000
 3765.00    0.44768   0.69802   -1.000
 3766.00    0.41765   0.67989   -1.000
 3767.00    0.38606   0.66139   -1.000
 3768.00    0.38291   0.65521   -1.000
 3769.00    0.37671   0.65902   -1.000
 3770.00    0.29636   0.67062   -1.000
 3771.00    0.23610   0.69753   -1.000
 3772.00    0.43907   0.73705   -1.000
 3773.00    0.63929   0.76990   -1.000
 3774.00    0.81536   0.78460   -1.000
 3775.00    0.95396   0.79130   -1.000
 3776.00    0.84965   0.80544   -1.000
 3777.00    0.75133   0.83119   -1.000
 3778.00    0.68339   0.86502   -1.000
 3779.00    0.60711   0.90162   -1.000
 3780.00    0.49673   0.93193   -1.000
 3781.00    0.44975   0.94827   -1.000
 3782.00    0.61778   0.95378   -1.000
 3783.00    0.69765   0.95262   -1.000
 3784.00    0.52536   0.93312   -1.000
 3785.00    0.32788   0.88021   -1.000
 3786.00    0.06887   0.80500   -1.000
 3787.00   -0.08191   0.73940    0.000
 3788.00   -0.00454   0.70305    0.000
 3789.00    0.07494   0.69508   -1.000
 3790.00    0.15829   0.70649   -1.000
 3791.00    0.17404   0.72098   -1.000
 3792.00    0.08161   0.71776   -1.000
 3793.00    0.05692   0.68958   -1.000
 3794.00    0.12740   0.64931   -1.000
 3795.00    0.13557   0.61152   -1.000
 3796.00    0.06675   0.57759   -1.000
 3797.00    0.02839   0.54814   -1.000
 3798.00    0.02323   0.53935   -1.000
 3799.00    0.10117   0.56973   -1.000
 3800.00    0.25896   0.63574   -1.000
 3801.00    0.24718   0.71499   -1.000
 3802.00    0.09172   0.78696   -1.000
 3803.00    0.00734   0.83819   -1.000
 3804.00   -0.02398   0.85785    0.000
 3805.00    0.13166   0.84450   -1.000
 3806.00    0.40986   0.81661   -1.000
 3807.00    0.56838   0.80531   -1.000
 3808.00    0.65821   0.82835   -1.000
 3809.00    0.68885   0.87245   -1.000
 3810.00    0.68989   0.90475   -1.000
 3811.00    0.59326   0.89779   -1.000
 3812.00    0.45438   0.84683   -1.000
 3813.00    0.37108   0.77321   -1.000
 3814.00    0.30841   0.71082   -1.000
 3815.00    0.23458   0.68423   -1.000
 3816.00    0.15725   0.69508   -1.000
 3817.00    0.12576   0.72038   -1.000
 3818.00    0.10631   0.72758   -1.000
 3819.00    0.17671   0.70581   -1.000
 3820.00    0.26636   0.67886   -1.000
 3821.00    0.28225   0.67375   -1.000
 3822.00    0.28562   0.68246   -1.000
 3823.00    0.23294   0.67318   -1.000
 3824.00    0.17307   0.63575   -1.000
 3825.00    0.43805   0.59330   -1.000
 3826.00    0.73218   0.56981   -1.000
 3827.00    0.60685   0.56757   -1.000
 3828.00    0.45898   0.57533   -1.000
 3829.00    0.38849   0.58081   -1.000
 3830.00    0.31956   0.57255   -1.000
 3831.00    0.25130   0.54360   -1.000
 3832.00    0.18463   0.50081   -1.000
 3833.00    0.15305   0.46335   -1.000
 3834.00    0.14363   0.44681   -1.000
 3835.00    0.40963   0.45193   -1.000
 3836.00    0.65766   0.46751   -1.000
 3837.00    0.75368   0.48144   -1.000
 3838.00    0.82453   0.49149   -1.000
 3839.00    0.73699   0.50714   -1.000
 3840.00    0.68036   0.54087   -1.000
 3841.00    0.77622   0.59572   -1.000
 3842.00    0.83759   0.65863   -1.000
 3843.00    0.76095   0.70919   -1.000
 3844.00    0.66798   0.73783   -1.000
 3845.00    0.52069   0.75136   -1.000
 3846.00    0.46658   0.76122   -1.000
 3847.00    0.67408   0.76875    0.000
 3848.00    0.79819   0.76574    0.000
 3849.00    0.72201   0.75341    0.000
 3850.00    0.57455   0.74961    0.000
 3851.00    0.27926   0.76493    0.000
 3852.00    0.08383   0.78542    0.000
 3853.00    0.06848   0.79160    0.000
 3854.00    0.14205   0.78039    0.000
 3855.00    0.35584   0.76122    0.000
 3856.00    0.52979   0.74210    0.000
 3857.00    0.64859   0.72210    0.000
 3858.00    0.59207   0.69854    0.000
 3859.00    0.32190   0.68333    0.000
 3860.00    0.21103   0.69762    0.000
 3861.00    0.27125   0.74358    0.000
 3862.00    0.44247   0.79643    0.000
 3863.00    0.71886   0.82931    0.000
 3864.00    0.80358   0.83565    0.000
 3865.00    0.72817   0.82702    0.000
 3866.00    0.63678   0.81802    0.000
 3867.00    0.53362   0.81436    0.000
 3868.00    0.46705   0.81025    0.000
 3869.00    0.42412   0.79509    0.000
 3870.00    0.50728   0.76448    0.000
 3871.00    0.66172   0.72824    0.000
 3872.00    0.71607   0.70887    0.000
 3873.00    0.72118   0.72468    0.000
 3874.00    0.58625   0.76758    0.000
 3875.00    0.39178   0.80346    0.000
 3876.00    0.45550   0.80241    0.000
 3877.00    0.61327   0.76747    0.000
 3878.00    0.70644   0.73092    0.000
 3879.00    0.77970   0.71868    0.000
 3880.00    0.73566   0.72320    0.000
 3881.00    0.66152   0.72343   -1.000
 3882.00    0.64863   0.71746   -1.000
 3883.00    0.64855   0.71213   -1.000
 3884.00    0.62263   0.69707   -1.000
 3885.00    0.59244   0.65908   -1.000
 3886.00    0.67427   0.60960   -1.000
 3887.00    0.76997   0.57391   -1.000
 3888.00    0.85119   0.56617   -1.000
 3889.00    0.93117   0.58965   -1.000
 3890.00    0.81094   0.64233   -1.000
 3891.00    0.68073   0.70941   -1.000
 3892.00    0.52970   0.76555   -1.000
 3893.00    0.38076   0.79382   -1.000
 3894.00    0.38929   0.79872   -1.000
 3895.00    0.40654   0.79881   -1.000
 3896.00    0.60197   0.80648   -1.000
 3897.00    0.77703   0.81648   -1.000
 3898.00    0.71116   0.81974   -1.000
 3899.00    0.66099   0.82274   -1.000
 3900.00    0.73874   0.83822   -1.000
 3901.00    0.80688   0.86012   -1.000
 3902.00    0.81632   0.86736   -1.000
 3903.00    0.79036   0.85167   -1.000
 3904.00    0.59401   0.82438   -1.000
 3905.00    0.45458   0.80354   -1.000
 3906.00    0.53806   0.80750   -1.000
 3907.00    0.58015   0.84483   -1.000
 3908.00    0.48730   0.90193   -1.000
 3909.00    0.45110   0.95415   -1.000
 3910.00    0.57109   0.98769   -1.000
 3911.00    0.73325   1.00193   -1.000
 3912.00    0.99498   0.99910   -1.000
 3913.00    1.14948   0.98313   -1.000
 3914.00    1.08515   0.96189   -1.000
 3915.00    1.01068   0.94057   -1.000
 3916.00    0.91820   0.91826   -1.000
 3917.00    0.86733   0.89303   -1.000
 3918.00    0.88111   0.86392   -1.000
 3919.00    0.84099   0.83216   -1.000
 3920.00    0.72729   0.80541   -1.000
 3921.00    0.61920   0.79406   -1.000
 3922.00    0.51783   0.79977   -1.000
 3923.00    0.56657   0.81099   -1.000
 3924.00    0.77428   0.80992   -1.000
 3925.00    0.75647   0.78402   -1.000
 3926.00    0.52796   0.73315   -1.000
 3927.00    0.36387   0.66544   -1.000
 3928.00    0.25282   0.58945   -1.000
 3929.00    0.25830   0.51143   -1.000
 3930.00    0.34826   0.43615   -1.000
 3931.00    0.29206   0.36831   -1.000
 3932.00    0.14284   0.31403   -1.000
 3933.00    0.11336   0.28123   -1.000
 3934.00    0.15053   0.27799   -1.000
 3935.00    0.24512   0.30883   -1.000
 3936.00    0.36753   0.37048   -1.000
 3937.00    0.49176   0.45193   -1.000
 3938.00    0.61676   0.53884   -1.000
 3939.00    0.49132   0.61654   -1.000
 3940.00    0.27630   0.67235   -1.000
 3941.00    0.55788   0.70124   -1.000
 3942.00    0.98956   0.71026   -1.000
 3943.00    0.92073   0.71679   -1.000
 3944.00    0.72620   0.74024   -1.000
 3945.00    0.68472   0.78511   -1.000
 3946.00    0.67445   0.83158   -1.000
 3947.00    0.68941   0.85753   -1.000
 3948.00    0.70841   0.86698   -1.000
 3949.00    0.75022   0.87926   -1.000
 3950.00    0.79476   0.89781   -1.000
 3951.00    0.78491   0.91099   -1.000
 3952.00    0.77063   0.91770   -1.000
 3953.00    0.74249   0.92789   -1.000
 3954.00    0.71372   0.93730   -1.000
 3955.00    0.74064   0.92898   -1.000
 3956.00    0.76490   0.90449   -1.000
 3957.00    0.61305   0.88623   -1.000
 3958.00    0.46280   0.88114   -1.000
 3959.00    0.34299   0.86551   -1.000
 3960.00    0.25274   0.81532    0.000
 3961.00    0.49558   0.73795    0.000
 3962.00    0.70474   0.66231    0.000
 3963.00    0.64913   0.60357    0.000
 3964.00    0.59363   0.55069    0.000
 3965.00    0.53881   0.48728    0.000
 3966.00    0.48971   0.41318    0.000
 3967.00    0.46745   0.34463    0.000
 3968.00    0.45031   0.30139    0.000
 3969.00    0.45277   0.29573    0.000
 3970.00    0.48584   0.32802    0.000
 3971.00    0.61673   0.38827    0.000
 3972.00    0.75166   0.46248    0.000
 3973.00    0.89750   0.54059    0.000
 3974.00    0.93128   0.61844    0.000
 3975.00    0.70485   0.69331    0.000
 3976.00    0.54148   0.76299    0.000
 3977.00    0.50479   0.82902    0.000
 3978.00    0.58177   0.89291    0.000
 3979.00    0.85759   0.94733    0.000
 3980.00    1.04910   0.97854    0.000
 3981.00    1.11156   0.98242   -1.000
 3982.00    1.17347   0.97376   -1.000
 3983.00    1.23466   0.97367   -1.000
 3984.00    1.20975   0.99007   -1.000
 3985.00    1.08289   1.01554   -1.000
 3986.00    0.95563   1.04077   -1.000
 3987.00    0.82798   1.06219   -1.000
 3988.00    0.75606   1.07692   -1.000
 3989.00    0.73546   1.08299   -1.000
 3990.00    0.79417   1.08755   -1.000
 3991.00    0.91727   1.10109   -1.000
 3992.00    0.97249   1.12089   -1.000
 3993.00    0.97921   1.13128   -1.000
 3994.00    0.99599   1.12013   -1.000
 3995.00    1.01906   1.08974   -1.000
 3996.00    1.03793   1.05593   -1.000
 3997.00    1.05450   1.04129   -1.000
 3998.00    1.00558   1.06212   -1.000
 3999.00    0.92546   1.11175   -1.000
 4000.00    1.03801   1.16283   -1.000
 4001.00    1.22976   1.19258   -1.000
 4002.00    1.37020   1.19460   -1.000
 4003.00    1.49262   1.16664   -1.000
 4004.00    1.37286   1.11227   -1.000
 4005.00    1.18133   1.05898   -1.000
 4006.00    0.95915   1.04576   -1.000
 4007.00    0.72944   1.08173   -1.000
 4008.00    0.70185   1.13720   -1.000
 4009.00    0.71444   1.17943   -1.000
 4010.00    0.79333   1.19966   -1.000
 4011.00    0.88252   1.20625   -1.000
 4012.00    1.04247   1.20911   -1.000
 4013.00    1.21056   1.21421   -1.000
 4014.00    1.13026   1.22276   -1.000
 4015.00    1.03075   1.23028   -1.000
 4016.00    0.95312   1.23178   -1.000
 4017.00    0.87641   1.23179   -1.000
 4018.00    1.10581   1.24081   -1.000
 4019.00    1.32816   1.25660   -1.000
 4020.00    1.11916   1.26269   -1.000
 4021.00    0.92849   1.24988   -1.000
 4022.00    1.06080   1.22532   -1.000
 4023.00    1.19191   1.20199   -1.000
 4024.00    1.31019   1.19298   -1.000
 4025.00    1.39276   1.20875   -1.000
 4026.00    1.20419   1.24409   -1.000
 4027.00    1.02143   1.27170   -1.000
 4028.00    0.87222   1.25977   -1.000
 4029.00    0.74144   1.19761   -1.000
 4030.00    0.69509   1.10684   -1.000
 4031.00    0.66545   1.02721   -1.000
 4032.00    0.69849   0.98736   -1.000
 4033.00    0.74605   0.99239   -1.000
 4034.00    0.83912   1.03549   -1.000
 4035.00    0.92259   1.10672   -1.000
 4036.00    0.98049   1.18903   -1.000
 4037.00    1.05055   1.25718   -1.000
 4038.00    1.14839   1.28954   -1.000
 4039.00    1.17752   1.28370   -1.000
 4040.00    1.07085   1.25855   -1.000
 4041.00    1.00000   1.23392   -1.000
 4042.00    0.99088   1.20543   -1.000
 4043.00    0.98706   1.14967   -1.000
 4044.00    0.99127   1.06508   -1.000
 4045.00    1.00806   0.99562   -1.000
 4046.00    1.04155   0.99330   -1.000
 4047.00    1.12964   1.06036   -1.000
 4048.00    1.28150   1.14892   -1.000
 4049.00    1.37869   1.21349   -1.000
 4050.00    1.41961   1.24109   -1.000
 4051.00    1.28651   1.23692   -1.000
 4052.00    0.99540   1.20920   -1.000
 4053.00    0.80945   1.16998   -1.000
 4054.00    0.70769   1.13402   -1.000
 4055.00    0.76203   1.11041   -1.000
 4056.00    0.92631   1.09817   -1.000
 4057.00    0.95441   1.09474   -1.000
 4058.00    0.89839   1.10528   -1.000
 4059.00    0.93295   1.13079   -1.000
 4060.00    1.01639   1.14984   -1.000
 4061.00    0.93062   1.13179   -1.000
 4062.00    0.76554   1.07510   -1.000
 4063.00    0.77217   1.01958   -1.000
 4064.00    0.84819   1.00732   -1.000
 4065.00    0.93592   1.03813   -1.000
 4066.00    1.02769   1.08076   -1.000
 4067.00    1.03779   1.11763   -1.000
 4068.00    1.02417   1.14907   -1.000
 4069.00    1.17201   1.16390   -1.000
 4070.00    1.35862   1.14598   -1.000
 4071.00    1.31832   1.11020   -1.000
 4072.00    1.23405   1.09448   -1.000
 4073.00    1.02363   1.10773   -1.000
 4074.00    0.79420   1.11471   -1.000
 4075.00    0.74813   1.08214   -1.000
 4076.00    0.72234   1.02123   -1.000
 4077.00    0.94123   0.97802   -1.000
 4078.00    1.17804   0.99027   -1.000
 4079.00    1.01597   1.05628   -1.000
 4080.00    0.83863   1.13934   -1.000
 4081.00    0.84231   1.19668   -1.000
 4082.00    0.85232   1.20765   -1.000
 4083.00    1.06298   1.18369   -1.000
 4084.00    1.25887   1.15552   -1.000
 4085.00    1.21126   1.15030   -1.000
 4086.00    1.16845   1.17719   -1.000
 4087.00    1.17510   1.22444   -1.000
 4088.00    1.17100   1.26716   -1.000
 4089.00    1.08795   1.28487   -1.000
 4090.00    1.00616   1.27585   -1.000
 4091.00    0.93147   1.25399   -1.000
 4092.00    0.88888   1.23298    0.000
 4093.00    0.98995   1.21299    0.000
 4094.00    1.07230   1.18217    0.000
 4095.00    1.08590   1.13446    0.000
 4096.00    1.05421   1.08132    0.000
 4097.00    0.88321   1.03680    0.000
 4098.00    0.77991   0.99759    0.000
 4099.00    0.85352   0.94867    0.000
 4100.00    0.96177   0.88822    0.000
 4101.00    1.14782   0.84009    0.000
 4102.00    1.22220   0.83530    0.000
 4103.00    1.07927   0.88170    0.000
 4104.00    1.00726   0.95793    0.000
 4105.00    1.05560   1.03387    0.000
 4106.00    1.15108   1.08822    0.000
 4107.00    1.31663   1.11245    0.000
 4108.00    1.28470   1.11048    0.000
 4109.00    0.99473   1.09588    0.000
 4110.00    0.87943   1.08551    0.000
 4111.00    0.96518   1.09186    0.000
 4112.00    1.07683   1.11734    0.000
 4113.00    1.21477   1.15429   -1.000
 4114.00    1.25435   1.19067   -1.000
 4115.00    1.20586   1.21520   -1.000
 4116.00    1.23040   1.21827   -1.000
 4117.00    1.31254   1.19590   -1.000
 4118.00    1.28227   1.15915   -1.000
 4119.00    1.17400   1.13064   -1.000
 4120.00    1.12490   1.12250   -1.000
 4121.00    1.11180   1.12630   -1.000
 4122.00    1.17987   1.13193   -1.000
 4123.00    1.29105   1.14191   -1.000
 4124.00    1.36799   1.15808   -1.000
 4125.00    1.42913   1.16866   -1.000
 4126.00    1.46346   1.16013   -1.000
 4127.00    1.48714   1.13502   -1.000
 4128.00    1.26628   1.10826   -1.000
 4129.00    0.96266   1.08843   -1.000
 4130.00    1.00556   1.06977   -1.000
 4131.00    1.14705   1.04557   -1.000
 4132.00    1.24774   1.02476   -1.000
 4133.00    1.33886   1.02745   -1.000
 4134.00    1.24093   1.06335   -1.000
 4135.00    1.10731   1.11994   -1.000
 4136.00    1.09270   1.17400   -1.000
 4137.00    1.09547   1.21213   -1.000
 4138.00    1.30513   1.23602   -1.000
 4139.00    1.53677   1.24635   -1.000
 4140.00    1.28091   1.23088   -1.000
 4141.00    0.99133   1.17810   -1.000
 4142.00    1.01533   1.10093   -1.000
 4143.00    1.05014   1.03904   -1.000
 4144.00    1.17599   1.02892   -1.000
 4145.00    1.28979   1.06870   -1.000
 4146.00    0.99993   1.12105   -1.000
 4147.00    0.73566   1.15073   -1.000
 4148.00    0.86709   1.14986   -1.000
 4149.00    0.99198   1.13206   -1.000
 4150.00    1.05246   1.11487   -1.000
 4151.00    1.09959   1.10574   -1.000
 4152.00    1.05189   1.09908   -1.000
 4153.00    1.03737   1.08708   -1.000
 4154.00    1.20395   1.07115   -1.000
 4155.00    1.32458   1.06078   -1.000
 4156.00    1.24434   1.06529   -1.000
 4157.00    1.17449   1.08750   -1.000
 4158.00    1.14209   1.12123   -1.000
 4159.00    1.12967   1.15398   -1.000
 4160.00    1.17758   1.17735   -1.000
 4161.00    1.19864   1.19448   -1.000
 4162.00    1.15076   1.21045   -1.000
 4163.00    1.12039   1.22098   -1.000
 4164.00    1.12871   1.21777   -1.000
 4165.00    1.15348   1.20058   -1.000
 4166.00    1.20973   1.17828   -1.000
 4167.00    1.24632   1.16291   -1.000
 4168.00    1.25005   1.16075   -1.000
 4169.00    1.14914   1.16031   -1.000
 4170.00    0.89493   1.13741   -1.000
 4171.00    0.85679   1.08301   -1.000
 4172.00    1.09692   1.01993   -1.000
 4173.00    1.18843   0.98322   -1.000
 4174.00    1.11128   0.98591   -1.000
 4175.00    1.08505   1.00945   -1.000
 4176.00    1.10980   1.02759   -1.000
 4177.00    1.14693   1.03371   -1.000
 4178.00    1.19499   1.04080   -1.000
 4179.00    1.18625   1.05871   -1.000
 4180.00    1.13335   1.07960   -1.000
 4181.00    1.07484   1.09084   -1.000
 4182.00    1.01250   1.09492   -1.000
 4183.00    1.00034   1.10528   -1.000
 4184.00    1.01826   1.12358   -1.000
 4185.00    0.96551   1.13330   -1.000
 4186.00    0.87580   1.12194   -1.000
 4187.00    0.98131   1.10194   -1.000
 4188.00    1.17538   1.09882   -1.000
 4189.00    1.21053   1.11895   -1.000
 4190.00    1.18367   1.14608   -1.000
 4191.00    1.10976   1.16973   -1.000
 4192.00    1.02022   1.19199   -1.000
 4193.00    1.07631   1.20545   -1.000
 4194.00    1.17300   1.19101   -1.000
 4195.00    1.11059   1.14445   -1.000
 4196.00    1.01168   1.08626   -1.000
 4197.00    1.12331   1.04062   -1.000
 4198.00    1.27364   1.01831   -1.000
 4199.00    1.09768   1.01720   -1.000
 4200.00    0.87559   1.02644   -1.000
 4201.00    0.93016   1.03442   -1.000
 4202.00    1.01295   1.04152   -1.000
 4203.00    0.90952   1.05778   -1.000
 4204.00    0.79397   1.08646   -1.000
 4205.00    0.95743   1.12183   -1.000
 4206.00    1.12914   1.15751   -1.000
 4207.00    1.09264   1.18594   -1.000
 4208.00    1.05706   1.19916   -1.000
 4209.00    1.04855   1.19882   -1.000
 4210.00    1.04070   1.19741   -1.000
 4211.00    1.04246   1.20324   -1.000
 4212.00    1.05029   1.20632   -1.000
 4213.00    1.11545   1.18801   -1.000
 4214.00    1.18096   1.14794   -1.000
 4215.00    1.24891   1.11428   -1.000
 4216.00    1.30039   1.12004   -1.000
 4217.00    1.26432   1.16865   -1.000
 4218.00    1.23879   1.22965   -1.000
 4219.00    1.25828   1.27056   -1.000
 4220.00    1.25519   1.28048   -1.000
 4221.00    1.17248   1.25999   -1.000
 4222.00    1.11976   1.20790   -1.000
 4223.00    1.15584   1.12489   -1.000
 4224.00    1.16715   1.02109   -1.000
 4225.00    1.11591   0.91989   -1.000
 4226.00    1.08029   0.85943   -1.000
 4227.00    1.07860   0.87564   -1.000
 4228.00    1.06350   0.96814   -1.000
 4229.00    1.02309   1.09010   -1.000
 4230.00    0.97178   1.18226   -1.000
 4231.00    0.90252   1.21436   -1.000
 4232.00    0.90792   1.19450   -1.000
 4233.00    1.02111   1.15268   -1.000
 4234.00    1.02784   1.11774   -1.000
 4235.00    0.89942   1.10029   -1.000
 4236.00    0.83546   1.09648   -1.000
 4237.00    0.84361   1.10273   -1.000
 4238.00    0.90351   1.11765   -1.000
 4239.00    1.01448   1.14025   -1.000
 4240.00    1.05479   1.17164   -1.000
 4241.00    1.03358   1.20935   -1.000
 4242.00    1.03307   1.24537   -1.000
 4243.00    1.04841   1.27316   -1.000
 4244.00    0.97194   1.28634   -1.000
 4245.00    0.83361   1.27447   -1.000
 4246.00    0.85778   1.23484   -1.000
 4247.00    0.97790   1.18307   -1.000
 4248.00    1.04460   1.13841   -1.000
 4249.00    1.08381   1.10844   -1.000
 4250.00    0.95372   1.09499   -1.000
 4251.00    0.74810   1.09981   -1.000
 4252.00    0.83203   1.11514   -1.000
 4253.00    1.02697   1.12487   -1.000
 4254.00    1.12481   1.12788   -1.000
 4255.00    1.19101   1.14108   -1.000
 4256.00    1.14338   1.16725   -1.000
 4257.00    1.06468   1.18085   -1.000
 4258.00    1.02441   1.15875   -1.000
 4259.00    0.99276   1.11295   -1.000
 4260.00    1.11374   1.08332   -1.000
 4261.00    1.26203   1.10161   -1.000
 4262.00    1.29046   1.16589   -1.000
 4263.00    1.30250   1.24498   -1.000
 4264.00    1.15977   1.30506   -1.000
 4265.00    1.00192   1.33087   -1.000
 4266.00    1.13318   1.32207   -1.000
 4267.00    1.28212   1.28298   -1.000
 4268.00    1.20175   1.22058   -1.000
 4269.00    1.11550   1.14336   -1.000
 4270.00    1.08912   1.06134   -1.000
 4271.00    1.06188   0.99269   -1.000
 4272.00    1.01190   0.95916   -1.000
 4273.00    0.96466   0.96738   -1.000
 4274.00    0.95521   1.00566   -1.000
 4275.00    0.95695   1.06300   -1.000
 4276.00    1.06041   1.13351   -1.000
 4277.00    1.15553   1.19946   -1.000
 4278.00    1.19505   1.23513   -1.000
 4279.00    1.22428   1.23203    0.557
 4280.00    1.20020   1.20630    0.078
 4281.00    1.19356   1.18184    0.046
 4282.00    1.25979   1.17055   -2.000
 4283.00    1.32209   1.16753   -2.000
 4284.00    1.37084   1.16291   -2.000
 4285.00    1.44237   1.15091   -2.000
 4286.00    1.58012   1.12893   -2.000
 4287.00    1.63475   1.09403   -2.000
 4288.00    1.48320   1.04512   -2.000
 4289.00    1.31930   0.99697   -2.000
 4290.00    1.12903   0.97983   -2.000
 4291.00    1.04456   1.00979   -2.000
 4292.00    1.15652   1.06529   -2.000
 4293.00    1.28491   1.10691   -2.000
 4294.00    1.43993   1.11641   -2.000
 4295.00    1.47120   1.10255   -2.000
 4296.00    1.32643   1.07498   -2.000
 4297.00    1.23169   1.02903   -2.000
 4298.00    1.19957   0.96309    0.046
 4299.00    1.12716   0.89496    0.046
 4300.00    1.01032   0.85049    0.045
 4301.00    0.97632   0.84172    0.044
 4302.00    1.02294   0.85837    0.044
 4303.00    1.05879   0.88231    0.044
 4304.00    1.08542   0.90044    0.045
 4305.00    1.02694   0.90193    0.045
 4306.00    0.90413   0.88231    0.044
 4307.00    0.94384   0.85359    0.044
 4308.00    1.09145   0.83875    0.044
 4309.00    1.07178   0.85645    0.044
 4310.00    0.95482   0.90657    0.044
 4311.00    0.93233   0.96839    0.044
 4312.00    0.95772   1.02068    0.044
 4313.00    1.03372   1.06278    0.043
 4314.00    1.13194   1.11346    0.043
 4315.00    1.21288   1.18749    0.043
 4316.00    1.28730   1.27390    0.044
 4317.00    1.34045   1.34060    0.044
 4318.00    1.38681   1.36390    0.045
 4319.00    1.17200   1.34864    0.045
 4320.00    0.88740   1.31356    0.044
 4321.00    1.02494   1.26923    0.044
 4322.00    1.25486   1.21205    0.044
 4323.00    1.27260   1.13457    0.045
 4324.00    1.25343   1.04731    0.045
 4325.00    1.06664   0.98982    0.044
 4326.00    0.85768   1.00219    0.044
 4327.00    0.95252   1.08308    0.044
 4328.00    1.07575   1.18406    0.045
 4329.00    1.14209   1.25170    0.045
 4330.00    1.20517   1.27314    0.000
 4331.00    1.23059   1.27327    0.000
 4332.00    1.25671   1.27768    0.000
 4333.00    1.46484   1.28831    0.000
 4334.00    1.65385   1.28831    0.000
 4335.00    1.38386   1.25653    0.000
 4336.00    1.14962   1.17963    0.000
 4337.00    1.38079   1.06719    0.000
 4338.00    1.57294   0.95328    0.000
 4339.00    1.42409   0.87504    0.000
 4340.00    1.28494   0.85197    0.000
 4341.00    1.20842   0.88447    0.000
 4342.00    1.14603   0.95517    0.000
 4343.00    1.15494   1.03426    0.000
 4344.00    1.18605   1.10142    0.000
 4345.00    1.30776   1.15676    0.000
 4346.00    1.40611   1.20542    0.000
 4347.00    1.42542   1.24583    0.000
 4348.00    1.33528   1.27013    0.000
 4349.00    0.93283   1.26264    0.000
 4350.00    0.73943   1.21326    0.000
 4351.00    1.05569   1.14394    0.045
 4352.00    1.30353   1.10198    0.045
 4353.00    1.40750   1.11595    0.045
 4354.00    1.42956   1.17036    0.055
 4355.00    1.30189   1.22970    0.144
 4356.00    1.14387   1.27012   -1.000
 4357.00    0.93736   1.28316   -1.000
 4358.00    0.97561   1.27397   -1.000
 4359.00    1.35703   1.26451   -1.000
 4360.00    1.63030   1.27769   -1.000
 4361.00    1.77013   1.31380   -1.000
 4362.00    1.74029   1.35445    0.178
 4363.00    1.52593   1.38585    0.057
 4364.00    1.42235   1.40327    0.043
 4365.00    1.42506   1.39921    0.043
 4366.00    1.45405   1.36674    0.042
 4367.00    1.50527   1.31651    0.042
 4368.00    1.45363   1.27467    0.042
 4369.00    1.32537   1.25873    0.043
 4370.00    1.27334   1.26253    0.043
 4371.00    1.27118   1.26526    0.042
 4372.00    1.25987   1.24818    0.042
 4373.00    1.24332   1.20736    0.043
 4374.00    1.24740   1.16284    0.043
 4375.00    1.26177   1.14930    0.042
 4376.00    1.29334   1.18398    0.042
 4377.00    1.33233   1.24588    0.042
 4378.00    1.29007   1.29392    0.042
 4379.00    1.21774   1.30068    0.042
 4380.00    1.20479   1.26160    0.041
 4381.00    1.21046   1.18172    0.041
 4382.00    1.25311   1.07380    0.041
 4383.00    1.30542   0.97147    0.040
 4384.00    1.20520   0.92348    0.040
 4385.00    1.07240   0.95324    0.041
 4386.00    1.09605   1.03206    0.040
 4387.00    1.14615   1.10671    0.040
 4388.00    1.18909   1.14733    0.039
 4389.00    1.23112   1.16036    0.039
 4390.00    1.23085   1.16613    0.040
 4391.00    1.22681   1.17658    0.040
 4392.00    1.16332   1.18944    0.040
 4393.00    1.09666   1.19591    0.039
 4394.00    1.17332   1.19776    0.039
 4395.00    1.25406   1.21119    0.039
 4396.00    1.43945   1.24384    0.040
 4397.00    1.60851   1.27552    0.040
 4398.00    1.41855   1.27681    0.040
 4399.00    1.22598   1.24589    0.040
 4400.00    1.00117   1.21070    0.039
 4401.00    0.82483   1.19333    0.039
 4402.00    1.05629   1.18494    0.040
 4403.00    1.26394   1.16097    0.041
 4404.00    1.32237   1.11995    0.040
 4405.00    1.35476   1.09074    0.040
 4406.00    1.25905   1.09368    0.040
 4407.00    1.21176   1.11882    0.040
 4408.00    1.35774   1.15303    0.040
 4409.00    1.49076   1.19965    0.040
 4410.00    1.58078   1.25814    0.040
 4411.00    1.64269   1.30727    0.041
 4412.00    1.62586   1.32088    0.041
 4413.00    1.59067   1.28894    0.040
 4414.00    1.51148   1.22595    0.040
 4415.00    1.42216   1.16837    0.040
 4416.00    1.31188   1.15285    0.040
 4417.00    1.22510   1.18642    0.040
 4418.00    1.18064   1.24479    0.040
 4419.00    1.19509   1.29565    0.039
 4420.00    1.30227   1.31495    0.040
 4421.00    1.43055   1.29825    0.040
 4422.00    1.58799   1.26616    0.040
 4423.00    1.64358   1.24663    0.040
 4424.00    1.57527   1.24913    0.040
 4425.00    1.41572   1.26170    0.040
 4426.00    1.15833   1.27111    0.040
 4427.00    1.11073   1.27460    0.040
 4428.00    1.26155   1.27247    0.040
 4429.00    1.29390   1.26392    0.040
 4430.00    1.22744   1.25170    0.040
 4431.00    1.29688   1.24134    0.040
 4432.00    1.46609   1.22982    0.040
 4433.00    1.42734   1.20664    0.039
 4434.00    1.25451   1.17722    0.039
 4435.00    1.20706   1.16885    0.039
 4436.00    1.23031   1.20310    0.039
 4437.00    1.27938   1.26994    0.040
 4438.00    1.34113   1.33219    0.040
 4439.00    1.35350   1.35382    0.040
 4440.00    1.34493   1.32390    0.040
 4441.00    1.26365   1.26116    0.040
 4442.00    1.15596   1.20375    0.041
 4443.00    1.38754   1.18644    0.041
 4444.00    1.72346   1.21774    0.041
 4445.00    1.74374   1.27553    0.041
 4446.00    1.68321   1.32598    0.040
 4447.00    1.62243   1.34989    0.041
 4448.00    1.56160   1.35129    0.041
 4449.00    1.40608   1.34153    0.040
 4450.00    1.23500   1.32639    0.040
 4451.00    1.34536   1.30811    0.040
 4452.00    1.49041   1.28270    0.041
 4453.00    1.35723   1.24140    0.040
 4454.00    1.20038   1.18798    0.039
 4455.00    1.03446   1.14324    0.039
 4456.00    0.86809   1.12412    0.039
 4457.00    1.10701   1.12563    0.039
 4458.00    1.34923   1.12904    0.038
 4459.00    1.39418   1.12445    0.039
 4460.00    1.43101   1.11777    0.040
 4461.00    1.30345   1.12128    0.000
 4462.00    1.18900   1.14419    0.000
 4463.00    1.22870   1.18424    0.000
 4464.00    1.24769   1.22340    0.000
 4465.00    1.09871   1.24346    0.000
 4466.00    0.98718   1.24322    0.000
 4467.00    1.10352   1.23156    0.000
 4468.00    1.21726   1.21749    0.000
 4469.00    1.31847   1.21209    0.000
 4470.00    1.39746   1.22705    0.000
 4471.00    1.38968   1.26474    0.000
 4472.00    1.39372   1.31362    0.000
 4473.00    1.43618   1.35779    0.000
 4474.00    1.40179   1.38841    0.000
 4475.00    1.15596   1.40686    0.000
 4476.00    1.05270   1.41816    0.000
 4477.00    1.28539   1.41858    0.000
 4478.00    1.43146   1.39346    0.000
 4479.00    1.40113   1.33634    0.000
 4480.00    1.39155   1.26709    0.000
 4481.00    1.41877   1.22198    0.000
 4482.00    1.38510   1.22601    0.038
 4483.00    1.25700   1.27525    0.038
 4484.00    1.24332   1.34110    0.038
 4485.00    1.38549   1.38979    0.038
 4486.00    1.51557   1.40071    0.038
 4487.00    1.63113   1.37219    0.039
 4488.00    1.58985   1.32108    0.039
 4489.00    1.38273   1.27670    0.038
 4490.00    1.29079   1.26220    0.038
 4491.00    1.30625   1.27538    0.038
 4492.00    1.25817   1.29139    0.038
 4493.00    1.15786   1.28783    0.038
 4494.00    1.14043   1.26686    0.038
 4495.00    1.18299   1.25231    0.038
 4496.00    1.18804   1.26432    0.038
 4497.00    1.16928   1.29986    0.038
 4498.00    1.22290   1.33868    0.038
 4499.00    1.31674   1.36183    0.038
 4500.00    1.43219   1.36781    0.038
 4501.00    1.55808   1.37488    0.038
 4502.00    1.51535   1.40272    0.038
 4503.00    1.40228   1.44915    0.038
 4504.00    1.42018   1.48843    0.038
 4505.00    1.48481   1.49852    0.038
 4506.00    1.62878   1.48191    0.038
 4507.00    1.79668   1.45741    0.039
 4508.00    1.61327   1.44286    0.038
 4509.00    1.34186   1.44326    0.037
 4510.00    1.33135   1.44834    0.036
 4511.00    1.37386   1.44228    0.036
 4512.00    1.32796   1.41853    0.036
 4513.00    1.26795   1.38592    0.037
 4514.00    1.30909   1.35906    0.037
 4515.00    1.36224   1.34542    0.036
 4516.00    1.27245   1.34290    0.037
 4517.00    1.17109   1.34613    0.038
 4518.00    1.33783   1.35392    0.037
 4519.00    1.51677   1.36789    0.037
 4520.00    1.29810   1.38165    0.036
 4521.00    1.08243   1.38227    0.036
 4522.00    1.26905   1.36379    0.036
 4523.00    1.43932   1.33179    0.037
 4524.00    1.30250   1.29523    0.037
 4525.00    1.17297   1.25539    0.036
 4526.00    1.12519   1.21128    0.036
 4527.00    1.10140   1.17050    0.036
 4528.00    1.26537   1.14487    0.036
 4529.00    1.37408   1.14188    0.036
 4530.00    1.15606   1.15925    0.036
 4531.00    0.96896   1.18296    0.036
 4532.00    0.92662   1.19583    0.035
 4533.00    0.92864   1.19228    0.035
 4534.00    1.10022   1.18702    0.035
 4535.00    1.20148   1.20593    0.036
 4536.00    1.07856   1.25766    0.036
 4537.00    1.04363   1.31954    0.036
 4538.00    1.24646   1.35669    0.036
 4539.00    1.37677   1.35538    0.036
 4540.00    1.33900   1.33385    0.036
 4541.00    1.30820   1.31810    0.036
 4542.00    1.29134   1.31660    0.035
 4543.00    1.25085   1.31941    0.035
 4544.00    1.16913   1.31486    0.035
 4545.00    1.15192   1.30393    0.036
 4546.00    1.23329   1.29346    0.036
 4547.00    1.24003   1.28194    0.036
 4548.00    1.14658   1.26539    0.035
 4549.00    1.11371   1.25000    0.035
 4550.00    1.15244   1.24640    0.000
 4551.00    1.19578   1.25318    0.000
 4552.00    1.24392   1.25494    0.000
 4553.00    1.31957   1.24418    0.000
 4554.00    1.42052   1.23377    0.000
 4555.00    1.43119   1.24228    0.000
 4556.00    1.36868   1.27618    0.000
 4557.00    1.36310   1.32402    0.000
 4558.00    1.39812   1.36598    0.000
 4559.00    1.44161   1.39078    0.000
 4560.00    1.49040   1.39885    0.000
 4561.00    1.41387   1.39126    0.000
 4562.00    1.26878   1.36635    0.000
 4563.00    1.26582   1.32854    0.000
 4564.00    1.33041   1.29582    0.000
 4565.00    1.36035   1.29043    0.000
 4566.00    1.37608   1.31761    0.000
 4567.00    1.39154   1.35954    0.000
 4568.00    1.40691   1.38910    0.000
 4569.00    1.33194   1.38964    0.000
 4570.00    1.23027   1.36728    0.000
 4571.00    1.15357   1.34373    0.000
 4572.00    1.08298   1.33910    0.000
 4573.00    1.16510   1.35649    0.000
 4574.00    1.27749   1.37840    0.000
 4575.00    1.39927   1.38720    0.000
 4576.00    1.52252   1.38078    0.000
 4577.00    1.59795   1.36167    0.000
 4578.00    1.66791   1.32989    0.000
 4579.00    1.41697   1.29070    0.000
 4580.00    1.14138   1.25721    0.000
 4581.00    1.08983   1.24039    0.000
 4582.00    1.04760   1.23933    0.000
 4583.00    1.13676   1.24487    0.000
 4584.00    1.22345   1.25200    0.000
 4585.00    1.15478   1.26428    0.000
 4586.00    1.10296   1.28576    0.000
 4587.00    1.34558   1.31459    0.000
 4588.00    1.55855   1.34134    0.000
 4589.00    1.45449   1.35265    0.000
 4590.00    1.35546   1.34237    0.000
 4591.00    1.29446   1.31753    0.000
 4592.00    1.25572   1.29228    0.000
 4593.00    1.34488   1.27665    0.000
 4594.00    1.39078   1.27109    0.000
 4595.00    1.23895   1.27123    0.000
 4596.00    1.10464   1.27548    0.000
 4597.00    1.03585   1.28318    0.000
 4598.00    1.01977   1.28968    0.000
 4599.00    1.16853   1.29098    0.000
 4600.00    1.28538   1.28787    0.000
 4601.00    1.31748   1.28576    0.000
 4602.00    1.33848   1.28883    0.000
 4603.00    1.33414   1.29371    0.000
 4604.00    1.34184   1.29789    0.000
 4605.00    1.37327   1.30752    0.000
 4606.00    1.40008   1.33146    0.000
 4607.00    1.41894   1.36994    0.000
 4608.00    1.38870   1.40949    0.000
 4609.00    1.28453   1.43206    0.000
 4610.00    1.25735   1.42920    0.000
 4611.00    1.33203   1.40830    0.000
 4612.00    1.45515   1.38626    0.000
 4613.00    1.63472   1.37518    0.000
 4614.00    1.65497   1.37621    0.000
 4615.00    1.51148   1.38332    0.000
 4616.00    1.43956   1.38736    0.000
 4617.00    1.43250   1.38422    0.000
 4618.00    1.42842   1.37767    0.000
 4619.00    1.42671   1.37404    0.000
 4620.00    1.41018   1.37926    0.000
 4621.00    1.38324   1.39269    0.000
 4622.00    1.36991   1.40439    0.000
 4623.00    1.36496   1.40661    0.000
 4624.00    1.36603   1.40049    0.000
 4625.00    1.37032   1.39053    0.000
 4626.00    1.34801   1.38088    0.000
 4627.00    1.31326   1.37374    0.000
 4628.00    1.32953   1.36908    0.000
 4629.00    1.36638   1.36833    0.000
 4630.00    1.40914   1.37325    0.000
 4631.00    1.45393   1.37866    0.000
 4632.00    1.36230   1.37373    0.000
 4633.00    1.23116   1.35607    0.000
 4634.00    1.19886   1.33566    0.000
 4635.00    1.19022   1.32019    0.000
 4636.00    1.16194   1.30769    0.000
 4637.00    1.12988   1.29453    0.000
 4638.00    1.24688   1.28340    0.000
 4639.00    1.38626   1.28158    0.000
 4640.00    1.42788   1.29159    0.000
 4641.00    1.45875   1.30749    0.000
 4642.00    1.44941   1.31710    0.000
 4643.00    1.43715   1.30831    0.000
 4644.00    1.39006   1.27874    0.000
 4645.00    1.34164   1.23756    0.000
 4646.00    1.23118   1.19981    0.000
 4647.00    1.12207   1.18201    0.000
 4648.00    1.07481   1.19347    0.000
 4649.00    1.03757   1.22825    0.000
 4650.00    1.16385   1.27059    0.000
 4651.00    1.28312   1.30446    0.000
 4652.00    1.33069   1.31897    0.000
 4653.00    1.36763   1.31201    0.000
 4654.00    1.32694   1.29051    0.000
 4655.00    1.29168   1.27112    0.000
 4656.00    1.28683   1.27326    0.000
 4657.00    1.26523   1.30367    0.000
 4658.00    1.16895   1.35070    0.000
 4659.00    1.12174   1.39048    0.000
 4660.00    1.25430   1.40182    0.000
 4661.00    1.35556   1.38100    0.000
 4662.00    1.36080   1.34139    0.000
 4663.00    1.35557   1.29846    0.000
 4664.00    1.32300   1.25623    0.000
 4665.00    1.29023   1.20944    0.000
 4666.00    1.25704   1.15877    0.000
 4667.00    1.21170   1.12118    0.000
 4668.00    1.14277   1.11846    0.000
 4669.00    1.11135   1.15412    0.000
 4670.00    1.14344   1.20778    0.000
 4671.00    1.13698   1.25412    0.000
 4672.00    1.07334   1.28108    0.000
 4673.00    1.03976   1.29323    0.000
 4674.00    1.04539   1.30310    0.000
 4675.00    1.08593   1.31593    0.000
 4676.00    1.16659   1.32445    0.000
 4677.00    1.19069   1.31796    0.000
 4678.00    1.15749   1.29473    0.000
 4679.00    1.14813   1.26573    0.000
 4680.00    1.16009   1.24552    0.000
 4681.00    1.22217   1.24217    0.000
 4682.00    1.32372   1.25489    0.000
 4683.00    1.30035   1.27620    0.000
 4684.00    1.19046   1.29534    0.000
 4685.00    1.14044   1.30434    0.000
 4686.00    1.12680   1.30322    0.000
 4687.00    1.17637   1.29668    0.000
 4688.00    1.25946   1.28874    0.000
 4689.00    1.30654   1.28160    0.000
 4690.00    1.33706   1.27596    0.000
 4691.00    1.29806   1.27318    0.000
 4692.00    1.23152   1.27713    0.000
 4693.00    1.20866   1.28991    0.000
 4694.00    1.20054   1.30709    0.000
 4695.00    1.24514   1.31902    0.000
 4696.00    1.30469   1.31544    0.000
 4697.00    1.31713   1.29327    0.000
 4698.00    1.31852   1.26128    0.000
 4699.00    1.30141   1.23337    0.000
 4700.00    1.28082   1.21629    0.000
 4701.00    1.24160   1.20638    0.000
 4702.00    1.19966   1.20093    0.000
 4703.00    1.12400   1.20302    0.000
 4704.00    1.04476   1.21336    0.000
 4705.00    1.12900   1.22349    0.000
 4706.00    1.22445   1.22296    0.000
 4707.00    1.17383   1.21254    0.000
 4708.00    1.11824   1.20556    0.000
 4709.00    1.16950   1.21421    0.000
 4710.00    1.21767   1.23719    0.000
 4711.00    1.16023   1.26083    0.000
 4712.00    1.10897   1.26994    0.000
 4713.00    1.15256   1.26337    0.000
 4714.00    1.18817   1.25619    0.000
 4715.00    1.14551   1.26442    0.000
 4716.00    1.11414   1.29126    0.000
 4717.00    1.16266   1.32590    0.000
 4718.00    1.21714   1.35548    0.000
 4719.00    1.30398   1.37456    0.000
 4720.00    1.36478   1.38234    0.000
 4721.00    1.31211   1.38111    0.000
 4722.00    1.27626   1.37725    0.000
 4723.00    1.30078   1.37635    0.000
 4724.00    1.32697   1.37524    0.000
 4725.00    1.35815   1.36126    0.000
 4726.00    1.38281   1.32538    0.000
 4727.00    1.39077   1.27433    0.000
 4728.00    1.40145   1.22721    0.000
 4729.00    1.41814   1.20109    0.000
 4730.00    1.39051   1.19980    0.000
 4731.00    1.27812   1.21618    0.000
 4732.00    1.22981   1.24080    0.000
 4733.00    1.28837   1.26453    0.000
 4734.00    1.30670   1.27879    0.000
 4735.00    1.26622   1.28247    0.000
 4736.00    1.28338   1.28260    0.000
 4737.00    1.37463   1.28765    0.000
 4738.00    1.35577   1.30022    0.000
 4739.00    1.21216   1.31249    0.000
 4740.00    1.15491   1.31715    0.000
 4741.00    1.18392   1.31789    0.000
 4742.00    1.18884   1.32117    0.000
 4743.00    1.17253   1.32714    0.000
 4744.00    1.20016   1.33319    0.000
 4745.00    1.26192   1.33882    0.000
 4746.00    1.30522   1.34550    0.000
 4747.00    1.33593   1.35236    0.000
 4748.00    1.32896   1.35608    0.000
 4749.00    1.29945   1.35514    0.000
 4750.00    1.33720   1.34874    0.000
 4751.00    1.41005   1.33528    0.000
 4752.00    1.42175   1.31532    0.000
 4753.00    1.40577   1.29416    0.000
 4754.00    1.36055   1.27787    0.000
 4755.00    1.30394   1.27039    0.000
 4756.00    1.30879   1.27294    0.000
 4757.00    1.33400   1.28365    0.000
 4758.00    1.29533   1.29716    0.000
 4759.00    1.23891   1.30421    0.000
 4760.00    1.17676   1.29619    0.000
 4761.00    1.11330   1.27162    0.030
 4762.00    1.11411   1.23771    0.030
 4763.00    1.12668   1.20593    0.030
 4764.00    1.16497   1.18434    0.030
 4765.00    1.20687   1.17671    0.030
 4766.00    1.23988   1.18592    0.030
 4767.00    1.27200   1.21205    0.030
 4768.00    1.23556   1.24680    0.030
 4769.00    1.19470   1.27588    0.030
 4770.00    1.18418   1.29023    0.030
 4771.00    1.17450   1.29253    0.030
 4772.00    1.12544   1.29515    0.030
 4773.00    1.07900   1.30756    0.029
 4774.00    1.10835   1.32709    0.030
 4775.00    1.13879   1.34480    0.030
 4776.00    1.18483   1.35480    0.029
 4777.00    1.22353   1.35714    0.029
 4778.00    1.19325   1.35325    0.029
 4779.00    1.15863   1.34327    0.029
 4780.00    1.09434   1.32848    0.028
 4781.00    1.06642   1.31084    0.028
 4782.00    1.23109   1.29256    0.029
 4783.00    1.35355   1.27639    0.029
 4784.00    1.29618   1.26460    0.029
 4785.00    1.23188   1.25726    0.029
 4786.00    1.14319   1.25175    0.029
 4787.00    1.06465   1.24820    0.029
 4788.00    1.01611   1.24930    0.029
 4789.00    1.02983   1.25481    0.029
 4790.00    1.20033   1.26593    0.029
 4791.00    1.34650   1.28638    0.029
 4792.00    1.43989   1.31606    0.030
 4793.00    1.47196   1.34936    0.030
 4794.00    1.38864   1.37594    0.030
 4795.00    1.32774   1.38478    0.030
 4796.00    1.30369   1.37144    0.030
 4797.00    1.25612   1.34224    0.030
 4798.00    1.17464   1.31103    0.030
 4799.00    1.14706   1.29243    0.030
 4800.00    1.18779   1.29442    0.030
 4801.00    1.26071   1.31225    0.030
 4802.00    1.36959   1.33057    0.030
 4803.00    1.40936   1.33474    0.030
 4804.00    1.38104   1.32203    0.030
 4805.00    1.32686   1.30061    0.030
 4806.00    1.25023   1.28181    0.030
 4807.00    1.21414   1.27203    0.030
 4808.00    1.20909   1.27172    0.030
 4809.00    1.25866   1.27907    0.030
 4810.00    1.34498   1.28974    0.030
 4811.00    1.33958   1.29882    0.030
 4812.00    1.28014   1.30532    0.030
 4813.00    1.24825   1.31169    0.030
 4814.00    1.23051   1.32081    0.030
 4815.00    1.24250   1.33334    0.030
 4816.00    1.26772   1.34786    0.031
 4817.00    1.16323   1.36207    0.030
 4818.00    1.00913   1.37241    0.029
 4819.00    1.11922   1.37473    0.030
 4820.00    1.31520   1.36397    0.030
 4821.00    1.26033   1.33681    0.030
 4822.00    1.13715   1.29950    0.030
 4823.00    1.20497   1.26705    0.030
 4824.00    1.31547   1.25434    0.030
 4825.00    1.25208   1.26403    0.030
 4826.00    1.15769   1.28212    0.030
 4827.00    1.11788   1.29304    0.029
 4828.00    1.08551   1.29275    0.029
 4829.00    1.12626   1.28492    0.029
 4830.00    1.17413   1.27452    0.029
 4831.00    1.19989   1.26566    0.029
 4832.00    1.22432   1.26261    0.029
 4833.00    1.30793   1.26861    0.029
 4834.00    1.39250   1.28033    0.029
 4835.00    1.36528   1.28977    0.029
 4836.00    1.33583   1.29080    0.029
 4837.00    1.24798   1.28224    0.029
 4838.00    1.16764   1.26672    0.029
 4839.00    1.18980   1.24988    0.029
 4840.00    1.20825   1.23831    0.029
 4841.00    1.19311   1.23491    0.029
 4842.00    1.18468   1.23862    0.029
 4843.00    1.22080   1.24752    0.029
 4844.00    1.24588   1.26011    0.029
 4845.00    1.21400   1.27067    0.029
 4846.00    1.19480   1.26970    0.029
 4847.00    1.22837   1.25563    0.029
 4848.00    1.25601   1.23889    0.000
 4849.00    1.26327   1.23120    0.000
 4850.00    1.24958   1.23452    0.000
 4851.00    1.17514   1.23802    0.000
 4852.00    1.10431   1.22773    0.000
 4853.00    1.04240   1.19899    0.000
 4854.00    1.02576   1.15957    0.000
 4855.00    1.10571   1.12368    0.000
 4856.00    1.14545   1.10008    0.000
 4857.00    1.11065   1.08103    0.000
 4858.00    1.05104   1.04738    0.000
 4859.00    0.95125   0.99188    0.000
 4860.00    0.91286   0.93278    0.000
 4861.00    0.96167   0.89945    0.000
 4862.00    0.99711   0.90877    0.000
 4863.00    1.01582   0.95397    0.000
 4864.00    1.00679   1.01231    0.000
 4865.00    0.96721   1.06578    0.000
 4866.00    0.99940   1.10724    0.000
 4867.00    1.10129   1.13360    0.000
 4868.00    1.09075   1.14101    0.000
 4869.00    0.98392   1.12743    0.000
 4870.00    1.00356   1.09969    0.000
 4871.00    1.11860   1.07439    0.000
 4872.00    1.14664   1.06909    0.000
 4873.00    1.11700   1.08780    0.000
 4874.00    1.12012   1.11836    0.000
 4875.00    1.14224   1.14790    0.027
 4876.00    1.12537   1.17360    0.027
 4877.00    1.08877   1.19933    0.027
 4878.00    1.08642   1.22423    0.027
 4879.00    1.09907   1.24142    0.028
 4880.00    1.09034   1.24431    0.028
 4881.00    1.07358   1.23266    0.028
 4882.00    1.13421   1.21366    0.027
 4883.00    1.21952   1.19347    0.027
 4884.00    1.21435   1.17265    0.028
 4885.00    1.18505   1.15339    0.028
 4886.00    1.13763   1.14094    0.028
 4887.00    1.08625   1.13603    0.028
 4888.00    1.11272   1.13109    0.028
 4889.00    1.15268   1.11942    0.028
 4890.00    1.11418   1.10874    0.027
 4891.00    1.06536   1.11675    0.027
 4892.00    1.11537   1.15601    0.027
 4893.00    1.17456   1.21924    0.028
 4894.00    1.18501   1.28309    0.027
 4895.00    1.19269   1.32838    0.027
 4896.00    1.17625   1.34814    0.027
 4897.00    1.15968   1.34438    0.027
 4898.00    1.18966   1.32476    0.027
 4899.00    1.21843   1.29947    0.027
 4900.00    1.21845   1.27740    0.027
 4901.00    1.21784   1.26344    0.027
 4902.00    1.20907   1.25739    0.027
 4903.00    1.19581   1.25905    0.027
 4904.00    1.14360   1.27030    0.027
 4905.00    1.09614   1.28717    0.027
 4906.00    1.07933   1.29674    0.027
 4907.00    1.07148   1.28644    0.027
 4908.00    1.10867   1.25583    0.027
 4909.00    1.14710   1.21875    0.027
 4910.00    1.19058   1.19338    0.027
 4911.00    1.21874   1.19116    0.027
 4912.00    1.19522   1.21099    0.027
 4913.00    1.17348   1.24147    0.027
 4914.00    1.15681   1.26783    0.027
 4915.00    1.13621   1.27633    0.027
 4916.00    1.10603   1.25571    0.027
 4917.00    1.08975   1.20372    0.027
 4918.00    1.10268   1.13392    0.027
 4919.00    1.10673   1.07268    0.027
 4920.00    1.09460   1.04378    0.027
 4921.00    1.07625   1.05193    0.027
 4922.00    1.04797   1.08247    0.027
 4923.00    1.04131   1.11700    0.027
 4924.00    1.06490   1.14903    0.027
 4925.00    1.11577   1.18325    0.027
 4926.00    1.20023   1.22295    0.027
 4927.00    1.23013   1.26310    0.027
 4928.00    1.20081   1.29529    0.027
 4929.00    1.20039   1.31437    0.027
 4930.00    1.22765   1.31614    0.027
 4931.00    1.19855   1.29847    0.027
 4932.00    1.12186   1.26689    0.027
 4933.00    1.09450   1.23384    0.027
 4934.00    1.10381   1.21072    0.027
 4935.00    1.07843   1.19756    0.027
 4936.00    1.03038   1.18247    0.026
 4937.00    1.10740   1.15954    0.027
 4938.00    1.25592   1.14133    0.027
 4939.00    1.26749   1.14629    0.027
 4940.00    1.21088   1.17934    0.000
 4941.00    1.16300   1.22702    0.000
 4942.00    1.11888   1.26892    0.000
 4943.00    1.20184   1.29306    0.000
 4944.00    1.33172   1.29949    0.000
 4945.00    1.34759   1.29610    0.000
 4946.00    1.32781   1.29316    0.000
 4947.00    1.28483   1.29736    0.000
 4948.00    1.23580   1.30735    0.000
 4949.00    1.20499   1.31743    0.000
 4950.00    1.17806   1.32267    0.000
 4951.00    1.19189   1.32056    0.000
 4952.00    1.21260   1.31031    0.000
 4953.00    1.19030   1.29163    0.000
 4954.00    1.16252   1.26259    0.000
 4955.00    1.12721   1.22010    0.000
 4956.00    1.09122   1.17108    0.000
 4957.00    1.12169   1.13661    0.000
 4958.00    1.15566   1.13821    0.000
 4959.00    1.05918   1.17652    0.000
 4960.00    0.96237   1.22714    0.000
 4961.00    1.03416   1.26439    0.000
 4962.00    1.10491   1.27844    0.000
 4963.00    1.15323   1.27182    0.000
 4964.00    1.19353   1.25111    0.000
 4965.00    1.13552   1.22464    0.000
 4966.00    1.07348   1.20251    0.000
 4967.00    0.97772   1.19202    0.000
 4968.00    0.90693   1.19325    0.000
 4969.00    0.99209   1.20312    0.000
 4970.00    1.05999   1.21911    0.000
 4971.00    1.04326   1.23892    0.000
 4972.00    1.05092   1.25964    0.000
 4973.00    1.15561   1.27627    0.000
 4974.00    1.22995   1.28419    0.000
 4975.00    1.20387   1.28060    0.000
 4976.00    1.16293   1.26487    0.000
 4977.00    1.08044   1.23995    0.000
 4978.00    1.00620   1.20989    0.000
 4979.00    0.95169   1.17668    0.000
 4980.00    0.95271   1.13908    0.000
 4981.00    1.06847   1.09729    0.000
 4982.00    1.12736   1.05971    0.000
 4983.00    1.08411   1.04081    0.000
 4984.00    1.05540   1.05018    0.000
 4985.00    1.04955   1.08444    0.000
 4986.00    1.04915   1.12972    0.000
 4987.00    1.05629   1.17012    0.000
 4988.00    1.07997   1.19407    0.000
 4989.00    1.12374   1.19955    0.000
 4990.00    1.13050   1.19449    0.000
 4991.00    1.09764   1.18826    0.000
 4992.00    1.08555   1.18622    0.000
 4993.00    1.09308   1.18906    0.000
 4994.00    1.15611   1.19516    0.000
 4995.00    1.26533   1.20248    0.000
 4996.00    1.27521   1.20565    0.000
 4997.00    1.21229   1.19786    0.000
 4998.00    1.13784   1.17736    0.000
 4999.00    1.05596   1.14916    0.000
 5000.00    1.00372   1.12281    0.000
 5001.00    0.96816   1.10565    0.000
 5002.00    1.00609   1.09661    0.000
 5003.00    1.08002   1.08806    0.000
 5004.00    1.08121   1.07459    0.000
 5005.00    1.05160   1.06114    0.000
 5006.00    1.08128   1.06071    0.000
 5007.00    1.13247   1.08033    0.000
 5008.00    1.10142   1.11076    0.000
 5009.00    1.04515   1.13204    0.000
 5010.00    1.03174   1.12945    0.000
 5011.00    1.02926   1.10383    0.000
 5012.00    1.02614   1.06817    0.000
 5013.00    1.02289   1.03950    0.000
 5014.00    0.95077   1.02836    0.000
 5015.00    0.86737   1.03264    0.000
 5016.00    0.91311   1.04210    0.000
 5017.00    0.97471   1.04905    0.000
 5018.00    0.94348   1.05451    0.000
 5019.00    0.90441   1.06292    0.000
 5020.00    0.93823   1.07387    0.000
 5021.00    0.97561   1.08459    0.000
 5022.00    1.02109   1.09582    0.000
 5023.00    1.06519   1.10996    0.000
 5024.00    1.01757   1.12485    0.000
 5025.00    0.97523   1.13327    0.000
 5026.00    1.03858   1.13275    0.000
 5027.00    1.09343   1.12968    0.000
 5028.00    1.04910   1.13372    0.000
 5029.00    1.01737   1.14941    0.025
 5030.00    1.08736   1.17289    0.025
 5031.00    1.15575   1.19721    0.025
 5032.00    1.21449   1.21468    0.025
 5033.00    1.24810   1.21660    0.025
 5034.00    1.16145   1.19862    0.025
 5035.00    1.09205   1.16694    0.025
 5036.00    1.08983   1.13359    0.025
 5037.00    1.07219   1.10452    0.025
 5038.00    1.00456   1.07460    0.025
 5039.00    0.95480   1.03998    0.025
 5040.00    0.95411   1.01149    0.025
 5041.00    0.95383   1.00856    0.025
 5042.00    0.95451   1.04156    0.025
 5043.00    0.99858   1.10080    0.025
 5044.00    1.13088   1.16238    0.025
 5045.00    1.18830   1.20437    0.026
 5046.00    1.11323   1.21517    0.026
 5047.00    1.10824   1.19592    0.026
 5048.00    1.21172   1.15967    0.026
 5049.00    1.20409   1.12484    0.025
 5050.00    1.04538   1.10518    0.025
 5051.00    1.00456   1.10496    0.025
 5052.00    1.10486   1.12139    0.025
 5053.00    1.10583   1.14820    0.026
 5054.00    1.00198   1.17682    0.025
 5055.00    0.97649   1.19984    0.025
 5056.00    1.02395   1.21488    0.025
 5057.00    1.04070   1.22470    0.025
 5058.00    1.03225   1.23336    0.026
 5059.00    1.06385   1.24245    0.026
 5060.00    1.12438   1.24971    0.026
 5061.00    1.10859   1.24916    0.026
 5062.00    1.04441   1.23367    0.026
 5063.00    1.00446   1.20239    0.026
 5064.00    0.97795   1.16491    0.026
 5065.00    0.95216   1.13524    0.026
 5066.00    0.92674   1.12127    0.026
 5067.00    0.95116   1.12038    0.026
 5068.00    0.99634   1.12626    0.026
 5069.00    1.01253   1.13381    0.026
 5070.00    1.01840   1.13862    0.026
 5071.00    1.02730   1.13804    0.026
 5072.00    1.03711   1.13432    0.026
 5073.00    1.01287   1.13250    0.026
 5074.00    0.98012   1.13395    0.026
 5075.00    0.98002   1.13495    0.025
 5076.00    0.98652   1.12967    0.025
 5077.00    0.98153   1.11230    0.026
 5078.00    0.97472   1.08187    0.026
 5079.00    1.01621   1.04770    0.026
 5080.00    1.06343   1.02585    0.025
 5081.00    1.06067   1.02560    0.025
 5082.00    1.05389   1.04284    0.025
 5083.00    1.04494   1.06773    0.025
 5084.00    1.03589   1.09335    0.025
 5085.00    0.99600   1.11602    0.025
 5086.00    0.95782   1.13320    0.024
 5087.00    1.02290   1.14474    0.024
 5088.00    1.08311   1.15337    0.024
 5089.00    1.05275   1.16210    0.024
 5090.00    1.02565   1.17228    0.024
 5091.00    1.03494   1.18374    0.024
 5092.00    1.03925   1.19435    0.024
 5093.00    1.00484   1.19894    0.024
 5094.00    0.98382   1.19131    0.024
 5095.00    1.04170   1.16845    0.024
 5096.00    1.08557   1.13329    0.024
 5097.00    1.06413   1.09476    0.024
 5098.00    1.05444   1.06595    0.023
 5099.00    1.08958   1.05825    0.024
 5100.00    1.11712   1.07359    0.024
 5101.00    1.12051   1.10090    0.024
 5102.00    1.10465   1.12412    0.024
 5103.00    1.03693   1.13360    0.024
 5104.00    0.96843   1.12957    0.024
 5105.00    0.89811   1.11706    0.024
 5106.00    0.88823   1.10095    0.024
 5107.00    0.99926   1.08521    0.024
 5108.00    1.04789   1.07415    0.024
 5109.00    0.98779   1.07183    0.024
 5110.00    0.94747   1.08004    0.024
 5111.00    0.93729   1.09762    0.024
 5112.00    0.93348   1.11964    0.024
 5113.00    0.93822   1.14018    0.024
 5114.00    0.94065   1.15685    0.025
 5115.00    0.94037   1.17057    0.025
 5116.00    1.00361   1.18239    0.025
 5117.00    1.13296   1.19030    0.025
 5118.00    1.12535   1.18957    0.025
 5119.00    0.99204   1.17681    0.025
 5120.00    0.96516   1.15235    0.025
 5121.00    1.02439   1.11975    0.024
 5122.00    1.03858   1.08494    0.024
 5123.00    1.02072   1.05502    0.024
 5124.00    1.00510   1.03627    0.024
 5125.00    0.99086   1.02991    0.024
 5126.00    0.97430   1.03123    0.024
 5127.00    0.95647   1.03461    0.024
 5128.00    0.94618   1.03858    0.024
 5129.00    0.93948   1.04570    0.024
 5130.00    0.97598   1.05804    0.024
 5131.00    1.03014   1.07425    0.024
 5132.00    1.01679   1.09098    0.024
 5133.00    0.97983   1.10565    0.024
 5134.00    0.95940   1.11563    0.024
 5135.00    0.94386   1.11676    0.024
 5136.00    0.90418   1.10570    0.024
 5137.00    0.85860   1.08564    0.024
 5138.00    0.88384   1.06614    0.025
 5139.00    0.92307   1.05480    0.025
 5140.00    1.00121   1.05194    0.025
 5141.00    1.08536   1.05190    0.025
 5142.00    1.03117   1.05107    0.025
 5143.00    0.96121   1.05103    0.025
 5144.00    0.96907   1.05195    0.025
 5145.00    0.98286   1.05082    0.024
 5146.00    1.01160   1.04705    0.025
 5147.00    1.04096   1.04441    0.025
 5148.00    0.97391   1.04582    0.025
 5149.00    0.90940   1.04890    0.024
 5150.00    0.98523   1.04830    0.024
 5151.00    1.05516   1.04256    0.025
 5152.00    1.02289   1.03608    0.025
 5153.00    0.99619   1.03574    0.024
 5154.00    1.02874   1.04660    0.025
 5155.00    1.05178   1.06876    0.025
 5156.00    1.00327   1.09652    0.025
 5157.00    0.96355   1.12162    0.025
 5158.00    0.97415   1.13744    0.025
 5159.00    0.97499   1.14158    0.025
 5160.00    0.93128   1.13480    0.025
 5161.00    0.91265   1.11838    0.024
 5162.00    0.98756   1.09275    0.024
 5163.00    1.03390   1.05642    0.024
 5164.00    0.99112   1.00591    0.025
 5165.00    0.94160   0.94202    0.025
 5166.00    0.87425   0.87675    0.024
 5167.00    0.81543   0.82956    0.024
 5168.00    0.77599   0.81320    0.024
 5169.00    0.75024   0.82033    0.024
 5170.00    0.75144   0.82978    0.024
 5171.00    0.76429   0.82934    0.024
 5172.00    0.79714   0.83035    0.024
 5173.00    0.81550   0.85472    0.024
 5174.00    0.81208   0.90841    0.024
 5175.00    0.81745   0.97457    0.024
 5176.00    0.83444   1.03035    0.024
 5177.00    0.85959   1.06366    0.024
 5178.00    0.89422   1.07320    0.024
 5179.00    0.91177   1.05982    0.023
 5180.00    0.91178   1.02301    0.023
 5181.00    0.89608   0.96577    0.023
 5182.00    0.86615   0.90270    0.023
 5183.00    0.83518   0.85962    0.023
 5184.00    0.80337   0.85924    0.023
 5185.00    0.83442   0.90191    0.023
 5186.00    0.90957   0.96454    0.023
 5187.00    0.93714   1.02005    0.023
 5188.00    0.93543   1.05339    0.023
 5189.00    0.93923   1.06256    0.023
 5190.00    0.94600   1.05093    0.000
 5191.00    0.95081   1.02634    0.000
 5192.00    0.95471   1.00312    0.000
 5193.00    0.94564   0.99336    0.000
 5194.00    0.93137   0.99848    0.000
 5195.00    0.96537   1.01278    0.000
 5196.00    1.01595   1.03185    0.000
 5197.00    1.01300   1.05377    0.000
 5198.00    0.99459   1.07617    0.000
 5199.00    1.02928   1.09429    0.000
 5200.00    1.07666   1.10258    0.000
 5201.00    1.06278   1.09752    0.000
 5202.00    1.03710   1.07775    0.000
 5203.00    1.00168   1.04477    0.000
 5204.00    0.96479   1.00425    0.000
 5205.00    0.94625   0.96630    0.000
 5206.00    0.92973   0.94069    0.000
 5207.00    0.92279   0.93158    0.000
 5208.00    0.91655   0.93915    0.000
 5209.00    0.97383   0.96334    0.000
 5210.00    1.03350   1.00119    0.000
 5211.00    1.06943   1.04445    0.024
 5212.00    1.10383   1.08057    0.024
 5213.00    1.08605   1.09828    0.024
 5214.00    1.06516   1.09571    0.024
 5215.00    0.99374   1.08253    0.024
 5216.00    0.93855   1.07440    0.024
 5217.00    1.04856   1.08162    0.024
 5218.00    1.13418   1.10280    0.024
 5219.00    1.04242   1.12760    0.024
 5220.00    0.97425   1.14443    0.024
 5221.00    1.03753   1.14563    0.025
 5222.00    1.07226   1.12740    0.025
 5223.00    0.97990   1.08987    0.025
 5224.00    0.91071   1.03896    0.024
 5225.00    0.92616   0.98844    0.024
 5226.00    0.94516   0.95707    0.024
 5227.00    0.97504   0.95904    0.024
 5228.00    1.00347   0.99257    0.025
 5229.00    1.02813   1.03815    0.025
 5230.00    1.04822   1.07267    0.025
 5231.00    1.05808   1.08380    0.025
 5232.00    1.06278   1.07499    0.024
 5233.00    1.05747   1.06210    0.024
 5234.00    1.08588   1.06069    0.024
 5235.00    1.17126   1.07625    0.024
 5236.00    1.18936   1.10326    0.024
 5237.00    1.10779   1.13025    0.024
 5238.00    1.03189   1.14892    0.024
 5239.00    0.96338   1.15790    0.024
 5240.00    0.98657   1.16053    0.024
 5241.00    1.11494   1.16100    0.023
 5242.00    1.15357   1.16160    0.023
 5243.00    1.10143   1.16203    0.024
 5244.00    1.04862   1.15817    0.024
 5245.00    0.99520   1.14451    0.024
 5246.00    0.97269   1.12072    0.024
 5247.00    0.97448   1.09409    0.023
 5248.00    0.98005   1.07314    0.023
 5249.00    0.98822   1.06123    0.023
 5250.00    1.01763   1.05822    0.023
 5251.00    1.05991   1.06277    0.024
 5252.00    1.09071   1.07096    0.024
 5253.00    1.11542   1.07875    0.024
 5254.00    1.11849   1.08638    0.024
 5255.00    1.11163   1.09954    0.024
 5256.00    1.13124   1.12222    0.024
 5257.00    1.16131   1.14816    0.024
 5258.00    1.10616   1.16405    0.024
 5259.00    1.02231   1.15815    0.024
 5260.00    1.03109   1.12695    0.024
 5261.00    1.06609   1.07602    0.024
 5262.00    1.01581   1.01633    0.024
 5263.00    0.94562   0.96044    0.024
 5264.00    0.97468   0.91901    0.024
 5265.00    1.02235   0.89720    0.024
 5266.00    0.97191   0.89172    0.024
 5267.00    0.90726   0.89192    0.024
 5268.00    0.88831   0.88835    0.025
 5269.00    0.87417   0.88511    0.025
 5270.00    0.88225   0.89642    0.025
 5271.00    0.89184   0.92766    0.025
 5272.00    0.90495   0.96734    0.025
 5273.00    0.91817   1.00010    0.025
 5274.00    0.94242   1.02182    0.025
 5275.00    0.96985   1.04116    0.025
 5276.00    1.09886   1.06791    0.025
 5277.00    1.21742   1.09939    0.025
 5278.00    1.17672   1.12256    0.024
 5279.00    1.13778   1.12690    0.024
 5280.00    1.11593   1.11216    0.025
 5281.00    1.10458   1.08833    0.025
 5282.00    1.16717   1.06906    0.025
 5283.00    1.20547   1.06586    0.024
 5284.00    1.11210   1.08420    0.024
 5285.00    1.05051   1.11941    0.024
 5286.00    1.12706   1.15771    0.024
 5287.00    1.17966   1.18651    0.024
 5288.00    1.14662   1.20222    0.024
 5289.00    1.12148   1.20876    0.024
 5290.00    1.12007   1.21020    0.025
 5291.00    1.12834   1.20670    0.025
 5292.00    1.16134   1.19694    0.025
 5293.00    1.17375   1.18036    0.025
 5294.00    1.14087   1.15627    0.025
 5295.00    1.12269   1.12375    0.025
 5296.00    1.13253   1.08660    0.024
 5297.00    1.13170   1.05563    0.024
 5298.00    1.11308   1.04255    0.024
 5299.00    1.08843   1.04960    0.024
 5300.00    1.05500   1.06850    0.024
 5301.00    1.05225   1.09102    0.024
 5302.00    1.08888   1.11522    0.024
 5303.00    1.08922   1.14123    0.024
 5304.00    1.04851   1.16555    0.024
 5305.00    1.05786   1.18209    0.024
 5306.00    1.11713   1.18888    0.024
 5307.00    1.14903   1.19068    0.024
 5308.00    1.15683   1.19378    0.024
 5309.00    1.14548   1.19942    0.024
 5310.00    1.11930   1.20363    0.024
 5311.00    1.13877   1.20235    0.024
 5312.00    1.18935   1.19458    0.024
 5313.00    1.18208   1.18221    0.024
 5314.00    1.14026   1.16789    0.023
 5315.00    1.12200   1.15379    0.023
 5316.00    1.11601   1.14283    0.023
 5317.00    1.10825   1.13813    0.023
 5318.00    1.09970   1.13934    0.023
 5319.00    1.08933   1.14244    0.023
 5320.00    1.07826   1.14213    0.023
 5321.00    1.06467   1.13394    0.023
 5322.00    1.05025   1.11688    0.023
 5323.00    1.03093   1.09323    0.023
 5324.00    1.01024   1.06625    0.023
 5325.00    0.99309   1.03655    0.023
 5326.00    0.97674   1.00246    0.022
 5327.00    0.98579   0.96918    0.023
 5328.00    0.99948   0.95220    0.023
 5329.00    1.02260   0.96506    0.023
 5330.00    1.04704   1.00373    0.023
 5331.00    0.99685   1.05055    0.023
 5332.00    0.93912   1.08937    0.023
 5333.00    0.94944   1.11563    0.023
 5334.00    0.96411   1.13228    0.023
 5335.00    0.95770   1.14074    0.023
 5336.00    0.95081   1.13973    0.023
 5337.00    1.00903   1.12815    0.023
 5338.00    1.06656   1.10786    0.023
 5339.00    1.10453   1.08500    0.023
 5340.00    1.13812   1.06994    0.024
 5341.00    1.10884   1.07115    0.023
 5342.00    1.08160   1.08646    0.023
 5343.00    1.07335   1.10478    0.023
 5344.00    1.07521   1.11545    0.023
 5345.00    1.14604   1.11477    0.023
 5346.00    1.20816   1.10716    0.023
 5347.00    1.22430   1.09870    0.024
 5348.00    1.22409   1.09407    0.024
 5349.00    1.15446   1.09826    0.023
 5350.00    1.09121   1.11318    0.023
 5351.00    1.05032   1.13578    0.023
 5352.00    1.02587   1.16030    0.023
 5353.00    1.04992   1.18271    0.023
 5354.00    1.08597   1.20207    0.023
 5355.00    1.15220   1.21764    0.023
 5356.00    1.19065   1.22817    0.023
 5357.00    1.16900   1.23254    0.023
 5358.00    1.15241   1.22997    0.023
 5359.00    1.14535   1.22023    0.023
 5360.00    1.14690   1.20360    0.023
 5361.00    1.16256   1.18194    0.023
 5362.00    1.17312   1.15933    0.023
 5363.00    1.17635   1.13966    0.023
 5364.00    1.13982   1.12423    0.023
 5365.00    1.05301   1.11290    0.023
 5366.00    1.03564   1.10305    0.023
 5367.00    1.09569   1.08973    0.023
 5368.00    1.11475   1.06967   -2.000
 5369.00    1.09350   1.04455   -2.000
 5370.00    1.05422   1.02484   -2.000
 5371.00    0.99932   1.02432   -2.000
 5372.00    0.99131   1.04881   -2.000
 5373.00    1.01912   1.08973   -2.000
 5374.00    1.03315   1.13045   -2.000
 5375.00    1.03794   1.15831   -2.000
 5376.00    1.04093   1.16989   -2.000
 5377.00    1.04286   1.17043   -2.000
 5378.00    1.09807   1.16576   -2.000
 5379.00    1.18061   1.15802   -2.000
 5380.00    1.15466   1.14809   -2.000
 5381.00    1.08051   1.13816   -2.000
 5382.00    1.08716   1.13136   -2.000
 5383.00    1.12466   1.13076    0.023
 5384.00    1.12185   1.13651    0.023
 5385.00    1.10598   1.14379    0.023
 5386.00    1.15913   1.14671    0.023
 5387.00    1.23102   1.14174    0.023
 5388.00    1.17485   1.12872    0.023
 5389.00    1.09014   1.11121    0.023
 5390.00    1.06264   1.09418    0.023
 5391.00    1.04530   1.08098    0.023
 5392.00    1.01127   1.07216    0.023
 5393.00    0.97497   1.06506    0.023
 5394.00    0.94924   1.05581    0.023
 5395.00    0.92453   1.04309    0.023
 5396.00    0.93646   1.03049    0.023
 5397.00    0.95060   1.02629    0.023
 5398.00    0.96748   1.03528    0.023
 5399.00    0.98446   1.05247    0.023
 5400.00    1.00681   1.06808    0.023
 5401.00    1.02804   1.07287    0.023
 5402.00    1.02059   1.06121    0.023
 5403.00    1.01376   1.03464    0.023
 5404.00    1.01552   1.00314    0.023
 5405.00    1.01933   0.98030    0.023
 5406.00    1.04166   0.97485    0.023
 5407.00    1.05486   0.98446    0.023
 5408.00    1.00772   0.99943    0.023
 5409.00    0.96964   1.01389    0.023
 5410.00    0.97817   1.03001    0.023
 5411.00    0.98281   1.05089    0.023
 5412.00    0.97129   1.07400    0.023
 5413.00    0.98037   1.09412    0.023
 5414.00    1.06023   1.10895    0.023
 5415.00    1.10728   1.12062    0.023
 5416.00    1.05940   1.13080    0.023
 5417.00    1.02969   1.13684    0.023
 5418.00    1.04489   1.13587    0.022
 5419.00    1.06953   1.12857    0.022
 5420.00    1.11429   1.11864    0.022
 5421.00    1.13910   1.10965    0.022
 5422.00    1.12701   1.10224    0.022
 5423.00    1.11208   1.09658    0.022
 5424.00    1.09256   1.09646    0.022
 5425.00    1.10080   1.10326    0.022
 5426.00    1.14841   1.11029    0.022
 5427.00    1.17122   1.10809    0.022
 5428.00    1.16312   1.09241    0.022
 5429.00    1.13533   1.07036    0.022
 5430.00    1.08590   1.05417    0.022
 5431.00    1.07030   1.04600    0.022
 5432.00    1.08749   1.04037    0.022
 5433.00    1.07924   1.03424    0.022
 5434.00    1.04922   1.03062    0.022
 5435.00    1.04145   1.03744    0.022
 5436.00    1.05041   1.05880    0.022
 5437.00    1.05307   1.09122    0.022
 5438.00    1.05156   1.12635    0.022
 5439.00    1.05481   1.15548    0.022
 5440.00    1.06081   1.17361    0.022
 5441.00    1.10397   1.17884    0.022
 5442.00    1.16588   1.17084    0.023
 5443.00    1.16300   1.14898    0.023
 5444.00    1.13180   1.11529    0.022
 5445.00    1.12899   1.07820    0.022
 5446.00    1.13683   1.05120    0.022
 5447.00    1.08007   1.04639    0.022
 5448.00    1.00276   1.06390    0.022
 5449.00    1.00713   1.09125    0.022
 5450.00    1.03322   1.11344    0.023
 5451.00    1.08297   1.11993    0.023
 5452.00    1.13786   1.10872    0.023
 5453.00    1.10476   1.08549    0.023
 5454.00    1.05646   1.06051    0.023
 5455.00    1.00682   1.04660    0.023
 5456.00    0.95700   1.05250    0.023
 5457.00    1.02087   1.07444    0.023
 5458.00    1.09525   1.09907    0.023
 5459.00    1.04799   1.11270    0.023
 5460.00    0.99389   1.10934    0.022
 5461.00    1.00663   1.09417    0.022
 5462.00    1.02118   1.07743    0.022
 5463.00    1.06720   1.06891    0.022
 5464.00    1.11155   1.07225    0.022
 5465.00    1.11695   1.08282    0.022
 5466.00    1.12707   1.09432    0.022
 5467.00    1.19796   1.10232    0.022
 5468.00    1.24788   1.10453    0.022
 5469.00    1.11639   1.10119    0.022
 5470.00    0.99748   1.09376    0.022
 5471.00    0.95916   1.08367    0.022
 5472.00    0.93792   1.07070    0.022
 5473.00    1.00231   1.05431    0.022
 5474.00    1.05017   1.03548    0.022
 5475.00    1.03091   1.01632    0.022
 5476.00    1.01828   1.00323    0.021
 5477.00    1.02801   1.00334    0.022
 5478.00    1.03083   1.01477   -2.000
 5479.00    1.01408   1.02872   -2.000
 5480.00    1.08222   1.03802   -2.000
 5481.00    1.35644   1.04366   -2.000
 5482.00    1.57929   1.05233   -2.000
 5483.00    1.69449   1.06691   -2.000
 5484.00    1.59866   1.08300   -2.000
 5485.00    1.11851   1.09225   -2.000
 5486.00    0.72104   1.09048   -2.000
 5487.00    0.45518   1.08234   -2.000
 5488.00    0.37127   1.07611   -2.000
 5489.00    0.54155   1.07571   -2.000
 5490.00    0.82759   1.07990   -2.000
 5491.00    1.25593   1.08505   -2.000
 5492.00    1.54645   1.08719   -2.000
 5493.00    1.68763   1.08624   -2.000
 5494.00    1.61479   1.08430   -2.000
 5495.00    1.33736   1.08226   -2.000
 5496.00    1.20465   1.08088   -2.000
 5497.00    1.19392   1.08167   -2.000
 5498.00    1.12990   1.08464   -2.000
 5499.00    1.02634   1.08581   -2.000
 5500.00    1.00370   1.08137   -2.000
 5501.00    1.03382   1.07222   -2.000
 5502.00    1.08255   1.06242    0.023
 5503.00    1.14190   1.05514    0.023
 5504.00    1.12276   1.05073    0.022
 5505.00    1.06463   1.04745    0.022
 5506.00    1.09240   1.04588    0.022
 5507.00    1.15710   1.04849    0.022
 5508.00    1.13313   1.05295    0.022
 5509.00    1.07650   1.05441    0.022
 5510.00    1.08041   1.04988    0.022
 5511.00    1.10320   1.03964    0.022
 5512.00    1.15065   1.02963    0.022
 5513.00    1.20451   1.02646    0.022
 5514.00    1.16657   1.03225    0.022
 5515.00    1.10913   1.04618    0.022
 5516.00    1.05194   1.06481    0.022
 5517.00    0.99479   1.08423    0.022
 5518.00    1.01791   1.10090    0.022
 5519.00    1.05120   1.11145    0.022
 5520.00    1.06515   1.11552    0.021
 5521.00    1.07739   1.11447    0.021
 5522.00    1.02537   1.10983    0.021
 5523.00    0.96999   1.10192    0.021
 5524.00    1.02702   1.08916    0.021
 5525.00    1.08554   1.07106    0.021
 5526.00    1.09772   1.05097    0.021
 5527.00    1.10727   1.03516    0.021
 5528.00    1.05993   1.03058    0.021
 5529.00    1.01629   1.03936    0.021
 5530.00    1.01774   1.05520    0.021
 5531.00    1.02677   1.06904    0.021
 5532.00    1.09899   1.07494    0.021
 5533.00    1.15046   1.07287    0.021
 5534.00    1.07278   1.06759    0.021
 5535.00    1.00641   1.06500    0.021
 5536.00    0.99530   1.06804    0.021
 5537.00    0.99511   1.07554    0.021
 5538.00    1.03827   1.08590    0.021
 5539.00    1.06006   1.09631    0.021
 5540.00    1.01129   1.10304    0.021
 5541.00    0.98618   1.10396    0.024
 5542.00    1.02703   1.09880    0.059
 5543.00    1.06939   1.09089   -1.000
 5544.00    1.11535   1.08527   -1.000
 5545.00    1.14525   1.08490   -1.000
 5546.00    1.14203   1.09094   -1.000
 5547.00    1.13075   1.10229   -1.000
 5548.00    1.10500   1.11481   -1.000
 5549.00    1.09035   1.12427    0.110
 5550.00    1.09313   1.12776    0.031
 5551.00    1.10006   1.12403    0.022
 5552.00    1.11271   1.11507    0.022
 5553.00    1.10473   1.10470    0.022
 5554.00    1.07176   1.09652    0.022
 5555.00    1.07472   1.09257    0.022
 5556.00    1.11606   1.09191    0.022
 5557.00    1.15748   1.09233    0.022
 5558.00    1.19897   1.09222    0.022
 5559.00    1.16228   1.09002    0.022
 5560.00    1.06063   1.08508    0.022
 5561.00    1.01331   1.07796    0.021
 5562.00    1.00573   1.06957    0.021
 5563.00    1.03105   1.06188    0.021
 5564.00    1.07749   1.05581    0.021
 5565.00    1.09102   1.05084    0.021
 5566.00    1.08606   1.04725    0.021
 5567.00    1.09330   1.04546    0.021
 5568.00    1.10650   1.04522    0.021
 5569.00    1.08062   1.04618    0.021
 5570.00    1.03823   1.04808    0.021
 5571.00    1.05012   1.04929    0.021
 5572.00    1.08165   1.04975    0.020
 5573.00    1.06354   1.05291    0.020
 5574.00    1.03023   1.05913    0.020
 5575.00    1.03010   1.06623    0.021
 5576.00    1.03842   1.07362    0.021
 5577.00    1.05261   1.07964    0.021
 5578.00    1.06802   1.08309    0.021
 5579.00    1.07504   1.08503    0.021
 5580.00    1.08069   1.08484    0.021
 5581.00    1.08025   1.08125    0.021
 5582.00    1.07906   1.07444    0.021
 5583.00    1.11612   1.06278    0.022
 5584.00    1.15640   1.04400    0.022
 5585.00    1.06227   1.01871    0.021
 5586.00    0.96165   0.99085    0.021
 5587.00    0.98964   0.96832    0.021
 5588.00    1.01876   0.95810    0.022
 5589.00    1.00031   0.96183    0.022
 5590.00    0.98164   0.97563    0.022
 5591.00    0.95856   0.99192    0.022
 5592.00    0.94095   1.00580    0.022
 5593.00    0.98682   1.01702    0.022
 5594.00    1.02352   1.02753    0.023
 5595.00    0.98652   1.03834    0.023
 5596.00    0.96023   1.04523    0.023
 5597.00    0.99863   1.04332    0.023
 5598.00    1.03076   1.03314    0.023
 5599.00    1.03305   1.01879    0.022
 5600.00    1.04677   1.00531    0.022
 5601.00    1.10487   0.99869    0.022
 5602.00    1.13587   1.00313    0.023
 5603.00    1.07919   1.02007    0.022
 5604.00    1.04015   1.04662    0.022
 5605.00    1.04942   1.07508    0.022
 5606.00    1.06369   1.09789    0.022
 5607.00    1.08968   1.11116    0.022
 5608.00    1.10897   1.11614    0.022
 5609.00    1.11466   1.11672    0.021
 5610.00    1.12142   1.11516    0.021
 5611.00    1.13007   1.10971    0.021
 5612.00    1.12798   1.09591    0.021
 5613.00    1.10931   1.07149    0.021
 5614.00    1.07010   1.04068    0.021
 5615.00    1.00302   1.01488    0.020
 5616.00    0.99119   1.00440    0.020
 5617.00    1.04534   1.00897    0.020
 5618.00    1.06763   1.02187    0.020
 5619.00    1.05633   1.03575    0.021
 5620.00    1.01911   1.04532    0.021
 5621.00    0.95782   1.04808    0.020
 5622.00    0.93976   1.04278    0.020
 5623.00    0.95711   1.03052    0.021
 5624.00    0.98718   1.01752    0.021
 5625.00    1.02640   1.01249    0.021
 5626.00    1.04160   1.01908    0.021
 5627.00    1.04159   1.03497    0.021
 5628.00    0.99423   1.05516    0.021
 5629.00    0.92068   1.07357    0.021
 5630.00    1.00163   1.08577    0.021
 5631.00    1.15694   1.09032    0.022
 5632.00    1.14375   1.08720    0.022
 5633.00    1.06056   1.07790    0.021
 5634.00    1.01166   1.06531    0.021
 5635.00    0.97495   1.05226    0.022
 5636.00    0.97875   1.04110    0.022
 5637.00    0.99471   1.03370    0.022
 5638.00    1.00217   1.03036    0.022
 5639.00    1.00752   1.02922    0.022
 5640.00    1.04341   1.02824    0.021
 5641.00    1.08546   1.02802    0.021
 5642.00    1.06816   1.03016    0.021
 5643.00    1.04147   1.03505    0.021
 5644.00    1.07114   1.04231    0.021
 5645.00    1.10744   1.05010    0.021
 5646.00    1.06579   1.05609    0.021
 5647.00    1.01792   1.05936    0.021
 5648.00    0.96510   1.06007    0.021
 5649.00    0.91207   1.06000    0.021
 5650.00    0.98910   1.06109    0.021
 5651.00    1.06493   1.06269    0.021
 5652.00    1.00960   1.06204    0.020
 5653.00    0.95690   1.05651    0.020
 5654.00    0.95232   1.04538    0.020
 5655.00    0.95020   1.03053    0.020
 5656.00    0.97531   1.01348    0.020
 5657.00    0.99340   0.99572    0.020
 5658.00    0.95697   0.98283    0.020
 5659.00    0.93197   0.97971    0.020
 5660.00    0.97408   0.98448    0.020
 5661.00    1.01252   0.99309    0.020
 5662.00    1.03387   1.00356    0.020
 5663.00    1.04201   1.01504    0.020
 5664.00    0.99992   1.02621    0.020
 5665.00    0.97023   1.03447    0.020
 5666.00    0.97993   1.03741    0.020
 5667.00    1.00603   1.03603    0.020
 5668.00    1.07625   1.03480    0.021
 5669.00    1.11633   1.03771    0.021
 5670.00    1.08686   1.04611    0.021
 5671.00    1.05509   1.05865    0.021
 5672.00    1.01872   1.07209    0.021
 5673.00    1.00143   1.08273    0.021
 5674.00    1.01731   1.08848    0.021
 5675.00    1.02500   1.09016    0.021
 5676.00    1.02019   1.08934    0.022
 5677.00    1.01515   1.08615    0.022
 5678.00    1.00982   1.08026    0.022
 5679.00    1.02463   1.07151    0.022
 5680.00    1.06319   1.05996    0.022
 5681.00    1.08487   1.04668    0.022
 5682.00    1.08904   1.03484    0.022
 5683.00    1.11880   1.02752    0.022
 5684.00    1.17202   1.02437    0.021
 5685.00    1.15225   1.02277    0.021
 5686.00    1.07353   1.02085    0.021
 5687.00    1.02815   1.01986    0.021
 5688.00    1.00647   1.02310    0.020
 5689.00    1.02015   1.03248    0.020
 5690.00    1.05590   1.04616    0.020
 5691.00    1.06022   1.06024    0.020
 5692.00    1.04743   1.07104    0.020
 5693.00    1.04560   1.07628    0.020
 5694.00    1.04896   1.07648    0.020
 5695.00    1.07292   1.07300    0.020
 5696.00    1.10530   1.06640    0.020
 5697.00    1.09981   1.05654    0.020
 5698.00    1.08112   1.04447    0.020
 5699.00    1.05741   1.03207    0.020
 5700.00    1.03222   1.02083    0.020
 5701.00    1.03364   1.01332    0.020
 5702.00    1.04153   1.01093    0.020
 5703.00    1.04823   1.01129    0.020
 5704.00    1.05470   1.01001    0.020
 5705.00    1.06674   1.00311    0.020
 5706.00    1.07962   0.99041    0.020
 5707.00    1.05778   0.97520    0.020
 5708.00    1.03199   0.96182    0.020
 5709.00    1.03292   0.95524    0.020
 5710.00    1.03587   0.95751    0.021
 5711.00    1.03407   0.96768    0.021
 5712.00    1.03208   0.98525    0.021
 5713.00    1.05024   1.00678    0.021
 5714.00    1.06753   1.02713    0.021
 5715.00    1.04200   1.04394    0.021
 5716.00    1.02006   1.05592    0.021
 5717.00    1.05964   1.06355    0.021
 5718.00    1.09355   1.06974    0.021
 5719.00    1.06755   1.07616    0.021
 5720.00    1.04665   1.08293    0.021
 5721.00    1.06401   1.08985    0.021
 5722.00    1.07874   1.09516    0.021
 5723.00    1.07843   1.09666    0.021
 5724.00    1.08029   1.09365    0.020
 5725.00    1.09201   1.08673    0.020
 5726.00    1.10296   1.07800    0.020
 5727.00    1.11103   1.07104    0.020
 5728.00    1.11336   1.06758    0.020
 5729.00    1.09784   1.06572    0.020
 5730.00    1.08340   1.06350    0.020
 5731.00    1.07184   1.06196    0.020
 5732.00    1.06658   1.06368    0.020
 5733.00    1.07563   1.06887    0.020
 5734.00    1.07599   1.07510    0.020
 5735.00    1.05928   1.07937    0.020
 5736.00    1.03988   1.07989    0.020
 5737.00    1.01584   1.07767    0.020
 5738.00    1.01080   1.07483    0.020
 5739.00    1.03424   1.07232    0.020
 5740.00    1.06175   1.07025    0.000
 5741.00    1.09463   1.06857    0.000
 5742.00    1.09825   1.06787    0.000
 5743.00    1.06788   1.06911    0.000
 5744.00    1.07361   1.07163    0.000
 5745.00    1.11633   1.07270    0.000
 5746.00    1.12085   1.06992    0.000
 5747.00    1.09087   1.06400    0.000
 5748.00    1.08732   1.05868    0.000
 5749.00    1.10480   1.05576    0.000
 5750.00    1.13054   1.05258    0.000
 5751.00    1.16206   1.04563    0.000
 5752.00    1.12617   1.03498    0.000
 5753.00    1.04888   1.02583    0.000
 5754.00    1.02488   1.02508    0.000
 5755.00    1.02948   1.03473    0.000
 5756.00    1.03424   1.04958    0.000
 5757.00    1.03907   1.06155    0.000
 5758.00    1.07838   1.06435    0.000
 5759.00    1.13153   1.05648    0.000
 5760.00    1.12506   1.04226    0.000
 5761.00    1.09818   1.02902    0.000
 5762.00    1.08093   1.02373    0.000
 5763.00    1.06645   1.03033    0.000
 5764.00    1.10090   1.04612    0.000
 5765.00    1.14699   1.06401    0.000
 5766.00    1.11386   1.07815    0.000
 5767.00    1.06552   1.08554    0.000
 5768.00    1.09453   1.08607    0.000
 5769.00    1.13505   1.08201    0.000
 5770.00    1.13449   1.07562    0.000
 5771.00    1.12945   1.06843    0.000
 5772.00    1.11723   1.06230    0.000
 5773.00    1.10450   1.05843    0.000
 5774.00    1.09318   1.05705    0.000
 5775.00    1.08192   1.05804    0.000
 5776.00    1.13709   1.05899    0.000
 5777.00    1.19046   1.05577    0.000
 5778.00    1.16952   1.04539    0.000
 5779.00    1.14666   1.02722    0.000
 5780.00    1.09288   1.00446    0.000
 5781.00    1.04060   0.98370    0.000
 5782.00    1.00344   0.96998    0.000
 5783.00    0.97377   0.96397    0.000
 5784.00    0.99840   0.96468    0.000
 5785.00    1.01766   0.97226    0.000
 5786.00    1.00711   0.98605    0.000
 5787.00    1.00145   1.00231    0.000
 5788.00    1.01754   1.01685    0.000
 5789.00    1.03692   1.02644    0.000
 5790.00    1.06831   1.03071    0.000
 5791.00    1.08800   1.03378   -2.000
 5792.00    1.07195   1.03896   -2.000
 5793.00    1.04733   1.04596   -2.000
 5794.00    1.00048   1.05256   -2.000
 5795.00    0.98152   1.05552   -2.000
 5796.00    1.02479   1.05376   -2.000
 5797.00    1.07993   1.05102   -2.000
 5798.00    1.15802   1.05281   -2.000
 5799.00    1.19285   1.06058   -2.000
 5800.00    1.15469   1.07059   -2.000
 5801.00    1.13557   1.07765   -2.000
 5802.00    1.14457   1.07758   -2.000
 5803.00    1.15610   1.06979   -2.000
 5804.00    1.17089   1.05869   -2.000
 5805.00    1.15439   1.04977   -2.000
 5806.00    1.10206   1.04590   -2.000
 5807.00    1.06777   1.04730   -2.000
 5808.00    1.05170   1.05209   -2.000
 5809.00    1.03847   1.05812   -2.000
 5810.00    1.02777   1.06347   -2.000
 5811.00    1.02617   1.06620    0.000
 5812.00    1.03170   1.06519    0.000
 5813.00    1.02486   1.06038    0.000
 5814.00    1.00949   1.05306    0.000
 5815.00    1.02820   1.04663    0.000
 5816.00    1.06752   1.04544    0.000
 5817.00    1.07420   1.05137    0.000
 5818.00    1.06363   1.06193    0.000
 5819.00    1.06040   1.07265    0.000
 5820.00    1.06052   1.08005    0.000
 5821.00    1.06334   1.08275    0.000
 5822.00    1.06723   1.08194    0.000
 5823.00    1.08106   1.08026    0.000
 5824.00    1.09822   1.07948    0.000
 5825.00    1.13471   1.07974    0.000
 5826.00    1.17666   1.08055    0.000
 5827.00    1.17566   1.08154    0.000
 5828.00    1.16467   1.08253    0.000
 5829.00    1.11303   1.08301    0.000
 5830.00    1.05380   1.08217    0.000
 5831.00    1.06117   1.07972    0.000
 5832.00    1.07815   1.07583    0.000
 5833.00    1.08819   1.07082    0.000
 5834.00    1.09751   1.06603    0.000
 5835.00    1.06308   1.06322    0.000
 5836.00    1.02569   1.06252    0.000
 5837.00    1.02170   1.06307    0.000
 5838.00    1.01882   1.06542    0.000
 5839.00    1.04297   1.07012    0.000
 5840.00    1.06592   1.07604    0.000
 5841.00    1.05055   1.08123    0.000
 5842.00    1.03927   1.08372    0.000
 5843.00    1.08982   1.08199    0.000
 5844.00    1.13581   1.07604    0.000
 5845.00    1.13754   1.06747    0.000
 5846.00    1.13394   1.05846    0.000
 5847.00    1.09291   1.05127    0.000
 5848.00    1.06294   1.04672    0.000
 5849.00    1.09268   1.04342    0.000
 5850.00    1.11095   1.03889    0.000
 5851.00    1.07952   1.03133    0.000
 5852.00    1.05028   1.02120    0.000
 5853.00    1.02884   1.01114    0.000
 5854.00    1.00711   1.00289    0.000
 5855.00    0.98453   0.99525    0.000
 5856.00    0.96848   0.98723    0.000
 5857.00    0.96908   0.98141    0.000
 5858.00    0.96640   0.98142    0.000
 5859.00    0.95650   0.98779    0.000
 5860.00    0.95514   0.99813    0.000
 5861.00    0.97005   1.00850    0.000
 5862.00    0.98333   1.01617    0.000
 5863.00    0.99390   1.02124    0.000
 5864.00    0.99076   1.02421    0.000
 5865.00    0.96766   1.02540    0.000
 5866.00    0.95238   1.02650    0.000
 5867.00    0.94712   1.02983    0.000
 5868.00    0.96139   1.03566    0.000
 5869.00    0.99769   1.04221    0.000
 5870.00    1.03730   1.04726    0.000
 5871.00    1.08020   1.04926    0.000
 5872.00    1.06997   1.04855    0.000
 5873.00    1.01308   1.04705    0.000
 5874.00    0.99482   1.04571    0.000
 5875.00    1.00644   1.04344    0.000
 5876.00    1.01996   1.03904    0.000
 5877.00    1.03476   1.03223    0.000
 5878.00    1.03217   1.02362    0.000
 5879.00    1.01921   1.01480    0.000
 5880.00    1.02104   1.00812    0.000
 5881.00    1.03057   1.00455    0.000
 5882.00    1.01902   1.00232    0.000
 5883.00    0.99798   0.99905    0.000
 5884.00    0.97720   0.99234    0.000
 5885.00    0.95652   0.97752    0.000
 5886.00    0.95217   0.94880    0.000
 5887.00    0.95321   0.90369    0.000
 5888.00    0.96000   0.84701    0.000
 5889.00    0.96838   0.79455    0.000
 5890.00    0.94218   0.76575    0.000
 5891.00    0.90812   0.76531    0.000
 5892.00    0.88032   0.78091    0.000
 5893.00    0.85367   0.79638    0.000
 5894.00    0.87638   0.80068    0.000
 5895.00    0.90600   0.79758    0.000
 5896.00    0.91865   0.80380    0.000
 5897.00    0.92960   0.82844    0.000
 5898.00    0.93026   0.86638    0.000
 5899.00    0.93027   0.90846    0.000
 5900.00    0.96144   0.94578    0.000
 5901.00    0.99334   0.97238    0.019
 5902.00    0.95868   0.98844    0.019
 5903.00    0.92638   0.99706    0.019
 5904.00    0.96025   1.00064    0.020
 5905.00    0.99364   1.00191    0.021
 5906.00    1.02031   1.00375    0.021
 5907.00    1.04299   1.00721    0.020
 5908.00    1.02846   1.01144    0.020
 5909.00    1.01011   1.01511    0.020
 5910.00    0.96577   1.01684    0.019
 5911.00    0.93719   1.01489    0.018
 5912.00    0.99156   1.00808    0.018
 5913.00    1.03212   0.99793    0.018
 5914.00    1.01424   0.98866    0.018
 5915.00    0.99916   0.98394    0.018
 5916.00    0.99391   0.98550    0.018
 5917.00    0.99730   0.99224    0.018
 5918.00    1.02613   1.00082    0.018
 5919.00    1.04702   1.00830    0.018
 5920.00    1.04800   1.01295    0.018
 5921.00    1.04756   1.01459    0.018
 5922.00    1.04404   1.01514    0.018
 5923.00    1.02628   1.01621    0.018
 5924.00    0.98181   1.01772    0.018
 5925.00    0.95749   1.01858    0.018
 5926.00    0.96614   1.01692    0.018
 5927.00    0.98595   1.01189    0.018
 5928.00    1.02180   1.00502    0.018
 5929.00    1.03491   0.99924    0.018
 5930.00    1.01932   0.99749    0.018
 5931.00    1.02414   0.99970    0.018
 5932.00    1.05168   1.00248    0.018
 5933.00    1.06062   1.00321    0.018
 5934.00    1.05131   1.00285    0.018
 5935.00    1.04252   1.00417    0.018
 5936.00    1.03417   1.00790    0.018
 5937.00    1.03074   1.01258    0.018
 5938.00    1.03107   1.01612    0.018
 5939.00    1.00898   1.01609    0.018
 5940.00    0.97187   1.01225    0.018
 5941.00    0.93784   1.00793    0.018
 5942.00    0.90562   1.00646    0.017
 5943.00    0.90890   1.00857    0.017
 5944.00    0.93035   1.01272    0.018
 5945.00    0.96399   1.01592    0.018
 5946.00    1.00305   1.01536    0.018
 5947.00    1.02233   1.01052    0.018
 5948.00    1.03407   1.00382    0.018
 5949.00    1.02229   0.99885    0.018
 5950.00    1.00289   0.99668    0.018
 5951.00    0.99570   0.99531    0.018
 5952.00    0.99181   0.99381    0.018
 5953.00    1.00545   0.99336    0.018
 5954.00    1.02298   0.99376    0.018
 5955.00    1.01147   0.99357    0.018
 5956.00    0.99482   0.99317    0.018
 5957.00    0.99444   0.99432    0.018
 5958.00    0.99625   0.99831    0.018
 5959.00    0.98250   1.00525    0.018
 5960.00    0.96725   1.01381    0.018
 5961.00    0.95607   1.02135    0.018
 5962.00    0.94512   1.02571    0.018
 5963.00    0.99465   1.02654    0.018
 5964.00    1.04532   1.02465    0.018
 5965.00    1.03538   1.02204    0.018
 5966.00    1.02616   1.02147    0.018
 5967.00    1.03533   1.02379    0.018
 5968.00    1.04506   1.02795    0.018
 5969.00    1.06237   1.03275    0.018
 5970.00    1.07680   1.03661    0.018
 5971.00    1.06545   1.03782    0.018
 5972.00    1.05449   1.03553    0.018
 5973.00    1.04602   1.02946    0.018
 5974.00    1.03467   1.01978    0.018
 5975.00    1.00862   1.00835    0.018
 5976.00    0.98920   0.99874    0.018
 5977.00    0.99731   0.99381    0.018
 5978.00    1.00373   0.99423    0.018
 5979.00    1.00438   0.99821    0.017
 5980.00    1.00204   1.00146    0.017
 5981.00    0.99105   1.00002    0.017
 5982.00    0.98553   0.99284    0.017
 5983.00    0.99348   0.98254    0.018
 5984.00    0.99849   0.97479    0.018
 5985.00    0.99725   0.97358    0.018
 5986.00    0.99648   0.97812    0.018
 5987.00    0.99656   0.98570    0.018
 5988.00    1.00812   0.99365    0.018
 5989.00    1.03818   0.99948    0.018
 5990.00    1.05124   1.00241    0.018
 5991.00    1.04027   1.00431    0.018
 5992.00    1.03531   1.00723    0.018
 5993.00    1.03784   1.01037    0.018
 5994.00    1.04113   1.01134    0.018
 5995.00    1.04525   1.00856    0.018
 5996.00    1.04103   1.00238    0.018
 5997.00    1.02873   0.99546    0.018
 5998.00    1.01659   0.99096    0.018
 5999.00    1.00459   0.98978    0.018
 6000.00    1.00529   0.99048    0.018
 6001.00    1.01552   0.99071    0.018
 6002.00    1.01448   0.98952    0.018
 6003.00    1.00599   0.98769    0.017
 6004.00    1.01638   0.98480    0.017
 6005.00    1.03769   0.97972    0.018
 6006.00    1.02650   0.97304    0.017
 6007.00    0.99895   0.96715    0.017
 6008.00    0.99712   0.96580    0.017
 6009.00    1.00651   0.97023    0.017
 6010.00    1.01386   0.97656    0.017
 6011.00    1.02045   0.98003    0.017
 6012.00    1.02114   0.97916    0.017
 6013.00    1.01997   0.97593    0.017
 6014.00    0.99827   0.97280    0.018
 6015.00    0.97114   0.97019    0.018
 6016.00    0.97769   0.96820    0.018
 6017.00    0.99154   0.96691    0.018
 6018.00    0.98949   0.96498    0.018
 6019.00    0.98471   0.96195    0.018
 6020.00    0.95346   0.95982    0.018
 6021.00    0.91875   0.96023    0.018
 6022.00    0.92317   0.96314    0.018
 6023.00    0.93119   0.96810    0.018
 6024.00    0.93788   0.97496    0.018
 6025.00    0.94449   0.98240    0.018
 6026.00    0.95794   0.98894    0.018
 6027.00    0.97158   0.99508    0.017
 6028.00    0.98873   1.00122    0.018
 6029.00    1.00474   1.00649    0.018
 6030.00    0.99448   1.01065    0.018
 6031.00    0.98338   1.01434    0.018
 6032.00    0.96144   1.01756    0.018
 6033.00    0.94403   1.01987    0.017
 6034.00    0.96554   1.02134    0.017
 6035.00    0.98951   1.02221    0.017
 6036.00    1.02916   1.02227    0.018
 6037.00    1.06131   1.02121    0.018
 6038.00    1.05606   1.01883    0.018
 6039.00    1.04922   1.01556    0.018
 6040.00    1.03595   1.01258    0.017
 6041.00    1.02428   1.01113    0.017
 6042.00    1.01799   1.01226    0.017
 6043.00    1.01634   1.01576    0.017
 6044.00    1.02780   1.01998    0.017
 6045.00    1.04176   1.02364    0.017
 6046.00    1.06176   1.02630    0.017
 6047.00    1.07772   1.02762    0.018
 6048.00    1.08522   1.02769    0.017
 6049.00    1.08173   1.02700    0.017
 6050.00    1.05826   1.02512    0.017
 6051.00    1.03405   1.02103    0.017
 6052.00    1.00865   1.01466    0.017
 6053.00    0.99003   1.00730    0.017
 6054.00    0.98088   1.00035    0.018
 6055.00    0.96920   0.99505    0.018
 6056.00    0.95441   0.99290    0.018
 6057.00    0.95884   0.99449    0.018
 6058.00    0.98407   0.99856    0.018
 6059.00    1.00496   1.00278    0.018
 6060.00    1.02171   1.00458    0.018
 6061.00    1.03166   1.00208    0.018
 6062.00    1.03588   0.99536    0.018
 6063.00    1.04034   0.98651    0.018
 6064.00    1.04497   0.97891    0.018
 6065.00    1.03497   0.97727    0.018
 6066.00    1.01546   0.98409    0.017
 6067.00    0.99962   0.99658    0.017
 6068.00    0.98588   1.00993    0.017
 6069.00    0.99647   1.02091    0.017
 6070.00    1.01912   1.02826    0.017
 6071.00    1.04847   1.03216    0.017
 6072.00    1.08070   1.03345    0.018
 6073.00    1.06442   1.03255    0.017
 6074.00    1.03031   1.02903    0.017
 6075.00    1.01846   1.02248    0.017
 6076.00    1.01353   1.01319    0.017
 6077.00    1.01403   1.00227    0.017
 6078.00    1.01594   0.99208    0.017
 6079.00    0.99858   0.98473    0.017
 6080.00    0.97713   0.97960    0.017
 6081.00    0.96199   0.97548    0.017
 6082.00    0.94790   0.97306    0.017
 6083.00    0.94401   0.97269    0.017
 6084.00    0.94139   0.97338    0.017
 6085.00    0.95298   0.97487    0.017
 6086.00    0.96581   0.97709    0.017
 6087.00    0.96754   0.97870    0.017
 6088.00    0.96870   0.97792    0.017
 6089.00    0.93919   0.97465    0.017
 6090.00    0.90923   0.97107    0.017
 6091.00    0.88609   0.96933    0.017
 6092.00    0.86429   0.97032    0.017
 6093.00    0.87112   0.97437    0.017
 6094.00    0.88044   0.98067    0.017
 6095.00    0.92003   0.98645    0.017
 6096.00    0.95726   0.98983    0.018
 6097.00    0.97484   0.99088    0.017
 6098.00    0.98745   0.98917    0.017
 6099.00    0.96924   0.98311    0.017
 6100.00    0.95300   0.97135    0.017
 6101.00    0.94632   0.95503    0.017
 6102.00    0.94706   0.94076    0.017
 6103.00    0.97713   0.93666    0.017
 6104.00    1.00098   0.94335    0.017
 6105.00    1.00437   0.95552    0.017
 6106.00    1.00414   0.96791    0.017
 6107.00    0.99386   0.97744    0.017
 6108.00    0.98456   0.98353    0.017
 6109.00    0.97760   0.98688    0.017
 6110.00    0.96944   0.98808    0.017
 6111.00    0.95883   0.98866    0.018
 6112.00    0.95460   0.99020    0.018
 6113.00    0.96180   0.99223    0.018
 6114.00    0.97317   0.99304    0.018
 6115.00    0.99107   0.99155    0.018
 6116.00    1.00104   0.98808    0.017
 6117.00    1.00010   0.98269    0.017
 6118.00    0.99401   0.97398    0.017
 6119.00    0.98170   0.96170    0.017
 6120.00    0.96590   0.94801    0.017
 6121.00    0.94638   0.93669    0.018
 6122.00    0.93745   0.93284    0.018
 6123.00    0.93849   0.93799    0.018
 6124.00    0.94679   0.94733    0.018
 6125.00    0.96111   0.95551    0.018
 6126.00    0.97734   0.96041    0.018
 6127.00    0.99498   0.96217    0.017
 6128.00    0.99776   0.96314    0.017
 6129.00    0.99102   0.96628    0.017
 6130.00    0.99272   0.97145    0.017
 6131.00    0.99916   0.97552    0.017
 6132.00    0.97576   0.97458    0.017
 6133.00    0.93779   0.96507    0.017
 6134.00    0.92523   0.94580    0.017
 6135.00    0.92339   0.92045    0.017
 6136.00    0.93290   0.89782    0.017
 6137.00    0.94651   0.88804    0.017
 6138.00    0.94801   0.89429    0.017
 6139.00    0.94582   0.90987    0.017
 6140.00    0.93972   0.92583    0.017
 6141.00    0.93262   0.93899    0.018
 6142.00    0.90835   0.95075    0.018
 6143.00    0.88053   0.96146    0.017
 6144.00    0.90883   0.96977    0.017
 6145.00    0.94625   0.97431    0.017
 6146.00    0.99201   0.97398    0.017
 6147.00    1.03878   0.96889    0.018
 6148.00    1.01812   0.96182    0.017
 6149.00    0.99184   0.95640    0.017
 6150.00    0.95787   0.95457    0.017
 6151.00    0.92353   0.95578    0.017
 6152.00    0.90741   0.95775    0.017
 6153.00    0.89200   0.95776    0.017
 6154.00    0.90219   0.95542    0.017
 6155.00    0.91252   0.95228    0.017
 6156.00    0.92554   0.94835    0.017
 6157.00    0.93781   0.94181    0.017
 6158.00    0.94138   0.93048    0.017
 6159.00    0.94308   0.91206    0.017
 6160.00    0.92973   0.88715    0.017
 6161.00    0.91563   0.86287    0.017
 6162.00    0.89698   0.84884    0.017
 6163.00    0.88188   0.84934    0.017
 6164.00    0.88362   0.86122    0.017
 6165.00    0.89052   0.87729    0.017
 6166.00    0.91742   0.89079    0.017
 6167.00    0.93786   0.89666    0.017
 6168.00    0.93746   0.89426    0.017
 6169.00    0.93647   0.88989    0.017
 6170.00    0.93387   0.89120    0.017
 6171.00    0.93404   0.89901    0.017
 6172.00    0.94072   0.90926    0.017
 6173.00    0.94061   0.91911    0.017
 6174.00    0.92676   0.92681    0.017
 6175.00    0.91979   0.93118    0.017
 6176.00    0.92497   0.93355    0.017
 6177.00    0.93377   0.93659    0.017
 6178.00    0.94816   0.94058    0.017
 6179.00    0.95410   0.94441    0.017
 6180.00    0.94857   0.94840    0.017
 6181.00    0.93963   0.95239    0.017
 6182.00    0.92664   0.95474    0.017
 6183.00    0.91538   0.95446    0.017
 6184.00    0.90595   0.95121    0.017
 6185.00    0.92094   0.94449    0.017
 6186.00    0.95860   0.93504    0.018
 6187.00    0.97099   0.92457    0.018
 6188.00    0.96271   0.91408    0.018
 6189.00    0.94398   0.90353    0.018
 6190.00    0.91772   0.89398    0.018
 6191.00    0.89237   0.88999    0.017
 6192.00    0.86759   0.89528    0.017
 6193.00    0.87172   0.90755    0.017
 6194.00    0.89181   0.92190    0.017
 6195.00    0.91967   0.93455    0.018
 6196.00    0.95124   0.94227   -2.000
 6197.00    0.75460   0.94300   -2.000
 6198.00    0.46335   0.93800   -2.000
 6199.00    0.22503   0.93201   -2.000
 6200.00    0.00547   0.93003   -2.000
 6201.00    0.16184   0.93348   -2.000
 6202.00    0.43072   0.94014   -2.000
 6203.00    0.85698   0.94712   -2.000
 6204.00    1.32234   0.95250   -2.000
 6205.00    1.40908   0.95558   -2.000
 6206.00    1.41958   0.95645   -2.000
 6207.00    1.26746   0.95554   -2.000
 6208.00    1.08969   0.95280    0.018
 6209.00    1.02051   0.94744    0.018
 6210.00    0.96406   0.93871    0.018
 6211.00    0.97650   0.92641    0.017
 6212.00    0.99441   0.91106    0.017
 6213.00    0.97570   0.89537    0.017
 6214.00    0.95538   0.88340    0.017
 6215.00    0.94598   0.87759    0.017
 6216.00    0.93654   0.87754    0.017
 6217.00    0.91918   0.88025    0.017
 6218.00    0.90141   0.88230    0.017
 6219.00    0.87612   0.88333    0.017
 6220.00    0.85399   0.88533    0.017
 6221.00    0.86672   0.88955    0.017
 6222.00    0.88038   0.89522    0.017
 6223.00    0.90122   0.90080    0.017
 6224.00    0.91898   0.90538    0.017
 6225.00    0.91873   0.90798    0.017
 6226.00    0.91702   0.90713    0.017
 6227.00    0.90856   0.90177    0.017
 6228.00    0.90412   0.89131    0.017
 6229.00    0.91486   0.87741    0.017
 6230.00    0.92006   0.86561    0.017
 6231.00    0.90766   0.86184    0.017
 6232.00    0.90118   0.86768    0.017
 6233.00    0.91062   0.88107    0.017
 6234.00    0.91228   0.89683    0.017
 6235.00    0.89605   0.90831    0.017
 6236.00    0.88024   0.91143    0.017
 6237.00    0.86527   0.90659    0.017
 6238.00    0.85834   0.89677    0.017
 6239.00    0.86538   0.88569    0.017
 6240.00    0.87282   0.87670    0.017
 6241.00    0.88086   0.87003    0.017
 6242.00    0.88896   0.86406    0.017
 6243.00    0.89711   0.85968    0.017
 6244.00    0.89770   0.85837    0.017
 6245.00    0.88939   0.86058    0.017
 6246.00    0.87574   0.86719    0.017
 6247.00    0.85656   0.87740    0.017
 6248.00    0.85393   0.88708    0.017
 6249.00    0.86643   0.89197    0.017
 6250.00    0.88471   0.88982    0.017
 6251.00    0.90764   0.88082    0.017
 6252.00    0.90673   0.86852    0.017
 6253.00    0.88891   0.85712    0.016
 6254.00    0.86292   0.84846    0.016
 6255.00    0.83183   0.84210    0.016
 6256.00    0.80978   0.83760    0.016
 6257.00    0.79265   0.83593    0.017
 6258.00    0.78829   0.83926    0.017
 6259.00    0.78998   0.84880    0.018
 6260.00    0.73420   0.86251    0.019
 6261.00    0.65500   0.87746    0.020
 6262.00    0.66541   0.89069    0.021
 6263.00    0.70699   0.89884    0.022
 6264.00    0.80911   0.90116    0.022
 6265.00    0.92898   0.90085    0.021
 6266.00    1.04823   0.90075    0.020
 6267.00    1.16733   0.90085    0.020
 6268.00    1.14719   0.90079    0.019
 6269.00    1.09972   0.90129    0.018
 6270.00    1.02023   0.90295    0.018
 6271.00    0.93583   0.90583    0.017
 6272.00    0.91346   0.90936    0.017
 6273.00    0.89809   0.91246    0.017
 6274.00    0.88875   0.91440    0.017
 6275.00    0.87986   0.91478    0.017
 6276.00    0.88439   0.91311    0.016
 6277.00    0.88947   0.90935    0.016
 6278.00    0.88412   0.90391    0.017
 6279.00    0.87877   0.89781    0.017
 6280.00    0.87653   0.89362    0.000
 6281.00    0.87500   0.89341    0.000
 6282.00    0.88569   0.89722    0.000
 6283.00    0.89463   0.90365    0.000
 6284.00    0.88525   0.91062    0.000
 6285.00    0.87809   0.91714    0.000
 6286.00    0.88750   0.92306    0.000
 6287.00    0.89569   0.92777    0.000
 6288.00    0.89686   0.93012    0.000
 6289.00    0.89863   0.92902    0.000
 6290.00    0.90312   0.92483    0.000
 6291.00    0.91265   0.91919    0.000
 6292.00    0.94089   0.91364    0.000
 6293.00    0.95915   0.90907    0.000
 6294.00    0.94640   0.90483    0.000
 6295.00    0.93427   0.89935    0.000
 6296.00    0.92375   0.89280    0.000
 6297.00    0.91322   0.88689    0.000
 6298.00    0.90265   0.88258    0.000
 6299.00    0.89984   0.87910    0.000
 6300.00    0.91224   0.87583    0.000
 6301.00    0.92635   0.87410    0.000
 6302.00    0.94337   0.87601    0.000
 6303.00    0.94407   0.88164    0.000
 6304.00    0.92035   0.88948    0.000
 6305.00    0.90570   0.89847    0.000
 6306.00    0.90299   0.90769    0.000
 6307.00    0.90130   0.91491    0.000
 6308.00    0.90079   0.91790    0.000
 6309.00    0.90476   0.91613    0.000
 6310.00    0.91332   0.91084    0.000
 6311.00    0.90972   0.90402    0.000
 6312.00    0.89517   0.89698    0.000
 6313.00    0.89267   0.88937    0.000
 6314.00    0.89977   0.88113    0.000
 6315.00    0.90669   0.87371    0.000
 6316.00    0.91351   0.86748    0.000
 6317.00    0.92224   0.86257    0.000
 6318.00    0.93214   0.86147    0.000
 6319.00    0.92549   0.86567    0.000
 6320.00    0.90998   0.87337    0.000
 6321.00    0.90311   0.88233    0.017
 6322.00    0.90026   0.89177    0.019
 6323.00    0.91076   0.90103    0.019
 6324.00    0.92660   0.90866    0.019
 6325.00    0.94158   0.91381    0.019
 6326.00    0.95626   0.91655    0.019
 6327.00    0.96096   0.91776    0.018
 6328.00    0.96279   0.91813    0.017
 6329.00    0.96378   0.91750    0.017
 6330.00    0.96457   0.91638    0.017
 6331.00    0.94426   0.91499    0.017
 6332.00    0.91991   0.91186    0.017
 6333.00    0.89786   0.90494    0.016
 6334.00    0.87614   0.89413    0.016
 6335.00    0.87207   0.88312    0.016
 6336.00    0.86990   0.87659    0.016
 6337.00    0.86493   0.87612    0.016
 6338.00    0.85976   0.88024    0.016
 6339.00    0.87987   0.88686    0.017
 6340.00    0.90089   0.89274    0.017
 6341.00    0.91346   0.89455    0.017
 6342.00    0.92588   0.89175    0.017
 6343.00    0.93392   0.88708    0.017
 6344.00    0.94195   0.88429    0.017
 6345.00    0.94980   0.88496    0.017
 6346.00    0.95675   0.88881    0.017
 6347.00    0.95470   0.89523    0.017
 6348.00    0.95257   0.90254    0.017
 6349.00    0.94995   0.90858    0.017
 6350.00    0.94715   0.91213    0.017
 6351.00    0.94337   0.91256    0.017
 6352.00    0.94224   0.90929    0.017
 6353.00    0.95285   0.90253    0.017
 6354.00    0.95851   0.89411    0.017
 6355.00    0.94611   0.88616    0.017
 6356.00    0.93259   0.87845    0.017
 6357.00    0.91562   0.86961    0.017
 6358.00    0.90243   0.86012    0.017
 6359.00    0.89903   0.85146    0.017
 6360.00    0.90687   0.84424    0.017
 6361.00    0.93973   0.83948    0.017
 6362.00    0.96204   0.83907    0.017
 6363.00    0.96399   0.84387    0.017
 6364.00    0.95262   0.85284    0.017
 6365.00    0.91881   0.86411    0.017
 6366.00    0.90449   0.87585    0.017
 6367.00    0.91890   0.88638    0.017
 6368.00    0.92805   0.89404    0.018
 6369.00    0.93038   0.89881    0.017
 6370.00    0.94830   0.90256    0.018
 6371.00    0.98404   0.90711    0.018
 6372.00    0.99762   0.91226    0.018
 6373.00    0.98886   0.91652    0.018
 6374.00    0.96133   0.91893    0.017
 6375.00    0.91712   0.91928    0.017
 6376.00    0.89774   0.91731    0.017
 6377.00    0.89781   0.91315    0.017
 6378.00    0.88896   0.90826    0.017
 6379.00    0.87398   0.90421    0.017
 6380.00    0.86369   0.90182    0.017
 6381.00    0.85623   0.90143    0.017
 6382.00    0.86992   0.90234    0.017
 6383.00    0.89476   0.90368    0.017
 6384.00    0.91601   0.90563    0.017
 6385.00    0.93563   0.90860    0.016
 6386.00    0.93922   0.91194    0.016
 6387.00    0.93650   0.91444    0.016
 6388.00    0.92250   0.91519    0.017
 6389.00    0.90470   0.91317    0.017
 6390.00    0.89641   0.90733    0.017
 6391.00    0.89079   0.89773    0.016
 6392.00    0.88016   0.88710    0.017
 6393.00    0.86836   0.88058    0.017
 6394.00    0.85848   0.88113    0.017
 6395.00    0.84895   0.88635    0.018
 6396.00    0.84830   0.89157    0.018
 6397.00    0.84892   0.89252    0.018
 6398.00    0.86355   0.88762    0.018
 6399.00    0.87963   0.88041    0.018
 6400.00    0.89563   0.87797    0.018
 6401.00    0.91162   0.88299    0.018
 6402.00    0.94084   0.89219    0.018
 6403.00    0.97049   0.90118    0.018
 6404.00    0.97602   0.90623    0.018
 6405.00    0.98050   0.90548    0.017
 6406.00    0.95237   0.89975    0.017
 6407.00    0.92590   0.89251    0.017
 6408.00    0.92415   0.88749    0.017
 6409.00    0.92138   0.88482    0.017
 6410.00    0.90861   0.88283    0.017
 6411.00    0.89789   0.88211    0.017
 6412.00    0.90144   0.88337    0.017
 6413.00    0.90883   0.88574    0.017
 6414.00    0.93690   0.88850    0.017
 6415.00    0.96019   0.89100    0.017
 6416.00    0.96288   0.89168    0.017
 6417.00    0.95809   0.88933    0.017
 6418.00    0.92672   0.88393    0.017
 6419.00    0.89922   0.87752    0.017
 6420.00    0.88332   0.87404    0.017
 6421.00    0.86972   0.87680    0.017
 6422.00    0.86199   0.88547    0.018
 6423.00    0.86614   0.89628    0.018
 6424.00    0.89632   0.90599    0.017
 6425.00    0.90899   0.91300    0.017
 6426.00    0.88840   0.91618    0.018
 6427.00    0.86034   0.91434    0.018
 6428.00    0.81990   0.90705    0.018
 6429.00    0.80183   0.89569    0.018
 6430.00    0.81627   0.88455    0.018
 6431.00    0.85048   0.87868    0.018
 6432.00    0.90994   0.87968    0.018
 6433.00    0.93546   0.88562    0.017
 6434.00    0.92274   0.89261    0.017
 6435.00    0.90306   0.89669    0.017
 6436.00    0.87645   0.89554    0.017
 6437.00    0.86872   0.88968    0.017
 6438.00    0.87755   0.88371    0.017
 6439.00    0.89047   0.88338    0.017
 6440.00    0.90656   0.88986    0.017
 6441.00    0.93151   0.90005    0.017
 6442.00    0.96247   0.91045    0.017
 6443.00    0.95813   0.91846    0.017
 6444.00    0.93280   0.92261    0.017
 6445.00    0.89127   0.92183    0.017
 6446.00    0.84134   0.91500    0.017
 6447.00    0.82301   0.90151    0.018
 6448.00    0.81890   0.88325    0.018
 6449.00    0.81598   0.86660    0.018
 6450.00    0.81352   0.85850    0.018
 6451.00    0.83447   0.86002    0.018
 6452.00    0.86311   0.86738    0.018
 6453.00    0.90504   0.87530    0.018
 6454.00    0.95063   0.88016    0.018
 6455.00    0.94702   0.88274    0.018
 6456.00    0.93225   0.88621    0.018
 6457.00    0.92312   0.89180    0.018
 6458.00    0.91503   0.89745    0.018
 6459.00    0.90660   0.89962    0.018
 6460.00    0.89813   0.89562    0.018
 6461.00    0.90499   0.88619    0.017
 6462.00    0.91337   0.87697    0.017
 6463.00    0.93200   0.87382    0.017
 6464.00    0.95127   0.87750    0.017
 6465.00    0.92882   0.88546    0.017
 6466.00    0.90524   0.89404    0.017
 6467.00    0.90131   0.89987    0.017
 6468.00    0.89715   0.90121    0.017
 6469.00    0.88626   0.89889    0.017
 6470.00    0.87561   0.89520    0.017
 6471.00    0.86829   0.89282    0.017
 6472.00    0.86237   0.89306    0.017
 6473.00    0.86947   0.89470    0.018
 6474.00    0.87628   0.89642    0.018
 6475.00    0.88120   0.89826    0.018
 6476.00    0.89102   0.90005    0.018
 6477.00    0.92649   0.90054    0.018
 6478.00    0.95532   0.89878    0.018
 6479.00    0.95608   0.89421    0.018
 6480.00    0.95126   0.88668    0.018
 6481.00    0.92696   0.87810    0.018
 6482.00    0.90726   0.87225    0.018
 6483.00    0.90110   0.87153    0.018
 6484.00    0.89843   0.87539    0.018
 6485.00    0.90448   0.88150    0.017
 6486.00    0.90708   0.88728    0.017
 6487.00    0.90223   0.89039    0.017
 6488.00    0.89577   0.88888    0.017
 6489.00    0.88630   0.88174    0.017
 6490.00    0.88575   0.86897    0.017
 6491.00    0.89977   0.85087    0.017
 6492.00    0.89643   0.82780    0.017
 6493.00    0.86819   0.80222    0.017
 6494.00    0.85547   0.78009    0.017
 6495.00    0.86230   0.76704    0.017
 6496.00    0.86881   0.76525    0.017
 6497.00    0.87496   0.77357    0.018
 6498.00    0.86798   0.78849    0.018
 6499.00    0.84814   0.80695    0.018
 6500.00    0.84548   0.82615    0.018
 6501.00    0.85765   0.84356    0.018
 6502.00    0.84636   0.85814    0.018
 6503.00    0.81721   0.86959    0.018
 6504.00    0.81283   0.87794    0.018
 6505.00    0.82503   0.88333    0.018
 6506.00    0.85025   0.88580    0.018
 6507.00    0.88309   0.88601    0.018
 6508.00    0.90289   0.88549    0.018
 6509.00    0.91602   0.88556    0.017
 6510.00    0.92909   0.88625    0.017
 6511.00    0.94213   0.88670    0.018
 6512.00    0.93703   0.88603    0.018
 6513.00    0.92503   0.88334    0.017
 6514.00    0.90966   0.87821    0.018
 6515.00    0.89319   0.87178    0.018
 6516.00    0.90001   0.86601    0.017
 6517.00    0.91312   0.86236    0.017
 6518.00    0.92450   0.86219    0.018
 6519.00    0.93549   0.86601    0.018
 6520.00    0.92051   0.87224    0.018
 6521.00    0.90094   0.87860    0.017
 6522.00    0.88209   0.88340    0.018
 6523.00    0.86333   0.88587    0.018
 6524.00    0.86887   0.88563    0.018
 6525.00    0.87674   0.88275    0.018
 6526.00    0.88009   0.87875    0.018
 6527.00    0.88317   0.87580    0.018
 6528.00    0.86912   0.87468    0.000
 6529.00    0.85486   0.87448    0.000
 6530.00    0.87187   0.87386    0.000
 6531.00    0.88909   0.87230    0.000
 6532.00    0.91145   0.87081    0.000
 6533.00    0.93296   0.87082    0.000
 6534.00    0.94303   0.87286    0.000
 6535.00    0.95210   0.87593    0.000
 6536.00    0.95230   0.87883    0.000
 6537.00    0.95197   0.88140    0.000
 6538.00    0.94816   0.88370    0.000
 6539.00    0.94412   0.88493    0.000
 6540.00    0.93889   0.88392    0.000
 6541.00    0.93223   0.88021    0.000
 6542.00    0.91970   0.87400    0.000
 6543.00    0.90804   0.86590    0.000
 6544.00    0.89936   0.85681    0.000
 6545.00    0.89111   0.84850    0.000
 6546.00    0.88414   0.84353    0.000
 6547.00    0.87985   0.84277    0.000
 6548.00    0.88218   0.84457    0.000
 6549.00    0.89004   0.84633    0.000
 6550.00    0.90961   0.84584    0.000
 6551.00    0.91053   0.84229    0.000
 6552.00    0.87707   0.83581    0.000
 6553.00    0.85567   0.82722    0.000
 6554.00    0.85367   0.81817    0.000
 6555.00    0.84830   0.81027    0.000
 6556.00    0.83815   0.80351    0.000
 6557.00    0.83060   0.79542    0.000
 6558.00    0.82628   0.78236    0.000
 6559.00    0.83865   0.76124    0.000
 6560.00    0.86929   0.73140    0.000
 6561.00    0.90019   0.69772    0.000
 6562.00    0.93133   0.67252    0.000
 6563.00    0.96019   0.66815    0.000
 6564.00    0.98711   0.68583    0.000
 6565.00    0.98672   0.71741    0.000
 6566.00    0.96585   0.75215    0.000
 6567.00    0.92583   0.78094    0.000
 6568.00    0.87318   0.79938    0.000
 6569.00    0.85400   0.80858    0.000
 6570.00    0.85413   0.81166    0.000
 6571.00    0.86330   0.81123    0.000
 6572.00    0.87701   0.80951    0.000
 6573.00    0.89129   0.80878    0.000
 6574.00    0.90581   0.81118    0.000
 6575.00    0.88106   0.81791    0.000
 6576.00    0.84165   0.82769    0.000
 6577.00    0.84061   0.83756    0.000
 6578.00    0.85171   0.84468    0.000
 6579.00    0.86655   0.84778    0.000
 6580.00    0.88236   0.84791    0.000
 6581.00    0.89443   0.84735    0.000
 6582.00    0.90569   0.84758    0.000
 6583.00    0.95235   0.84866    0.000
 6584.00    1.00509   0.85010    0.000
 6585.00    0.99096   0.85161    0.000
 6586.00    0.96814   0.85347    0.000
 6587.00    0.95091   0.85543    0.000
 6588.00    0.93420   0.85604    0.000
 6589.00    0.91697   0.85353    0.000
 6590.00    0.89971   0.84644    0.000
 6591.00    0.88210   0.83513    0.000
 6592.00    0.86459   0.82322    0.000
 6593.00    0.85712   0.81591    0.000
 6594.00    0.85010   0.81548    0.000
 6595.00    0.85359   0.82024    0.000
 6596.00    0.85549   0.82729    0.000
 6597.00    0.83728   0.83449    0.000
 6598.00    0.82388   0.84127    0.000
 6599.00    0.85165   0.84777    0.000
 6600.00    0.87933   0.85342    0.000
 6601.00    0.90649   0.85703    0.000
 6602.00    0.93094   0.85751    0.000
 6603.00    0.94194   0.85457    0.000
 6604.00    0.94285   0.84892    0.000
 6605.00    0.90302   0.84202    0.000
 6606.00    0.87495   0.83521    0.000
 6607.00    0.88626   0.82975    0.000
 6608.00    0.89011   0.82717    0.000
 6609.00    0.87285   0.82884    0.019
 6610.00    0.85800   0.83427    0.019
 6611.00    0.84899   0.84113    0.019
 6612.00    0.84560   0.84731    0.019
 6613.00    0.85390   0.85230    0.019
 6614.00    0.86226   0.85643    0.018
 6615.00    0.87070   0.85958    0.018
 6616.00    0.86487   0.86167    0.018
 6617.00    0.83639   0.86319    0.019
 6618.00    0.82100   0.86446    0.019
 6619.00    0.82384   0.86521    0.019
 6620.00    0.81905   0.86469    0.019
 6621.00    0.80491   0.86211    0.019
 6622.00    0.79943   0.85719    0.019
 6623.00    0.80330   0.85082    0.020
 6624.00    0.81702   0.84513    0.020
 6625.00    0.84010   0.84195    0.020
 6626.00    0.85076   0.84118    0.020
 6627.00    0.85096   0.84151    0.020
 6628.00    0.83821   0.84135    0.020
 6629.00    0.81589   0.83936    0.020
 6630.00    0.82191   0.83503    0.020
 6631.00    0.84635   0.82883    0.020
 6632.00    0.85958   0.82234    0.020
 6633.00    0.86646   0.81820    0.020
 6634.00    0.83653   0.81840    0.020
 6635.00    0.78838   0.82267    0.019
 6636.00    0.76929   0.82891    0.019
 6637.00    0.76263   0.83465    0.019
 6638.00    0.74693   0.83827    0.019
 6639.00    0.72790   0.83959    0.018
 6640.00    0.75758   0.83911    0.019
 6641.00    0.80238   0.83689    0.019
 6642.00    0.80028   0.83349    0.019
 6643.00    0.78604   0.83084    0.020
 6644.00    0.82236   0.83034    0.020
 6645.00    0.86934   0.83170    0.020
 6646.00    0.91037   0.83404    0.020
 6647.00    0.95039   0.83673    0.021
 6648.00    0.94694   0.83922    0.021
 6649.00    0.93804   0.84094    0.021
 6650.00    0.85314   0.84159    0.021
 6651.00    0.76163   0.84141    0.020
 6652.00    0.78237   0.84086    0.020
 6653.00    0.80887   0.84034    0.020
 6654.00    0.81947   0.84004    0.020
 6655.00    0.83010   0.83977    0.021
 6656.00    0.86243   0.83928    0.020
 6657.00    0.89412   0.83827    0.020
 6658.00    0.91207   0.83612    0.020
 6659.00    0.92598   0.83234    0.020
 6660.00    0.89135   0.82692    0.020
 6661.00    0.86262   0.82024    0.019
 6662.00    0.88269   0.81353    0.019
 6663.00    0.89321   0.80883    0.019
 6664.00    0.84476   0.80722    0.020
 6665.00    0.80367   0.80827    0.020
 6666.00    0.79827   0.81127    0.020
 6667.00    0.80421   0.81577    0.020
 6668.00    0.85487   0.82129    0.020
 6669.00    0.88898   0.82718    0.021
 6670.00    0.86874   0.83248    0.021
 6671.00    0.85820   0.83632    0.021
 6672.00    0.87462   0.83818    0.021
 6673.00    0.88364   0.83755    0.022
 6674.00    0.87506   0.83386    0.022
 6675.00    0.86854   0.82671    0.021
 6676.00    0.86626   0.81692    0.021
 6677.00    0.86733   0.80770    0.021
 6678.00    0.87438   0.80288    0.021
 6679.00    0.88043   0.80367    0.021
 6680.00    0.88491   0.80865    0.021
 6681.00    0.87043   0.81571    0.021
 6682.00    0.82992   0.82276    0.021
 6683.00    0.80889   0.82841    0.020
 6684.00    0.81138   0.83215    0.020
 6685.00    0.84052   0.83409    0.020
 6686.00    0.89804   0.83470    0.020
 6687.00    0.91219   0.83465    0.021
 6688.00    0.88563   0.83463    0.020
 6689.00    0.86260   0.83480    0.020
 6690.00    0.84249   0.83487    0.020
 6691.00    0.83333   0.83435    0.021
 6692.00    0.83216   0.83263    0.021
 6693.00    0.84028   0.82919    0.021
 6694.00    0.85435   0.82401    0.022
 6695.00    0.88994   0.81817    0.022
 6696.00    0.93757   0.81365    0.000
 6697.00    0.87393   0.81194    0.000
 6698.00    0.75610   0.81337    0.000
 6699.00    0.78241   0.81680    0.000
 6700.00    0.86935   0.82014    0.000
 6701.00    0.89418   0.82159    0.000
 6702.00    0.89664   0.82061    0.000
 6703.00    0.90059   0.81816    0.000
 6704.00    0.90498   0.81587    0.000
 6705.00    0.87022   0.81475    0.000
 6706.00    0.82554   0.81474    0.000
 6707.00    0.76470   0.81531    0.000
 6708.00    0.70054   0.81567    0.000
 6709.00    0.73225   0.81506    0.000
 6710.00    0.77948   0.81332    0.000
 6711.00    0.79147   0.81037    0.000
 6712.00    0.79920   0.80602    0.000
 6713.00    0.80022   0.80039    0.000
 6714.00    0.80067   0.79385    0.000
 6715.00    0.85685   0.78737    0.000
 6716.00    0.91567   0.78277    0.000
 6717.00    0.89053   0.78203    0.000
 6718.00    0.86329   0.78563    0.000
 6719.00    0.78476   0.79196    0.000
 6720.00    0.71259   0.79888    0.000
 6721.00    0.76446   0.80500    0.000
 6722.00    0.81942   0.80963    0.000
 6723.00    0.90979   0.81230    0.000
 6724.00    0.98637   0.81294    0.000
 6725.00    0.95319   0.81239    0.000
 6726.00    0.92289   0.81192    0.000
 6727.00    0.90981   0.81236    0.000
 6728.00    0.90126   0.81381    0.000
 6729.00    0.91416   0.81581    0.000
 6730.00    0.92709   0.81747    0.000
 6731.00    0.94012   0.81809    0.000
 6732.00    0.94919   0.81764    0.000
 6733.00    0.94554   0.81662    0.000
 6734.00    0.92796   0.81540    0.000
 6735.00    0.87244   0.81377    0.000
 6736.00    0.83363   0.81129    0.000
 6737.00    0.83385   0.80805    0.000
 6738.00    0.82822   0.80484    0.000
 6739.00    0.81078   0.80244    0.000
 6740.00    0.79347   0.80091    0.000
 6741.00    0.77639   0.79982    0.000
 6742.00    0.78026   0.79903    0.000
 6743.00    0.81636   0.79863    0.000
 6744.00    0.81985   0.79832    0.000
 6745.00    0.77922   0.79761    0.000
 6746.00    0.75770   0.79624    0.000
 6747.00    0.75893   0.79428    0.000
 6748.00    0.76529   0.79211    0.000
 6749.00    0.77702   0.79043    0.000
 6750.00    0.78829   0.78977    0.000
 6751.00    0.79911   0.79007    0.000
 6752.00    0.77894   0.79133    0.000
 6753.00    0.73348   0.79377    0.023
 6754.00    0.71561   0.79726    0.023
 6755.00    0.71755   0.80165    0.023
 6756.00    0.79341   0.80669    0.024
 6757.00    0.91586   0.81173    0.025
 6758.00    0.95985   0.81602    0.025
 6759.00    0.96059   0.81897    0.025
 6760.00    0.95979   0.82025    0.026
 6761.00    0.95824   0.82002    0.027
 6762.00    0.96767   0.81863    0.027
 6763.00    0.98162   0.81612    0.028
 6764.00    0.89198   0.81232    0.028
 6765.00    0.76569   0.80731    0.027
 6766.00    0.85322   0.80193    0.027
 6767.00    1.00457   0.79755    0.028
 6768.00    0.96836   0.79495    0.027
 6769.00    0.88569   0.79406    0.027
 6770.00    0.86049   0.79477    0.026
 6771.00    0.84682   0.79727    0.025
 6772.00    0.87796   0.80145    0.025
 6773.00    0.91614   0.80675    0.024
 6774.00    0.88425   0.81223    0.024
 6775.00    0.84419   0.81692    0.024
 6776.00    0.83786   0.82020    0.024
 6777.00    0.83420   0.82200    0.024
 6778.00    0.88043   0.82225    0.024
 6779.00    0.92883   0.82050    0.024
 6780.00    0.89395   0.81629    0.025
 6781.00    0.85999   0.80961    0.025
 6782.00    0.90992   0.80143    0.025
 6783.00    0.95666   0.79366    0.025
 6784.00    0.94560   0.78830    0.025
 6785.00    0.93304   0.78653    0.025
 6786.00    0.90416   0.78830    0.025
 6787.00    0.87822   0.79232    0.025
 6788.00    0.87490   0.79674    0.026
 6789.00    0.86617   0.80025    0.026
 6790.00    0.82585   0.80210    0.026
 6791.00    0.79857   0.80195    0.026
 6792.00    0.83158   0.80008    0.026
 6793.00    0.87760   0.79752    0.026
 6794.00    0.97276   0.79537    0.026
 6795.00    1.03354   0.79442    0.026
 6796.00    0.98576   0.79498    0.025
 6797.00    0.93523   0.79673    0.024
 6798.00    0.87729   0.79907    0.024
 6799.00    0.83935   0.80143    0.023
 6800.00    0.84735   0.80326    0.023
 6801.00    0.85011   0.80413    0.023
 6802.00    0.84245   0.80389    0.023
 6803.00    0.82953   0.80288    0.023
 6804.00    0.80749   0.80157    0.023
 6805.00    0.79793   0.80020    0.023
 6806.00    0.80731   0.79897    0.023
 6807.00    0.80533   0.79798    0.023
 6808.00    0.78820   0.79710    0.023
 6809.00    0.78117   0.79642    0.024
 6810.00    0.78600   0.79612    0.024
 6811.00    0.77731   0.79597    0.025
 6812.00    0.75461   0.79566    0.025
 6813.00    0.75232   0.79522    0.025
 6814.00    0.76865   0.79523    0.025
 6815.00    0.80856   0.79617    0.025
 6816.00    0.86745   0.79776    0.026
 6817.00    0.88128   0.79917    0.025
 6818.00    0.86321   0.79990    0.025
 6819.00    0.86638   0.80023    0.024
 6820.00    0.88273   0.80099    0.024
 6821.00    0.86781   0.80270    0.024
 6822.00    0.83592   0.80507    0.024
 6823.00    0.83495   0.80713    0.023
 6824.00    0.84855   0.80783    0.023
 6825.00    0.89448   0.80648    0.023
 6826.00    0.95356   0.80326    0.023
 6827.00    0.89894   0.79942    0.023
 6828.00    0.80484   0.79667    0.024
 6829.00    0.84636   0.79593    0.024
 6830.00    0.92757   0.79694    0.024
 6831.00    0.91751   0.79882    0.024
 6832.00    0.88534   0.80073    0.025
 6833.00    0.85230   0.80211    0.025
 6834.00    0.81908   0.80229    0.024
 6835.00    0.86156   0.80062    0.025
 6836.00    0.91558   0.79666    0.026
 6837.00    0.86572   0.79038    0.026
 6838.00    0.80420   0.78234    0.026
 6839.00    0.74233   0.77382    0.026
 6840.00    0.68044   0.76663    0.026
 6841.00    0.74209   0.76267    0.026
 6842.00    0.80864   0.76306    0.025
 6843.00    0.79831   0.76756    0.025
 6844.00    0.78840   0.77462    0.024
 6845.00    0.81606   0.78217    0.024
 6846.00    0.84226   0.78860    0.023
 6847.00    0.84390   0.79309    0.023
 6848.00    0.84051   0.79554    0.023
 6849.00    0.78459   0.79633    0.023
 6850.00    0.73664   0.79582    0.023
 6851.00    0.74799   0.79401    0.023
 6852.00    0.76078   0.79056    0.023
 6853.00    0.78172   0.78539    0.024
 6854.00    0.79576   0.77955    0.024
 6855.00    0.77862   0.77459    0.024
 6856.00    0.76436   0.77142    0.024
 6857.00    0.76081   0.77009    0.025
 6858.00    0.75178   0.76982    0.025
 6859.00    0.72578   0.76970    0.025
 6860.00    0.72877   0.76975    0.025
 6861.00    0.80802   0.77100    0.025
 6862.00    0.84505   0.77390    0.025
 6863.00    0.78665   0.77753    0.025
 6864.00    0.75651   0.78019    0.024
 6865.00    0.78169   0.78054    0.024
 6866.00    0.81088   0.77853    0.024
 6867.00    0.84690   0.77552    0.024
 6868.00    0.86104   0.77319    0.024
 6869.00    0.84250   0.77212    0.024
 6870.00    0.80590   0.77188    0.024
 6871.00    0.74557   0.77193    0.024
 6872.00    0.75795   0.77217    0.024
 6873.00    0.85446   0.77269    0.024
 6874.00    0.86645   0.77376    0.024
 6875.00    0.79218   0.77570    0.024
 6876.00    0.74960   0.77825    0.024
 6877.00    0.73552   0.78051    0.024
 6878.00    0.75027   0.78144    0.025
 6879.00    0.78786   0.78039    0.025
 6880.00    0.80928   0.77761    0.025
 6881.00    0.81942   0.77431    0.026
 6882.00    0.83797   0.77217    0.026
 6883.00    0.86168   0.77213    0.025
 6884.00    0.85989   0.77404    0.025
 6885.00    0.84447   0.77740    0.025
 6886.00    0.87057   0.78174    0.025
 6887.00    0.91594   0.78641    0.024
 6888.00    0.90361   0.79086    0.024
 6889.00    0.86821   0.79455    0.024
 6890.00    0.82611   0.79694    0.024
 6891.00    0.78174   0.79765    0.024
 6892.00    0.79675   0.79686    0.023
 6893.00    0.82879   0.79507    0.023
 6894.00    0.81202   0.79294    0.024
 6895.00    0.78370   0.79122    0.026
 6896.00    0.21671   0.79033    0.019
 6897.00   -0.45297   0.79012    0.000
 6898.00    0.09823   0.79022    0.025
 6899.00    0.82982   0.79059    0.284
 6900.00    0.89666   0.79130   -1.000
 6901.00    0.89178   0.79227   -1.000
 6902.00    0.88014   0.79323   -1.000
 6903.00    0.86803   0.79401   -1.000
 6904.00    0.87171   0.79472   -1.000
 6905.00    0.87595   0.79559   -1.000
 6906.00    0.86049   0.79665   -1.000
 6907.00    0.84510   0.79761   -1.000
 6908.00    0.83417   0.79796   -1.000
 6909.00    0.82380   0.79706   -1.000
 6910.00    0.82226   0.79455   -1.000
 6911.00    0.82028   0.79053   -1.000
 6912.00    0.81389   0.78557   -1.000
 6913.00    0.81036   0.78082   -1.000
 6914.00    0.82744   0.77741   -1.000
 6915.00    0.84459   0.77594   -1.000
 6916.00    0.86210   0.77665   -1.000
 6917.00    0.87353   0.77943   -1.000
 6918.00    0.85814   0.78352   -1.000
 6919.00    0.84860   0.78779   -1.000
 6920.00    0.86025   0.79084   -1.000
 6921.00    0.87124   0.79139   -1.000
 6922.00    0.88020   0.78882   -1.000
 6923.00    0.88438   0.78387   -1.000
 6924.00    0.87620   0.77847   -1.000
 6925.00    0.87112   0.77474   -1.000
 6926.00    0.87297   0.77379   -1.000
 6927.00    0.86750   0.77533   -1.000
 6928.00    0.84793   0.77807   -1.000
 6929.00    0.83636   0.78048   -1.000
 6930.00    0.83824   0.78151   -1.000
 6931.00    0.84247   0.78102   -1.000
 6932.00    0.85017   0.77997   -1.000
 6933.00    0.84852   0.77946   -1.000
 6934.00    0.83476   0.77995   -1.000
 6935.00    0.83554   0.78127   -1.000
 6936.00    0.85291   0.78311   -1.000
 6937.00    0.88031   0.78514   -1.000
 6938.00    0.91781   0.78706   -1.000
 6939.00    0.92289   0.78833   -1.000
 6940.00    0.89919   0.78816   -1.000
 6941.00    0.89179   0.78587   -1.000
 6942.00    0.89714   0.78147   -1.000
 6943.00    0.89844   0.77597   -1.000
 6944.00    0.89697   0.77132   -1.000
 6945.00    0.88667   0.76920   -1.000
 6946.00    0.87106   0.76993   -1.000
 6947.00    0.86063   0.77252   -1.000
 6948.00    0.85293   0.77518   -1.000
 6949.00    0.85635   0.77626   -1.000
 6950.00    0.86483   0.77530   -1.000
 6951.00    0.88835   0.77305   -1.000
 6952.00    0.91778   0.77077   -1.000
 6953.00    0.90652   0.76967   -1.000
 6954.00    0.88164   0.77047   -1.000
 6955.00    0.89787   0.77291   -1.000
 6956.00    0.92566   0.77614   -1.000
 6957.00    0.93050   0.77931   -1.000
 6958.00    0.93002   0.78190   -1.000
 6959.00    0.89884   0.78387   -1.000
 6960.00    0.86197   0.78540   -1.000
 6961.00    0.87869   0.78656   -1.000
 6962.00    0.90308   0.78733   -1.000
 6963.00    0.89910   0.78752   -1.000
 6964.00    0.89219   0.78722   -1.000
 6965.00    0.91075   0.78704   -1.000
 6966.00    0.93101   0.78749   -1.000
 6967.00    0.89691   0.78839   -1.000
 6968.00    0.86106   0.78911   -1.000
 6969.00    0.86831   0.78907   -1.000
 6970.00    0.87579   0.78826   -1.000
 6971.00    0.89035   0.78686   -1.000
 6972.00    0.90421   0.78442   -1.000
 6973.00    0.90765   0.78019   -1.000
 6974.00    0.90837   0.77358   -1.000
 6975.00    0.88281   0.76449   -1.000
 6976.00    0.86140   0.75390   -1.000
 6977.00    0.86891   0.74441   -1.000
 6978.00    0.86835   0.73925   -1.000
 6979.00    0.82450   0.74023   -1.000
 6980.00    0.79272   0.74693   -1.000
 6981.00    0.81296   0.75728   -1.000
 6982.00    0.83034   0.76828   -1.000
 6983.00    0.83755   0.77735   -1.000
 6984.00    0.83634   0.78321   -1.000
 6985.00    0.80999   0.78585   -1.000
 6986.00    0.80237   0.78591   -1.000
 6987.00    0.84235   0.78436   -1.000
 6988.00    0.86928   0.78244   -1.000
 6989.00    0.86770   0.78128   -1.000
 6990.00    0.86157   0.78139   -1.000
 6991.00    0.84678   0.78247   -1.000
 6992.00    0.84404   0.78380   -1.000
 6993.00    0.86122   0.78470   -1.000
 6994.00    0.86416   0.78480   -1.000
 6995.00    0.84644   0.78384   -1.000
 6996.00    0.84601   0.78152   -1.000
 6997.00    0.86765   0.77777   -1.000
 6998.00    0.88662   0.77319   -1.000
 6999.00    0.90260   0.76906   -1.000
 7000.00    0.91122   0.76634   -1.000
 7001.00    0.91254   0.76494   -1.000
 7002.00    0.90532   0.76411   -1.000
 7003.00    0.89064   0.76326   -1.000
 7004.00    0.88891   0.76241   -1.000
 7005.00    0.89716   0.76212   -1.000
 7006.00    0.89635   0.76301   -1.000
 7007.00    0.88940   0.76515   -1.000
 7008.00    0.88365   0.76781   -1.000
 7009.00    0.87862   0.76995   -1.000
 7010.00    0.84845   0.77087   -1.000
 7011.00    0.80528   0.77022   -1.000
 7012.00    0.80321   0.76762   -1.000
 7013.00    0.81958   0.76273   -1.000
 7014.00    0.83226   0.75617   -1.000
 7015.00    0.84350   0.75021   -1.000
 7016.00    0.82396   0.74756   -1.000
 7017.00    0.79431   0.74941   -1.000
 7018.00    0.81728   0.75489   -1.000
 7019.00    0.85473   0.76150   -1.000
 7020.00    0.86296   0.76614   -1.000
 7021.00    0.86460   0.76685   -1.000
 7022.00    0.85954   0.76404   -1.000
 7023.00    0.85327   0.75999   -1.000
 7024.00    0.90205   0.75722   -1.000
 7025.00    0.95845   0.75708   -1.000
 7026.00    0.94462   0.75949   -1.000
 7027.00    0.92381   0.76344   -1.000
 7028.00    0.91796   0.76754   -1.000
 7029.00    0.91305   0.77073   -1.000
 7030.00    0.88945   0.77254   -1.000
 7031.00    0.86535   0.77309   -1.000
 7032.00    0.84762   0.77282   -1.000
 7033.00    0.82988   0.77214   -1.000
 7034.00    0.81191   0.77127   -1.000
 7035.00    0.79621   0.76988   -1.000
 7036.00    0.81260   0.76789   -1.000
 7037.00    0.82956   0.76661   -1.000
 7038.00    0.85193   0.76785   -1.000
 7039.00    0.87611   0.77234   -1.000
 7040.00    0.91248   0.77932   -1.000
 7041.00    0.93997   0.78679   -1.000
 7042.00    0.92099   0.79236   -1.000
 7043.00    0.90363   0.79491   -1.000
 7044.00    0.89302   0.79521   -1.000
 7045.00    0.88253   0.79499   -1.000
 7046.00    0.87243   0.79552   -1.000
 7047.00    0.87069   0.79680   -1.000
 7048.00    0.89343   0.79751   -1.000
 7049.00    0.90094   0.79583   -1.000
 7050.00    0.87041   0.79037   -2.000
 7051.00    0.84417   0.78139   -2.000
 7052.00    0.82714   0.77088   -2.000
 7053.00    0.84884   0.76136   -2.000
 7054.00    0.94288   0.75481   -2.000
 7055.00    0.99200   0.75166   -2.000
 7056.00    0.96788   0.75067   -2.000
 7057.00    0.94282   0.74989   -2.000
 7058.00    0.91644   0.74807   -2.000
 7059.00    0.93701   0.74543   -2.000
 7060.00    1.01667   0.74306   -2.000
 7061.00    1.03475   0.74194   -2.000
 7062.00    0.98452   0.74234   -2.000
 7063.00    0.93886   0.74327   -2.000
 7064.00    0.89768   0.74304   -2.000
 7065.00    0.88130   0.74067   -2.000
 7066.00    0.88633   0.73663   -2.000
 7067.00    0.85417   0.73280   -2.000
 7068.00    0.79374   0.73140   -2.000
 7069.00    0.78614   0.73345   -2.000
 7070.00    0.81380   0.73829   -2.000
 7071.00    0.89038   0.74436   -2.000
 7072.00    0.99557   0.74987   -2.000
 7073.00    1.03536   0.75371   -2.000
 7074.00    1.04180   0.75580   -2.000
 7075.00    1.01547   0.75684   -2.000
 7076.00    0.97466   0.75761   -2.000
 7077.00    0.93108   0.75848   -2.000
 7078.00    0.88644   0.75926   -2.000
 7079.00    0.88432   0.75912   -2.000
 7080.00    0.89589   0.75676   -2.000
 7081.00    0.94192   0.75118   -2.000
 7082.00    0.99722   0.74254   -2.000
 7083.00    0.95781   0.73244   -2.000
 7084.00    0.89748   0.72309   -2.000
 7085.00    0.91246   0.71599   -2.000
 7086.00    0.94067   0.71150   -2.000
 7087.00    0.86490   0.70904   -2.000
 7088.00    0.77520   0.70756   -2.000
 7089.00    0.82144   0.70646   -2.000
 7090.00    0.88059   0.70568   -2.000
 7091.00    0.91153   0.70531   -2.000
 7092.00    0.94080   0.70553   -2.000
 7093.00    0.92734   0.70637   -2.000
 7094.00    0.91276   0.70774   -2.000
 7095.00    0.88884   0.70967   -2.000
 7096.00    0.86568   0.71222   -2.000
 7097.00    0.86124   0.71526   -2.000
 7098.00    0.85382   0.71830   -2.000
 7099.00    0.80678   0.72070   -2.000
 7100.00    0.77061   0.72205   -2.000
 7101.00    0.83077   0.72250   -2.000
 7102.00    0.87446   0.72259   -2.000
 7103.00    0.81048   0.72267   -2.000
 7104.00    0.76054   0.72259   -2.000
 7105.00    0.78217   0.72200   -2.000
 7106.00    0.79146   0.72065   -2.000
 7107.00    0.74999   0.71848   -2.000
 7108.00    0.71973   0.71555   -2.000
 7109.00    0.72764   0.71229   -2.000
 7110.00    0.74768   0.70951   -2.000
 7111.00    0.80261   0.70796   -2.000
 7112.00    0.83371   0.70803   -2.000
 7113.00    0.80638   0.70959   -2.000
 7114.00    0.78624   0.71200   -2.000
 7115.00    0.78134   0.71432   -2.000
 7116.00    0.79154   0.71579   -2.000
 7117.00    0.82953   0.71607   -2.000
 7118.00    0.87528   0.71522   -2.000
 7119.00    0.93352   0.71359   -2.000
 7120.00    0.97608   0.71170   -2.000
 7121.00    0.99653   0.71013   -2.000
 7122.00    0.99324   0.70908   -2.000
 7123.00    0.96049   0.70821   -2.000
 7124.00    0.90034   0.70708   -2.000
 7125.00    0.81026   0.70540   -2.000
 7126.00    0.76986   0.70300   -2.000
 7127.00    0.77737   0.69978   -2.000
 7128.00    0.84298   0.69594   -2.000
 7129.00    0.95799   0.69229   -2.000
 7130.00    0.98736   0.69006   -2.000
 7131.00    0.95259   0.69022   -2.000
 7132.00    0.88729   0.69312   -2.000
 7133.00    0.80191   0.69812   -2.000
 7134.00    0.79381   0.70392   -2.000
 7135.00    0.83024   0.70913   -2.000
 7136.00    0.85261   0.71267   -2.000
 7137.00    0.86793   0.71421   -2.000
 7138.00    0.83772   0.71433   -2.000
 7139.00    0.78773   0.71389   -2.000
 7140.00    0.81073   0.71345   -2.000
 7141.00    0.86091   0.71316   -2.000
 7142.00    0.85131   0.71275   -2.000
 7143.00    0.82282   0.71164   -2.000
 7144.00    0.80874   0.70927   -2.000
 7145.00    0.79847   0.70540   -2.000
 7146.00    0.83785   0.70057   -2.000
 7147.00    0.88793   0.69619   -2.000
 7148.00    0.88995   0.69378   -2.000
 7149.00    0.88375   0.69434   -2.000
 7150.00    0.95718   0.69796   -2.000
 7151.00    1.04091   0.70356   -2.000
 7152.00    1.02543   0.70940   -2.000
 7153.00    1.00093   0.71414   -2.000
 7154.00    0.90149   0.71742   -2.000
 7155.00    0.79795   0.71947   -2.000
 7156.00    0.78161   0.72050   -2.000
 7157.00    0.76810   0.72062   -2.000
 7158.00    0.84474   0.71979   -2.000
 7159.00    0.91661   0.71799   -2.000
 7160.00    0.87998   0.71512   -2.000
 7161.00    0.84819   0.71100   -2.000
 7162.00    0.87718   0.70577   -2.000
 7163.00    0.89889   0.70045   -2.000
 7164.00    0.85844   0.69678   -2.000
 7165.00    0.82892   0.69631   -2.000
 7166.00    0.86868   0.69950   -2.000
 7167.00    0.90661   0.70539   -2.000
 7168.00    0.93543   0.71225   -2.000
 7169.00    0.95675   0.71851   -2.000
 7170.00    0.94792   0.72333   -2.000
 7171.00    0.92846   0.72645   -2.000
 7172.00    0.87343   0.72783   -2.000
 7173.00    0.83078   0.72745   -2.000
 7174.00    0.82306   0.72561   -2.000
 7175.00    0.82385   0.72296   -2.000
 7176.00    0.84520   0.72000   -2.000
 7177.00    0.84651   0.71667   -2.000
 7178.00    0.80609   0.71278   -2.000
 7179.00    0.79025   0.70864   -2.000
 7180.00    0.81890   0.70530   -2.000
 7181.00    0.83158   0.70387   -2.000
 7182.00    0.81896   0.70450   -2.000
 7183.00    0.82545   0.70605   -2.000
 7184.00    0.85852   0.70654   -2.000
 7185.00    0.85619   0.70449   -2.000
 7186.00    0.81061   0.70006   -2.000
 7187.00    0.78593   0.69491   -2.000
 7188.00    0.78381   0.69104   -2.000
 7189.00    0.79951   0.68959   -2.000
 7190.00    0.83214   0.69038   -2.000
 7191.00    0.80681   0.69250   -2.000
 7192.00    0.73287   0.69512   -2.000
 7193.00    0.71783   0.69768   -2.000
 7194.00    0.74627   0.69997   -2.000
 7195.00    0.74023   0.70201   -2.000
 7196.00    0.71184   0.70386   -2.000
 7197.00    0.80848   0.70542   -2.000
 7198.00    0.97603   0.70655   -2.000
 7199.00    0.96308   0.70725   -2.000
 7200.00    0.86099   0.70774   -2.000
 7201.00    0.86008   0.70829   -2.000
 7202.00    0.90236   0.70876   -2.000
 7203.00    0.89538   0.70841   -2.000
 7204.00    0.87037   0.70621   -2.000
 7205.00    0.80905   0.70193   -2.000
 7206.00    0.73648   0.69667   -2.000
 7207.00    0.72529   0.69253   -2.000
 7208.00    0.72995   0.69147   -2.000
 7209.00    0.75546   0.69398   -2.000
 7210.00    0.78536   0.69868   -2.000
 7211.00    0.80844   0.70334   -2.000
 7212.00    0.83039   0.70628   -2.000
 7213.00    0.80265   0.70725   -2.000
 7214.00    0.76869   0.70727   -2.000
 7215.00    0.77039   0.70766   -2.000
 7216.00    0.77519   0.70900   -2.000
 7217.00    0.75565   0.71081   -2.000
 7218.00    0.73487   0.71212   -2.000
