###################################################################
## OUTPUT of StarlightChains_v04.for    [Cid@UFSC - 01/Apr/2007] ##
###################################################################

## Some input info
KUG0210-078._42_45.txt                   [arq_obs]
Base.CB07.vall.4m                        [arq_base]
Masks.EmLines.NEW.gm                     [arq_masks]
StCv04.C11.config                        [arq_config]
   66                                    [N_base]
    0                                    [N_YAV_components = # of components with extra extinction!]
    0                                    [i_FitPowerLaw (1/0 = Yes/No)]
-9.99                                    [alpha_PowerLaw]
CCM                                      [red_law_option]
 1.458241                                [q_norm = A(l_norm)/A(V)]

## (Re)Sampling Parameters
 3741.00                                 [l_ini (A)]
 7218.00                                 [l_fin (A)]
    1.00                                 [dl    (A)]     (OBS: dl_cushion =    50.00 A)

## Normalization info
 4020.00                                 [l_norm (A) - for base]
 4010.00                                 [llow_norm (A) - window for f_obs]
 4060.00                                 [lupp_norm (A) - window for f_obs]
8.145094E-18                             [fobs_norm (in input units)]

## S/N
 3691.00                                 [llow_SN (A) - window for S/N]
 7268.00                                 [lupp_SN (A) - window for S/N]
   3.815                                 [S/N in S/N window]
   3.823                                 [S/N in norm. window]
   0.009                                 [S/N_err in S/N window]
   0.009                                 [S/N_err in norm. window]
  1.0000                                 [fscale_chi2]

## etc...
    -2007786                             [idum_orig]
  2366                                   [NOl_eff]
  2286                                   [Nl_eff]
    80    NSIGMA                         [Ntot_cliped & clip_method]
  5454330                                [Nglobal_steps]
   7                                     [N_chains]
   8                                     [NEX0s_base = N_base in EX0s-fits]
 0   0   1       80   2.0   3.170E+03    [Clip-Bug, RC-Crash & Burn-In warning-flags, n_censored_weights, wei_nsig_threshold & wei_limit]
    44     43.835     43.287      0.548  [idt_all, wdt_TotTime, wdt_UsrTime & wdt_SysTime (sec)]

## Synthesis Results - Best model ##

 3.88384E-05                             [chi2/Nl_eff]
    34.37640                             [adev (%)]

   101.28889                             [sum-of-x (%)]
 1.13638E-17                             [Flux_tot (units of input spectrum!)]
 4.41421E-13                             [Mini_tot (???)]
 2.23539E-13                             [Mcor_tot (???)]

-244.05                                  [v0_min  (km/s)]
  12.84                                  [vd_min  (km/s)]
 0.2384                                  [AV_min  (mag)]
 0.0000                                  [YAV_min (mag)]

# j     x_j(%)      Mini_j(%)     Mcor_j(%)     age_j(yr)     Z_j      (L/M)_j    YAV?  Mstars   component_j        a/Fe...       SSP_chi2r SSP_adev(%)   SSP_AV   SSP_x(%)
  1      0.0000     0.0000E+00    0.0000E+00    1.000000E+06  0.00400  1.094E-02    0   1.0000   age020_m42            0.0000     4.5571E-05    41.6147   3.4391    79.4081
  2      0.0000     0.0000E+00    0.0000E+00    3.160000E+06  0.00400  4.007E-02    0   0.9999   age045_m42            0.0000     4.2959E-05    40.9076   2.6726    86.0513
  3      0.0000     0.0000E+00    0.0000E+00    5.010000E+06  0.00400  2.539E-02    0   0.9488   age055_m42            0.0000     4.4625E-05    41.3684   3.0339    82.7134
  4      0.0000     0.0000E+00    0.0000E+00    6.610000E+06  0.00400  2.620E-02    0   0.9220   age061_m42            0.0000     4.3452E-05    40.8835   2.6223    85.4483
  5      0.0000     0.0000E+00    0.0000E+00    1.000000E+07  0.00400  1.322E-02    0   0.8862   age070_m42            0.0000     4.4429E-05    41.6168   2.4095    85.1453
  6      0.0000     0.0000E+00    0.0000E+00    1.445000E+07  0.00400  7.883E-03    0   0.8571   age078_m42            0.0000     4.5036E-05    41.8199   2.7361    83.0018
  7      0.0000     0.0000E+00    0.0000E+00    2.512000E+07  0.00400  5.251E-03    0   0.8174   age090_m42            0.0000     4.4279E-05    41.6667   2.2816    85.5297
  8      0.0000     0.0000E+00    0.0000E+00    4.000000E+07  0.00400  3.649E-03    0   0.7851   age104_m42            0.0000     4.3724E-05    41.1247   2.0399    86.7001
  9      0.0000     0.0000E+00    0.0000E+00    5.500000E+07  0.00400  3.098E-03    0   0.7629   age110_m42            0.0000     4.2850E-05    40.9424   2.1537    87.9813
 10      0.0000     0.0000E+00    0.0000E+00    1.015200E+08  0.00400  2.228E-03    0   0.7207   age116_m42            0.0000     4.2310E-05    40.7175   2.1500    88.8814
 11      0.0000     0.0000E+00    0.0000E+00    2.861200E+08  0.00400  1.093E-03    0   0.6648   age125_m42            0.0000     4.1971E-05    39.9199   1.6009    90.7808
 12      0.0000     0.0000E+00    0.0000E+00    5.088000E+08  0.00400  6.597E-04    0   0.6365   age130_m42            0.0000     4.0842E-05    39.2093   1.5411    93.2125
 13      0.0000     0.0000E+00    0.0000E+00    1.434000E+09  0.00400  2.132E-04    0   0.5798   age139_m42            0.0000     3.9539E-05    36.3989   0.5248    96.5003
 14      0.0000     0.0000E+00    0.0000E+00    4.250000E+09  0.00400  5.895E-05    0   0.5377   age158_m42            0.0000     4.0139E-05    32.6793   0.0652    93.3364
 15      0.0000     0.0000E+00    0.0000E+00    7.500000E+09  0.00400  3.510E-05    0   0.5212   age171_m42            0.0000     3.9789E-05    31.4062  -0.1583    93.7644
 16      6.0412     7.6581E+00    7.6126E+00    1.300000E+10  0.00400  2.005E-05    0   0.5034   age193_m42            0.0000     3.9975E-05    30.2565  -0.3348    93.5117
 17      1.3841     2.3068E+00    2.2626E+00    1.800000E+10  0.00400  1.525E-05    0   0.4967   age213_m42            0.0000     4.0155E-05    30.2759  -0.3499    92.8440
 18      0.0000     0.0000E+00    0.0000E+00    1.000000E+06  0.00800  1.238E-02    0   1.0000   age020_m52            0.0000     4.5737E-05    41.5949   3.4391    79.4353
 19      0.0000     0.0000E+00    0.0000E+00    3.160000E+06  0.00800  3.074E-02    0   0.9966   age045_m52            0.0000     4.5831E-05    41.5504   3.3651    80.0221
 20      0.0000     0.0000E+00    0.0000E+00    5.010000E+06  0.00800  2.668E-02    0   0.9443   age055_m52            0.0000     4.5331E-05    41.3542   3.1255    81.6034
 21      0.0000     0.0000E+00    0.0000E+00    6.610000E+06  0.00800  2.136E-02    0   0.9177   age061_m52            0.0000     4.4495E-05    39.6588   1.9047    86.2260
 22      0.0000     0.0000E+00    0.0000E+00    1.000000E+07  0.00800  1.215E-02    0   0.8827   age070_m52            0.0000     4.5152E-05    42.0334   2.6068    84.3487
 23      0.0000     0.0000E+00    0.0000E+00    1.445000E+07  0.00800  8.717E-03    0   0.8552   age078_m52            0.0000     4.4904E-05    41.7810   2.7036    84.1263
 24      0.0000     0.0000E+00    0.0000E+00    2.512000E+07  0.00800  5.592E-03    0   0.8162   age090_m52            0.0000     4.4256E-05    41.6449   2.3460    86.5256
 25      0.0000     0.0000E+00    0.0000E+00    4.000000E+07  0.00800  3.896E-03    0   0.7841   age104_m52            0.0000     4.3390E-05    41.1054   2.2336    88.0154
 26      0.0000     0.0000E+00    0.0000E+00    1.015200E+08  0.00800  2.148E-03    0   0.7226   age116_m52            0.0000     4.2710E-05    40.1717   2.1404    88.8038
 27      0.0000     0.0000E+00    0.0000E+00    2.861200E+08  0.00800  9.925E-04    0   0.6683   age125_m52            0.0000     4.0871E-05    39.0608   1.6023    94.1591
 28      0.0000     0.0000E+00    0.0000E+00    9.047900E+08  0.00800  3.141E-04    0   0.6138   age135_m52            0.0000     3.8634E-05    33.9987   0.7102   101.2586
 29      0.0000     0.0000E+00    0.0000E+00    1.434000E+09  0.00800  1.719E-04    0   0.5853   age139_m52            0.0000     3.8940E-05    33.6700   0.1360    98.8648
 30      0.0000     0.0000E+00    0.0000E+00    2.500000E+09  0.00800  7.872E-05    0   0.5600   age150_m52            0.0000     3.9279E-05    31.7776  -0.1680    97.3256
 31      0.0000     0.0000E+00    0.0000E+00    4.250000E+09  0.00800  4.336E-05    0   0.5426   age158_m52            0.0000     3.9493E-05    30.6700  -0.1828    96.3788
 32      0.0000     0.0000E+00    0.0000E+00    6.250000E+09  0.00800  3.159E-05    0   0.5319   age166_m52            0.0000     3.9266E-05    29.8176  -0.4226    97.4749
 33      0.0000     0.0000E+00    0.0000E+00    1.300000E+10  0.00800  1.361E-05    0   0.5073   age193_m52            0.0000     3.9260E-05    29.6751  -0.9381    98.1917
 34      0.0000     0.0000E+00    0.0000E+00    1.800000E+10  0.00800  9.886E-06    0   0.4990   age213_m52            0.0000     3.9281E-05    29.1478  -1.0000    97.2860
 35      0.0000     0.0000E+00    0.0000E+00    1.000000E+06  0.02000  1.544E-02    0   1.0000   age020_m62            0.0000     4.5986E-05    41.5761   3.4391    79.4659
 36      0.0000     0.0000E+00    0.0000E+00    3.160000E+06  0.02000  3.762E-02    0   0.9858   age045_m62            0.0000     4.6305E-05    41.6448   3.3865    79.8995
 37      0.0000     0.0000E+00    0.0000E+00    5.010000E+06  0.02000  3.296E-02    0   0.9342   age055_m62            0.0000     4.4608E-05    41.1480   2.9919    83.7404
 38      0.0000     0.0000E+00    0.0000E+00    8.710000E+06  0.02000  1.154E-02    0   0.8861   age067_m62            0.0000     4.8068E-05    44.0952   2.1715    82.8896
 39      0.0000     0.0000E+00    0.0000E+00    1.445000E+07  0.02000  7.663E-03    0   0.8472   age078_m62            0.0000     4.5596E-05    42.1050   2.2779    85.3526
 40      0.0000     0.0000E+00    0.0000E+00    2.512000E+07  0.02000  4.532E-03    0   0.8099   age090_m62            0.0000     4.5718E-05    42.4766   2.2802    84.7516
 41      0.0000     0.0000E+00    0.0000E+00    5.500000E+07  0.02000  2.733E-03    0   0.7595   age110_m62            0.0000     4.4135E-05    41.1872   2.2359    86.6873
 42      0.0000     0.0000E+00    0.0000E+00    1.609000E+08  0.02000  1.369E-03    0   0.6985   age120_m62            0.0000     4.2395E-05    40.3496   2.0139    91.0214
 43      0.0000     0.0000E+00    0.0000E+00    2.861200E+08  0.02000  9.013E-04    0   0.6714   age125_m62            0.0000     4.0715E-05    39.5686   1.7096    95.5674
 44     69.6136     3.5189E+00    4.4813E+00    5.088000E+08  0.02000  5.028E-04    0   0.6449   age130_m62            0.0000     3.8470E-05    36.9190   1.2328   101.5994
 45      0.0000     0.0000E+00    0.0000E+00    9.047900E+08  0.02000  2.428E-04    0   0.6179   age135_m62            0.0000     3.8096E-05    33.2125   0.6063   102.1848
 46      0.0000     0.0000E+00    0.0000E+00    1.434000E+09  0.02000  1.263E-04    0   0.5908   age139_m62            0.0000     3.8529E-05    31.5788   0.1590   100.6872
 47      0.0000     0.0000E+00    0.0000E+00    2.500000E+09  0.02000  5.985E-05    0   0.5673   age150_m62            0.0000     3.9080E-05    30.5034  -0.2343   100.0232
 48      0.0000     0.0000E+00    0.0000E+00    4.250000E+09  0.02000  3.271E-05    0   0.5468   age158_m62            0.0000     3.9504E-05    30.2227  -0.5728   100.0294
 49      0.0000     0.0000E+00    0.0000E+00    1.000000E+10  0.02000  1.360E-05    0   0.5167   age181_m62            0.0000     3.9414E-05    30.1962  -1.0000   101.9805
 50     24.2500     8.6516E+01    8.5644E+01    1.800000E+10  0.02000  7.124E-06    0   0.5013   age213_m62            0.0000     3.9970E-05    29.5540  -1.0000    97.5881
 51      0.0000     0.0000E+00    0.0000E+00    1.000000E+06  0.05000  2.592E-02    0   0.9998   age020_m72            0.0000     4.6397E-05    41.5564   3.4427    79.1790
 52      0.0000     0.0000E+00    0.0000E+00    3.160000E+06  0.05000  4.845E-02    0   0.9577   age045_m72            0.0000     4.5804E-05    41.5057   3.2662    81.0639
 53      0.0000     0.0000E+00    0.0000E+00    5.010000E+06  0.05000  3.072E-02    0   0.9147   age055_m72            0.0000     4.6167E-05    41.9892   2.8411    82.7397
 54      0.0000     0.0000E+00    0.0000E+00    6.610000E+06  0.05000  1.455E-02    0   0.8877   age061_m72            0.0000     4.9478E-05    45.4835   2.2277    82.5131
 55      0.0000     0.0000E+00    0.0000E+00    1.000000E+07  0.05000  9.074E-03    0   0.8524   age070_m72            0.0000     4.6214E-05    42.5729   3.0051    82.6975
 56      0.0000     0.0000E+00    0.0000E+00    2.512000E+07  0.05000  4.250E-03    0   0.7902   age090_m72            0.0000     4.5067E-05    42.1976   2.7073    84.4740
 57      0.0000     0.0000E+00    0.0000E+00    4.000000E+07  0.05000  3.087E-03    0   0.7618   age104_m72            0.0000     4.4733E-05    42.2183   2.4834    85.7527
 58      0.0000     0.0000E+00    0.0000E+00    1.015200E+08  0.05000  1.700E-03    0   0.7096   age116_m72            0.0000     4.2819E-05    40.8065   2.1751    89.9692
 59      0.0000     0.0000E+00    0.0000E+00    2.861200E+08  0.05000  7.384E-04    0   0.6633   age125_m72            0.0000     3.9437E-05    38.2570   1.5168    98.9268
 60      0.0000     0.0000E+00    0.0000E+00    5.088000E+08  0.05000  3.819E-04    0   0.6372   age130_m72            0.0000     3.8190E-05    35.0657   0.9533   103.0367
 61      0.0000     0.0000E+00    0.0000E+00    9.047900E+08  0.05000  1.676E-04    0   0.6110   age135_m72            0.0000     3.8646E-05    31.3727   0.2128   102.5297
 62      0.0000     0.0000E+00    0.0000E+00    1.434000E+09  0.05000  8.837E-05    0   0.5874   age139_m72            0.0000     3.9104E-05    29.8525  -0.2473   101.8772
 63      0.0000     0.0000E+00    0.0000E+00    2.500000E+09  0.05000  4.233E-05    0   0.5598   age150_m72            0.0000     3.9524E-05    30.0220  -0.6018   101.7289
 64      0.0000     0.0000E+00    0.0000E+00    6.250000E+09  0.05000  1.435E-05    0   0.5249   age166_m72            0.0000     3.9731E-05    30.0417  -1.0000    99.8160
 65      0.0000     0.0000E+00    0.0000E+00    1.300000E+10  0.05000  6.513E-06    0   0.5036   age193_m72            0.0000     4.1598E-05    30.6110  -1.0000    94.9717
 66      0.0000     0.0000E+00    0.0000E+00    1.800000E+10  0.05000  4.527E-06    0   0.4945   age213_m72            0.0000     4.3081E-05    32.4218  -1.0000    91.2645


## Synthesis Results - Average & Chains ##

# j      x_j: min, <> & last-chain-values for 1 ...  7 chains
  1      0.0000      0.3264      0.0738      0.1430      0.0386      0.2005      0.2111      0.3429      0.0830
  2      0.0000      0.2945      0.0253      0.0623      0.0887      0.1491      0.0802      0.0176      0.0121
  3      0.0000      0.3187      0.0251      0.0000      0.0000      0.0000      0.0097      0.1341      0.0000
  4      0.0000      0.2176      0.0000      0.0000      0.0816      0.1243      0.0002      0.0302      0.0628
  5      0.0000      0.3376      0.0497      0.0000      0.0295      0.0195      0.0000      0.0714      0.0000
  6      0.0000      0.2420      0.0000      0.0526      0.0000      0.0084      0.0083      0.1324      0.0000
  7      0.0000      0.3506      0.0431      0.0687      0.0000      0.0393      0.0787      0.0000      0.0363
  8      0.0000      0.2666      0.0250      0.0008      0.0970      0.0000      0.0794      0.1352      0.0000
  9      0.0000      0.2919      0.0206      0.0000      0.0725      0.0170      0.0527      0.0000      0.0000
 10      0.0000      0.3911      0.0000      0.0000      0.0967      0.0000      0.0388      0.0000      0.0546
 11      0.0000      0.2533      0.0000      0.0551      0.0000      0.0492      0.0077      0.0634      0.0054
 12      0.0000      0.2178      0.0264      0.0881      0.0679      0.0356      0.0453      0.0000      0.0964
 13      0.0000     29.0740     31.7801     32.2114     31.8835     33.6325     31.9275     32.5443     27.1469
 14      0.0000      0.2056      0.0421      0.0390      0.1581      0.0163      0.1327      0.0002      0.0365
 15      0.0000     53.4649     64.2188     59.2001     60.1705     62.9212     61.5880     58.8875     67.0909
 16      6.0412     26.3905     30.5130     32.6721     30.6509     27.7232     30.3384     30.0249     30.7140
 17      1.3841      0.9504      0.8061      0.9190      1.4867      0.8098      1.2250      1.0918      0.3367
 18      0.0000      0.3033      0.0260      0.0000      0.1711      0.0369      0.0000      0.1143      0.0206
 19      0.0000      0.3664      0.0168      0.0648      0.0000      0.0922      0.0342      0.0329      0.0000
 20      0.0000      0.2977      0.0030      0.0450      0.0000      0.0464      0.0000      0.0000      0.0491
 21      0.0000      0.3499      0.0342      0.0000      0.1150      0.0000      0.0093      0.1922      0.0000
 22      0.0000      0.3009      0.0305      0.0000      0.0338      0.0685      0.0133      0.3623      0.0000
 23      0.0000      0.2863      0.0161      0.0000      0.0010      0.0000      0.0227      0.0030      0.0259
 24      0.0000      0.3486      0.0323      0.1163      0.0009      0.0161      0.0053      0.0181      0.0000
 25      0.0000      0.2138      0.0000      0.0672      0.0723      0.0016      0.0191      0.0000      0.0000
 26      0.0000      0.3514      0.0000      0.0000      0.0000      0.0714      0.0533      0.0671      0.0325
 27      0.0000      0.3307      0.0000      0.0320      0.0353      0.0240      0.0033      0.0000      0.0708
 28      0.0000      0.2463      0.0000      0.0729      0.0777      0.0076      0.0000      0.0000      0.0000
 29      0.0000      0.2586      0.0163      0.0884      0.0000      0.0514      0.0000      0.0000      0.0796
 30      0.0000      0.3116      0.0358      0.1312      0.0526      0.0710      0.0217      0.0000      0.0362
 31      0.0000      0.2618      0.0000      0.0808      0.0293      0.1079      0.0424      0.1978      0.0054
 32      0.0000      0.3256      0.1599      0.1285      0.1098      0.2074      0.2019      0.3547      0.1499
 33      0.0000      0.2879      0.0033      0.0437      0.0000      0.0000      0.0185      0.0302      0.0000
 34      0.0000      0.3762      0.0621      0.0000      0.1211      0.0908      0.0000      0.0264      0.1390
 35      0.0000      0.2810      0.0039      0.0000      0.0851      0.0022      0.0403      0.0080      0.0000
 36      0.0000      0.2252      0.0000      0.0444      0.0947      0.0071      0.0164      0.0508      0.0085
 37      0.0000      0.2979      0.0034      0.0702      0.0404      0.1852      0.0000      0.0000      0.0628
 38      0.0000      0.2165      0.0000      0.0314      0.0023      0.0273      0.0438      0.1284      0.0840
 39      0.0000      0.3004      0.0079      0.0000      0.0002      0.0135      0.0000      0.0853      0.0000
 40      0.0000      0.4117      0.0000      0.0000      0.0499      0.0810      0.0309      0.0609      0.0060
 41      0.0000      0.3218      0.0000      0.2081      0.0000      0.0119      0.0143      0.0000      0.0000
 42      0.0000      0.2004      0.0027      0.0102      0.1291      0.0000      0.0280      0.0150      0.0006
 43      0.0000      0.2837      0.0311      0.1093      0.0730      0.0889      0.0296      0.0000      0.0000
 44     69.6136      2.1078      1.5956      2.2229      2.5888      2.2690      2.9297      2.2363      3.1072
 45      0.0000      0.2364      0.0084      0.0132      0.1549      0.0548      0.0123      0.0062      0.0000
 46      0.0000      0.3209      0.0000      0.0000      0.0354      0.0000      0.0227      0.1084      0.0780
 47      0.0000      0.2692      0.0000      0.0097      0.0810      0.0849      0.0568      0.1486      0.0063
 48      0.0000      0.3449      0.0188      0.0000      0.0617      0.0000      0.0226      0.4595      0.0000
 49      0.0000      0.2950      0.0000      0.0209      0.0262      0.0000      0.0213      0.1783      0.0000
 50     24.2500      0.2868      0.0000      0.0000      0.2176      0.0237      0.0776      0.0653      0.0117
 51      0.0000      0.2773      0.0075      0.0567      0.0372      0.0000      0.0046      0.0666      0.0369
 52      0.0000      0.3184      0.0602      0.1293      0.0000      0.0747      0.0229      0.0000      0.0000
 53      0.0000      0.3521      0.0000      0.0000      0.0000      0.0332      0.0102      0.0086      0.0357
 54      0.0000      0.2720      0.0058      0.0146      0.0290      0.0381      0.0329      0.0000      0.0000
 55      0.0000      0.2809      0.0017      0.0587      0.0031      0.0000      0.0909      0.1857      0.0042
 56      0.0000      0.2208      0.0242      0.1083      0.0637      0.0000      0.0078      0.0145      0.0191
 57      0.0000      0.2890      0.0000      0.0000      0.0000      0.0431      0.0000      0.1927      0.0761
 58      0.0000      0.2848      0.0000      0.0846      0.0000      0.0917      0.0000      0.0000      0.0015
 59      0.0000      0.2980      0.0000      0.0135      0.0769      0.0082      0.0351      0.0939      0.0000
 60      0.0000      0.2067      0.0339      0.1170      0.1199      0.0000      0.0485      0.0118      0.0000
 61      0.0000      0.2594      0.0057      0.0000      0.0000      0.1019      0.0041      0.0623      0.0713
 62      0.0000      0.2960      0.0054      0.0464      0.0000      0.0104      0.0000      0.0680      0.0000
 63      0.0000      0.2501      0.0204      0.0000      0.0080      0.0450      0.0104      0.0601      0.0131
 64      0.0000      0.2703      0.0208      0.1236      0.0000      0.0269      0.0034      0.0746      0.0000
 65      0.0000      0.4097      0.0263      0.0000      0.1316      0.0000      0.0413      0.1382      0.0752
 66      0.0000      0.3662      0.0311      0.0788      0.0000      0.0382      0.0486      0.4446      0.0000

# j      m_j: min, <> & last-chain-values for 1 ...  7 chains
  1  0.0000E+00  1.7091E-03  3.6525E-04  7.0994E-04  1.9156E-04  1.0350E-03  1.0550E-03  1.6932E-03  4.0479E-04
  2  0.0000E+00  4.2105E-04  3.4149E-05  8.4460E-05  1.2020E-04  2.1019E-04  1.0936E-04  2.3793E-05  1.6158E-05
  3  0.0000E+00  6.8233E-04  5.0675E-05  0.0000E+00  0.0000E+00  0.0000E+00  1.9869E-05  2.7066E-04  0.0000E+00
  4  0.0000E+00  4.3874E-04  0.0000E+00  0.0000E+00  1.5597E-04  2.4703E-04  4.7062E-07  5.7485E-05  1.1799E-04
  5  0.0000E+00  1.2965E-03  1.8021E-04  0.0000E+00  1.0734E-04  7.3804E-05  0.0000E+00  2.5855E-04  0.0000E+00
  6  0.0000E+00  1.5074E-03  0.0000E+00  3.1040E-04  0.0000E+00  5.1535E-05  4.9285E-05  7.7792E-04  0.0000E+00
  7  0.0000E+00  3.1267E-03  3.6281E-04  5.8102E-04  0.0000E+00  3.4596E-04  6.6987E-04  0.0000E+00  3.0161E-04
  8  0.0000E+00  3.2858E-03  2.9076E-04  9.8619E-06  1.1331E-03  0.0000E+00  9.3447E-04  1.5717E-03  0.0000E+00
  9  0.0000E+00  4.1185E-03  2.7487E-04  0.0000E+00  9.7022E-04  2.3613E-04  7.1005E-04  0.0000E+00  0.0000E+00
 10  0.0000E+00  7.2475E-03  0.0000E+00  0.0000E+00  1.6994E-03  0.0000E+00  6.8573E-04  0.0000E+00  9.4187E-04
 11  0.0000E+00  8.8255E-03  0.0000E+00  1.8213E-03  0.0000E+00  1.6887E-03  2.5651E-04  2.0821E-03  1.7531E-04
 12  0.0000E+00  1.2036E-02  1.3808E-03  4.6173E-03  3.5577E-03  1.9398E-03  2.3889E-03  0.0000E+00  4.9648E-03
 13  0.0000E+00  4.5297E+00  4.6766E+00  4.7575E+00  4.7089E+00  5.1660E+00  4.7469E+00  4.7816E+00  3.9388E+00
 14  0.0000E+00  1.0743E-01  2.0778E-02  1.9297E-02  7.8324E-02  8.4101E-03  6.6188E-02  1.0286E-04  1.7785E-02
 15  0.0000E+00  4.5482E+01  5.1599E+01  4.7742E+01  4.8523E+01  5.2771E+01  4.9997E+01  4.7242E+01  5.3151E+01
 16  7.6126E+00  3.7959E+01  4.1454E+01  4.4551E+01  4.1793E+01  3.9314E+01  4.1643E+01  4.0727E+01  4.1142E+01
 17  2.2626E+00  1.7733E+00  1.4206E+00  1.6256E+00  2.6298E+00  1.4897E+00  2.1813E+00  1.9213E+00  5.8503E-01
 18  0.0000E+00  1.4036E-03  1.1386E-04  0.0000E+00  7.5045E-04  1.6854E-04  0.0000E+00  4.9891E-04  8.8783E-05
 19  0.0000E+00  6.8050E-04  2.9429E-05  1.1417E-04  0.0000E+00  1.6880E-04  6.0567E-05  5.7606E-05  0.0000E+00
 20  0.0000E+00  6.0363E-04  5.7248E-06  8.6412E-05  0.0000E+00  9.2835E-05  0.0000E+00  0.0000E+00  9.2741E-05
 21  0.0000E+00  8.6133E-04  7.9523E-05  0.0000E+00  2.6826E-04  0.0000E+00  2.1877E-05  4.4605E-04  0.0000E+00
 22  0.0000E+00  1.2522E-03  1.1981E-04  0.0000E+00  1.3332E-04  2.8102E-04  5.2789E-05  1.4219E-03  0.0000E+00
 23  0.0000E+00  1.6091E-03  8.5325E-05  0.0000E+00  5.1280E-06  0.0000E+00  1.2172E-04  1.6022E-05  1.3536E-04
 24  0.0000E+00  2.9152E-03  2.5532E-04  9.2219E-04  6.9296E-06  1.3262E-04  4.2362E-05  1.4265E-04  0.0000E+00
 25  0.0000E+00  2.4650E-03  0.0000E+00  7.3440E-04  7.8984E-04  1.7716E-05  2.1061E-04  0.0000E+00  0.0000E+00
 26  0.0000E+00  6.7715E-03  0.0000E+00  0.0000E+00  0.0000E+00  1.3564E-03  9.8016E-04  1.2187E-03  5.8271E-04
 27  0.0000E+00  1.2756E-02  0.0000E+00  1.1708E-03  1.2917E-03  9.1251E-04  1.2155E-04  0.0000E+00  2.5426E-03
 28  0.0000E+00  2.7571E-02  0.0000E+00  7.7401E-03  8.2455E-03  8.4406E-04  0.0000E+00  0.0000E+00  0.0000E+00
 29  0.0000E+00  5.0441E-02  3.0010E-03  1.6341E-02  0.0000E+00  9.8899E-03  0.0000E+00  0.0000E+00  1.4456E-02
 30  0.0000E+00  1.2700E-01  1.3785E-02  5.0673E-02  2.0320E-02  2.8508E-02  8.4236E-03  0.0000E+00  1.3739E-02
 31  0.0000E+00  1.8766E-01  0.0000E+00  5.4886E-02  1.9906E-02  7.6255E-02  2.9019E-02  1.3371E-01  3.6185E-03
 32  0.0000E+00  3.1405E-01  1.4569E-01  1.1749E-01  1.0044E-01  1.9721E-01  1.8589E-01  3.2270E-01  1.3469E-01
 33  0.0000E+00  6.1485E-01  6.6981E-03  8.8460E-02  0.0000E+00  0.0000E+00  3.7758E-02  6.0856E-02  0.0000E+00
 34  0.0000E+00  1.0880E+00  1.6969E-01  0.0000E+00  3.3197E-01  2.5897E-01  0.0000E+00  7.1948E-02  3.7435E-01
 35  0.0000E+00  1.0425E-03  1.3591E-05  0.0000E+00  2.9935E-04  8.0662E-06  1.4285E-04  2.8012E-05  0.0000E+00
 36  0.0000E+00  3.3800E-04  0.0000E+00  6.3152E-05  1.3474E-04  1.0505E-05  2.3465E-05  7.1935E-05  1.1875E-05
 37  0.0000E+00  4.8368E-04  5.1902E-06  1.0803E-04  6.2119E-05  2.9640E-04  0.0000E+00  0.0000E+00  9.4895E-05
 38  0.0000E+00  9.5234E-04  0.0000E+00  1.3102E-04  9.6111E-06  1.1850E-04  1.8408E-04  5.3249E-04  3.4394E-04
 39  0.0000E+00  1.9024E-03  4.7076E-05  0.0000E+00  1.0126E-06  8.4369E-05  0.0000E+00  5.0921E-04  0.0000E+00
 40  0.0000E+00  4.2150E-03  0.0000E+00  0.0000E+00  4.8415E-04  8.1804E-04  3.0208E-04  5.8803E-04  5.7264E-05
 41  0.0000E+00  5.1230E-03  0.0000E+00  3.1401E-03  0.0000E+00  1.8684E-04  2.1662E-04  0.0000E+00  0.0000E+00
 42  0.0000E+00  5.8586E-03  7.3385E-05  2.8288E-04  3.5771E-03  0.0000E+00  7.8019E-04  4.1378E-04  1.6871E-05
 43  0.0000E+00  1.2107E-02  1.2540E-03  4.4214E-03  2.9519E-03  3.7407E-03  1.2056E-03  0.0000E+00  0.0000E+00
 44  4.4813E+00  1.5488E-01  1.1074E-01  1.5484E-01  1.8032E-01  1.6438E-01  2.0543E-01  1.5496E-01  2.1262E-01
 45  0.0000E+00  3.4473E-02  1.1588E-03  1.8200E-03  2.1404E-02  7.8827E-03  1.7130E-03  8.5377E-04  0.0000E+00
 46  0.0000E+00  8.5995E-02  0.0000E+00  0.0000E+00  8.9910E-03  0.0000E+00  5.8034E-03  2.7398E-02  1.9460E-02
 47  0.0000E+00  1.4616E-01  0.0000E+00  4.9909E-03  4.1719E-02  4.5440E-02  2.9423E-02  7.6115E-02  3.2060E-03
 48  0.0000E+00  3.3026E-01  1.6989E-02  0.0000E+00  5.5997E-02  0.0000E+00  2.0676E-02  4.1499E-01  0.0000E+00
 49  0.0000E+00  6.4211E-01  0.0000E+00  4.3215E-02  5.4044E-02  0.0000E+00  4.4190E-02  3.6594E-01  0.0000E+00
 50  8.5644E+01  1.1561E+00  0.0000E+00  0.0000E+00  8.3151E-01  9.4054E-02  2.9843E-01  2.4835E-01  4.4102E-02
 51  0.0000E+00  6.1285E-04  1.5598E-05  1.1879E-04  7.7843E-05  0.0000E+00  9.6627E-06  1.3886E-04  7.5882E-05
 52  0.0000E+00  3.6056E-04  6.4347E-05  1.3876E-04  0.0000E+00  8.3384E-05  2.4753E-05  0.0000E+00  0.0000E+00
 53  0.0000E+00  6.0058E-04  0.0000E+00  0.0000E+00  0.0000E+00  5.5909E-05  1.6641E-05  1.3840E-05  5.6748E-05
 54  0.0000E+00  9.5081E-04  1.9295E-05  4.8445E-05  9.6197E-05  1.3122E-04  1.0987E-04  0.0000E+00  0.0000E+00
 55  0.0000E+00  1.5119E-03  8.8345E-06  2.9949E-04  1.5839E-05  0.0000E+00  4.6692E-04  9.4265E-04  2.1167E-05
 56  0.0000E+00  2.3524E-03  2.4313E-04  1.0938E-03  6.4339E-04  0.0000E+00  7.9035E-05  1.4548E-04  1.8902E-04
 57  0.0000E+00  4.0862E-03  0.0000E+00  0.0000E+00  0.0000E+00  6.0118E-04  0.0000E+00  2.5686E-03  1.0014E-03
 58  0.0000E+00  6.8116E-03  0.0000E+00  1.9181E-03  0.0000E+00  2.1613E-03  0.0000E+00  0.0000E+00  3.4078E-05
 59  0.0000E+00  1.5336E-02  0.0000E+00  6.5662E-04  3.7520E-03  4.1741E-04  1.7238E-03  4.5587E-03  0.0000E+00
 60  0.0000E+00  1.9758E-02  3.0630E-03  1.0605E-02  1.0866E-02  0.0000E+00  4.4279E-03  1.0679E-03  0.0000E+00
 61  0.0000E+00  5.4167E-02  1.1256E-03  0.0000E+00  0.0000E+00  2.0979E-02  8.2289E-04  1.2276E-02  1.3870E-02
 62  0.0000E+00  1.1270E-01  1.9275E-03  1.6733E-02  0.0000E+00  3.9008E-03  0.0000E+00  2.4432E-02  0.0000E+00
 63  0.0000E+00  1.8946E-01  1.4633E-02  0.0000E+00  5.7418E-03  3.3581E-02  7.5143E-03  4.2970E-02  9.2246E-03
 64  0.0000E+00  5.6639E-01  4.1180E-02  2.4562E-01  0.0000E+00  5.5644E-02  6.8170E-03  1.4748E-01  0.0000E+00
 65  0.0000E+00  1.8147E+00  1.0993E-01  0.0000E+00  5.5249E-01  0.0000E+00  1.7448E-01  5.7740E-01  3.1006E-01
 66  0.0000E+00  2.2916E+00  1.8363E-01  4.6733E-01  0.0000E+00  2.3564E-01  2.9014E-01  2.6239E+00  0.0000E+00

# AV, chi2 & Mass for <> & i_chain = 1 ...  7 solutions
AV       0.2384     -0.7749     -0.7914     -0.7695     -0.7662     -0.7542     -0.7704     -0.7604     -0.7972
chi2 3.8838E-05  5.2198E-05  5.1159E-05  5.1180E-05  5.1054E-05  5.1181E-05  5.1114E-05  5.1158E-05  5.1154E-05
Mass 2.2354E-13  5.0215E-14  5.1998E-14  5.3354E-14  5.3593E-14  5.2369E-14  5.2940E-14  5.4295E-14  5.2327E-14
-244.05                                  [v0_min (km/s) before EX0s...]
  12.84                                  [vd_min (km/s) before EX0s...]


## Synthetic spectrum (Best Model) ##l_obs f_obs f_syn wei
 3478    [Nl_obs]
 3741.00    0.56144   0.43855    0.000
 3742.00    0.83853   0.40684    0.000
 3743.00    1.14156   0.37783    0.000
 3744.00    1.16226   0.35044    0.000
 3745.00    1.01845   0.30215   -1.000
 3746.00    0.67187   0.26152   -1.000
 3747.00    0.22232   0.27792   -1.000
 3748.00    0.14303   0.34455   -1.000
 3749.00    0.22654   0.41267   -1.000
 3750.00    0.53814   0.46788   -1.000
 3751.00    0.93584   0.52469   -1.000
 3752.00    1.06928   0.56445   -1.000
 3753.00    1.11802   0.55470   -1.000
 3754.00    0.94675   0.49631   -1.000
 3755.00    0.71652   0.44763   -1.000
 3756.00    0.99539   0.45669   -1.000
 3757.00    1.38601   0.49384   -1.000
 3758.00    1.21053   0.51680   -1.000
 3759.00    0.93624   0.51853   -1.000
 3760.00    0.70014   0.50413   -1.000
 3761.00    0.46912   0.49455   -1.000
 3762.00    0.61831   0.49094   -1.000
 3763.00    0.80324   0.46043   -1.000
 3764.00    0.65931   0.42319   -1.000
 3765.00    0.49641   0.41403   -1.000
 3766.00    0.38845   0.40638   -1.000
 3767.00    0.28734   0.38499   -1.000
 3768.00    0.85946   0.39449   -1.000
 3769.00    1.41427   0.44421   -1.000
 3770.00    1.54865   0.48878   -1.000
 3771.00    1.64205   0.50772   -1.000
 3772.00    1.19834   0.52260   -1.000
 3773.00    0.81802   0.55129   -1.000
 3774.00    0.99429   0.58232   -1.000
 3775.00    1.15300   0.60673   -1.000
 3776.00    1.19785   0.63892   -1.000
 3777.00    1.14372   0.67127   -1.000
 3778.00    0.58859   0.68304   -1.000
 3779.00    0.24224   0.68276   -1.000
 3780.00    0.75051   0.69067   -1.000
 3781.00    1.03168   0.69810   -1.000
 3782.00    0.54263   0.66839   -1.000
 3783.00    0.01919   0.60932    0.229
 3784.00   -0.60257   0.56844    0.000
 3785.00   -1.16654   0.54879    0.000
 3786.00   -1.58928   0.53643    0.000
 3787.00   -1.82954   0.53690    0.000
 3788.00   -1.68520   0.54516    0.000
 3789.00   -1.45223   0.53115    0.000
 3790.00   -1.05689   0.48756    0.000
 3791.00   -0.75907   0.43729    0.000
 3792.00   -0.61736   0.39935    0.000
 3793.00   -0.06412   0.36854    0.000
 3794.00    1.06718   0.32839    0.028
 3795.00    1.49885   0.30276    0.028
 3796.00    1.06580   0.32912    0.028
 3797.00    0.32005   0.39665    0.027
 3798.00   -0.76639   0.46378    0.000
 3799.00   -0.91130   0.51797    0.000
 3800.00   -0.15141   0.56394    0.000
 3801.00   -0.39556   0.59085    0.000
 3802.00   -1.49052   0.59458    0.000
 3803.00   -1.35058   0.58252    0.000
 3804.00   -0.28914   0.58328    0.000
 3805.00   -0.32890   0.61993    0.000
 3806.00   -1.09057   0.66805    0.000
 3807.00   -1.29885   0.69804    0.000
 3808.00   -1.18958   0.70029    0.000
 3809.00   -0.53477   0.67070    0.000
 3810.00    0.39270   0.62538    0.028
 3811.00   -0.15009   0.59405    0.000
 3812.00   -1.32868   0.58355    0.000
 3813.00   -0.46988   0.59992    0.000
 3814.00    1.14451   0.63716    0.029
 3815.00    0.94458   0.64950    0.028
 3816.00    0.17431   0.61341    0.027
 3817.00   -0.65168   0.56848    0.000
 3818.00   -1.49228   0.56904    0.000
 3819.00   -1.05020   0.59802    0.000
 3820.00   -0.33330   0.59060    0.000
 3821.00   -0.29988   0.53857    0.000
 3822.00   -0.38244   0.49580    0.000
 3823.00   -0.16881   0.48161    0.000
 3824.00    0.08284   0.47663    0.026
 3825.00    0.38330   0.46668    0.026
 3826.00    0.68814   0.45641    0.026
 3827.00    0.89067   0.44495    0.026
 3828.00    1.08770   0.41251    0.026
 3829.00    1.23006   0.35911    0.027
 3830.00    1.35825   0.31197    0.027
 3831.00    0.38225   0.28544    0.027
 3832.00   -0.52590   0.28449    0.000
 3833.00    0.07307   0.30523    0.026
 3834.00    0.68000   0.32604    0.026
 3835.00    1.38605   0.34144    0.027
 3836.00    1.82144   0.36363    0.027
 3837.00   -0.03073   0.39389    0.000
 3838.00   -1.46446   0.44301    0.000
 3839.00   -0.26573   0.50883    0.000
 3840.00    0.66841   0.55951    0.027
 3841.00    0.29702   0.58523    0.028
 3842.00    0.04702   0.59546    0.028
 3843.00    0.28302   0.60778    0.028
 3844.00    0.46104   0.63262    0.028
 3845.00    0.44633   0.64451    0.028
 3846.00    0.21917   0.62871    0.028
 3847.00   -0.60455   0.62444    0.000
 3848.00   -0.64589   0.65805    0.000
 3849.00    1.19197   0.69050    0.000
 3850.00    2.03133   0.69446    0.000
 3851.00    0.79991   0.68320    0.000
 3852.00    0.42110   0.66485    0.000
 3853.00    1.58013   0.65396    0.000
 3854.00    2.11054   0.66140    0.000
 3855.00    1.64961   0.65451    0.000
 3856.00    1.05866   0.63205    0.000
 3857.00    0.28773   0.64031    0.000
 3858.00    0.20961   0.68415    0.000
 3859.00    0.97567   0.72382    0.000
 3860.00    0.92995   0.73694    0.000
 3861.00    0.01224   0.73047    0.000
 3862.00   -0.32524   0.71554    0.000
 3863.00   -0.11294   0.70877    0.000
 3864.00    0.30111   0.71485    0.000
 3865.00    0.88370   0.71867    0.000
 3866.00    0.87983   0.70951    0.000
 3867.00    0.44462   0.68564    0.000
 3868.00    0.36892   0.65094    0.000
 3869.00    0.52543   0.62238    0.000
 3870.00    0.52459   0.62945    0.000
 3871.00    0.43484   0.66709    0.000
 3872.00    0.12481   0.69064    0.000
 3873.00   -0.29358   0.67019    0.000
 3874.00   -0.31144   0.61153    0.000
 3875.00   -0.15898   0.55894    0.000
 3876.00   -0.13797   0.55836    0.000
 3877.00   -0.16485   0.57528    0.000
 3878.00   -0.17655   0.55734    0.000
 3879.00   -0.18356   0.52946    0.000
 3880.00    0.12702   0.52896    0.000
 3881.00    0.51912   0.52193    0.025
 3882.00    0.33395   0.46506    0.025
 3883.00    0.02809   0.39544    0.025
 3884.00    0.13439   0.35802    0.025
 3885.00    0.30865   0.34127    0.025
 3886.00    0.22040   0.34661    0.025
 3887.00    0.09963   0.39448    0.025
 3888.00    0.13955   0.46240    0.025
 3889.00    0.19322   0.51657    0.025
 3890.00   -0.18674   0.54425    0.000
 3891.00   -0.58832   0.55283    0.000
 3892.00   -0.44787   0.55991    0.000
 3893.00   -0.29635   0.58941    0.000
 3894.00   -0.00365   0.62306    0.000
 3895.00    0.27479   0.62665    0.024
 3896.00    0.26152   0.62140    0.024
 3897.00    0.27521   0.64288    0.023
 3898.00    0.60767   0.68436    0.023
 3899.00    0.92960   0.69730    0.022
 3900.00    1.16578   0.68894    0.022
 3901.00    1.34306   0.68840    0.022
 3902.00    1.16066   0.67776    0.021
 3903.00    0.97001   0.68149    0.021
 3904.00    0.73965   0.72919    0.020
 3905.00    0.48049   0.78435    0.020
 3906.00    0.10859   0.81434    0.020
 3907.00   -0.18734   0.82635    0.000
 3908.00   -0.23564   0.83612    0.000
 3909.00   -0.21944   0.83510    0.000
 3910.00   -0.02540   0.81680    0.000
 3911.00    0.12494   0.80825    0.021
 3912.00    0.17207   0.81207    0.022
 3913.00    0.18394   0.80356    0.023
 3914.00    0.12382   0.79214    0.023
 3915.00   -0.04231   0.78009    0.000
 3916.00   -0.39674   0.75830    0.000
 3917.00   -0.39710   0.73803    0.000
 3918.00    0.15273   0.73527    0.024
 3919.00    0.83113   0.74731    0.024
 3920.00    1.68497   0.76289    0.025
 3921.00    1.65961   0.77327    0.025
 3922.00    0.57814   0.76008    0.025
 3923.00    0.34808   0.72840    0.025
 3924.00    1.01971   0.69042    0.025
 3925.00    0.72168   0.64771    0.025
 3926.00   -0.48221   0.60675    0.000
 3927.00   -0.46729   0.56021    0.000
 3928.00    0.55139   0.49479    0.024
 3929.00    0.52223   0.40537    0.024
 3930.00   -0.26656   0.32939    0.000
 3931.00   -0.45733   0.33097    0.000
 3932.00   -0.26754   0.41403    0.000
 3933.00    0.00351   0.51783    0.024
 3934.00    0.31978   0.59526    0.024
 3935.00    0.25463   0.64800    0.024
 3936.00    0.00484   0.69193    0.024
 3937.00   -0.47853   0.72065    0.000
 3938.00   -1.05957   0.72686    0.000
 3939.00   -0.93385   0.71813    0.000
 3940.00   -0.55533   0.69963    0.000
 3941.00    0.34652   0.69740    0.023
 3942.00    1.40656   0.73662    0.024
 3943.00    1.48961   0.77678    0.024
 3944.00    1.32727   0.77330    0.023
 3945.00    0.61408   0.75431    0.023
 3946.00   -0.21144   0.76015    0.000
 3947.00   -0.22308   0.78145    0.000
 3948.00   -0.10440   0.78016    0.000
 3949.00    0.05013   0.75761    0.023
 3950.00    0.20895   0.75927    0.023
 3951.00    0.42750   0.78083    0.023
 3952.00    0.65091   0.76336    0.024
 3953.00    1.09630   0.71519    0.024
 3954.00    1.55190   0.69357    0.024
 3955.00    1.69357   0.70248    0.024
 3956.00    1.84188   0.69844    0.024
 3957.00    2.54642   0.64797    0.024
 3958.00    3.18157   0.57218    0.024
 3959.00    2.50237   0.52313    0.024
 3960.00    1.82612   0.50230    0.000
 3961.00    1.18314   0.47393    0.000
 3962.00    0.60530   0.42227    0.000
 3963.00    0.53956   0.35214    0.000
 3964.00    0.46839   0.27813    0.000
 3965.00    0.36497   0.22106    0.000
 3966.00    0.27303   0.20389    0.000
 3967.00    0.23501   0.23223    0.000
 3968.00    0.07566   0.28995    0.000
 3969.00   -0.54867   0.35420    0.000
 3970.00   -0.81460   0.41312    0.000
 3971.00    0.06504   0.47142    0.000
 3972.00    0.65036   0.52798    0.000
 3973.00    0.43856   0.57179    0.000
 3974.00    0.16119   0.61256    0.000
 3975.00   -0.26842   0.66061    0.000
 3976.00   -0.35141   0.70762    0.000
 3977.00    0.26183   0.73731    0.000
 3978.00    0.90503   0.73959    0.000
 3979.00    1.60064   0.73292    0.000
 3980.00    1.98912   0.74318    0.000
 3981.00    1.90739   0.76876    0.024
 3982.00    1.51878   0.79637    0.024
 3983.00    0.71749   0.81485    0.024
 3984.00    0.34848   0.83553    0.023
 3985.00    0.49139   0.85920    0.023
 3986.00    0.65105   0.85902    0.023
 3987.00    0.82821   0.85422    0.022
 3988.00    0.95553   0.87223    0.022
 3989.00    1.03695   0.89754    0.022
 3990.00    1.19789   0.91012    0.022
 3991.00    1.42339   0.90299    0.022
 3992.00    1.55359   0.88599    0.022
 3993.00    1.61571   0.86498    0.022
 3994.00    1.63658   0.84932    0.022
 3995.00    1.63159   0.86558    0.022
 3996.00    1.43832   0.91397    0.022
 3997.00    1.14187   0.94820    0.022
 3998.00    0.83327   0.95298    0.034
 3999.00    0.51888   0.95675    0.150
 4000.00    0.46056   0.95008   -1.000
 4001.00    0.50749   0.89933   -1.000
 4002.00    0.64322   0.83929   -1.000
 4003.00    0.81015   0.84422   -1.000
 4004.00    0.95469   0.90254   -1.000
 4005.00    1.09259   0.94721   -1.000
 4006.00    1.28262   0.95938   -1.000
 4007.00    1.48545   0.95943   -1.000
 4008.00    1.60236   0.95667   -1.000
 4009.00    1.70218   0.95250   -1.000
 4010.00    1.23442   0.95628    0.052
 4011.00    0.67846   0.96703    0.024
 4012.00    0.87022   0.98080    0.023
 4013.00    1.14794   0.97986    0.023
 4014.00    0.90128   0.96740    0.023
 4015.00    0.61408   0.97916    0.023
 4016.00    0.51098   1.00579    0.023
 4017.00    0.41563   1.00757    0.023
 4018.00    0.35591   0.98960    0.023
 4019.00    0.31813   0.97637    0.023
 4020.00    1.22695   0.96505    0.023
 4021.00    2.08768   0.94766    0.023
 4022.00    2.10068   0.95319    0.023
 4023.00    2.08475   0.98929    0.023
 4024.00    1.75744   1.01813    0.022
 4025.00    1.34515   1.01732    0.022
 4026.00    0.28779   0.97356    0.022
 4027.00   -0.54638   0.90142    0.000
 4028.00   -0.09322   0.85724    0.000
 4029.00    0.37107   0.85167    0.022
 4030.00    0.88640   0.85858    0.022
 4031.00    1.20546   0.88284    0.022
 4032.00    0.78834   0.92892    0.022
 4033.00    0.48105   0.98621    0.021
 4034.00    0.51808   1.02991    0.021
 4035.00    0.64262   1.03957    0.021
 4036.00    1.00000   1.02009    0.021
 4037.00    1.28361   0.99437    0.021
 4038.00    1.39878   0.99033    0.021
 4039.00    1.36946   0.99945    0.021
 4040.00    1.05449   0.96722    0.021
 4041.00    0.89153   0.87710    0.021
 4042.00    0.99044   0.79684    0.021
 4043.00    1.05259   0.81035    0.021
 4044.00    1.05931   0.90158    0.021
 4045.00    0.82892   0.97141    0.021
 4046.00    0.28425   0.99418    0.021
 4047.00    0.07963   1.00527    0.021
 4048.00    0.27201   1.00240    0.021
 4049.00    0.55022   0.97941    0.021
 4050.00    0.91680   0.95323    0.021
 4051.00    1.06630   0.93254    0.022
 4052.00    1.01867   0.92518    0.022
 4053.00    1.30347   0.92298    0.022
 4054.00    1.85433   0.90527    0.023
 4055.00    2.31694   0.90109    0.023
 4056.00    2.71739   0.93470    0.023
 4057.00    2.46714   0.96947    0.022
 4058.00    1.81495   0.95552    0.022
 4059.00    1.65920   0.88245    0.022
 4060.00    1.77133   0.81393    0.022
 4061.00    1.69376   0.82762    0.022
 4062.00    1.52729   0.88780    0.022
 4063.00    1.39162   0.90645    0.022
 4064.00    1.26839   0.90377    0.022
 4065.00    0.94737   0.93590    0.022
 4066.00    0.55815   0.96520    0.021
 4067.00    0.80358   0.92773    0.021
 4068.00    1.23331   0.86038    0.022
 4069.00    1.31401   0.85914    0.022
 4070.00    1.31086   0.91691    0.022
 4071.00    1.16923   0.94056    0.022
 4072.00    1.00077   0.89929    0.021
 4073.00    0.46307   0.82682    0.021
 4074.00   -0.13027   0.78032    0.000
 4075.00    1.03658   0.80342    0.021
 4076.00    2.39812   0.87210    0.021
 4077.00    1.92419   0.93377    0.021
 4078.00    1.31585   0.95849    0.021
 4079.00    1.13752   0.93768    0.021
 4080.00    0.97565   0.89722    0.021
 4081.00    1.28757   0.86994    0.021
 4082.00    1.58603   0.86404    0.021
 4083.00    1.27797   0.88152    0.020
 4084.00    1.01420   0.91315    0.020
 4085.00    1.48016   0.93084    0.020
 4086.00    1.92122   0.91880    0.020
 4087.00    2.10592   0.88940    0.020
 4088.00    2.18158   0.85908    0.020
 4089.00    1.45700   0.83597    0.020
 4090.00    0.87661   0.82562    0.020
 4091.00    1.10509   0.80138    0.020
 4092.00    1.31154   0.74476    0.000
 4093.00    1.41940   0.69318    0.000
 4094.00    1.42525   0.66748    0.000
 4095.00    1.05639   0.64610    0.000
 4096.00    0.83404   0.60229    0.000
 4097.00    1.06228   0.52980    0.000
 4098.00    1.19214   0.47215    0.000
 4099.00    1.06486   0.48406    0.000
 4100.00    0.98344   0.54707    0.000
 4101.00    1.00499   0.61233    0.000
 4102.00    1.17278   0.67081    0.000
 4103.00    1.62515   0.71873    0.000
 4104.00    1.85868   0.74375    0.000
 4105.00    1.72090   0.75161    0.000
 4106.00    1.46715   0.75251    0.000
 4107.00    1.04103   0.75585    0.000
 4108.00    0.79399   0.77107    0.000
 4109.00    0.78096   0.79941    0.000
 4110.00    1.06143   0.83481    0.000
 4111.00    1.67973   0.86400    0.000
 4112.00    1.65000   0.88507    0.000
 4113.00    0.96246   0.89712    0.021
 4114.00    1.05212   0.88435    0.021
 4115.00    1.83763   0.85412    0.021
 4116.00    1.71049   0.85016    0.020
 4117.00    0.86329   0.87652    0.020
 4118.00    0.79191   0.88925    0.028
 4119.00    1.25890   0.88448    0.103
 4120.00    1.37656   0.89360   -1.000
 4121.00    1.28163   0.92102   -1.000
 4122.00    1.41863   0.93721   -1.000
 4123.00    1.67885   0.92429   -1.000
 4124.00    1.88049   0.89951   -1.000
 4125.00    2.05512   0.88636   -1.000
 4126.00    2.12346   0.88733   -1.000
 4127.00    2.14959   0.87932   -1.000
 4128.00    1.87641   0.85048    0.052
 4129.00    1.50193   0.82701    0.022
 4130.00    1.21657   0.83833    0.020
 4131.00    0.95657   0.87610    0.019
 4132.00    0.47863   0.92463    0.019
 4133.00   -0.05047   0.95663    0.000
 4134.00    0.13902   0.96335    0.019
 4135.00    0.46416   0.97329    0.019
 4136.00    0.70682   0.98664    0.019
 4137.00    0.93744   0.98428    0.019
 4138.00    0.75237   0.94705    0.019
 4139.00    0.52313   0.87167    0.019
 4140.00    0.35899   0.81362    0.019
 4141.00    0.19936   0.83242    0.019
 4142.00    0.31735   0.89770    0.019
 4143.00    0.44492   0.94144    0.019
 4144.00    0.89717   0.95084    0.019
 4145.00    1.35004   0.93852    0.018
 4146.00    1.80207   0.91762    0.019
 4147.00    2.21024   0.91109    0.019
 4148.00    1.94034   0.91914    0.019
 4149.00    1.71566   0.92023    0.019
 4150.00    1.93670   0.90718    0.019
 4151.00    2.15731   0.89197    0.019
 4152.00    2.37488   0.88897    0.019
 4153.00    2.48635   0.89335    0.019
 4154.00    2.01864   0.90940    0.019
 4155.00    1.57211   0.94026    0.019
 4156.00    1.21818   0.96280    0.018
 4157.00    0.96620   0.96514    0.018
 4158.00    1.08088   0.96729    0.018
 4159.00    1.20050   0.98198    0.018
 4160.00    1.33498   0.98589    0.018
 4161.00    1.41603   0.97472    0.019
 4162.00    1.35987   0.96409    0.018
 4163.00    1.36427   0.94534    0.018
 4164.00    1.50245   0.92859    0.018
 4165.00    1.56434   0.94260    0.019
 4166.00    1.48011   0.96565    0.018
 4167.00    1.44500   0.95157    0.018
 4168.00    1.49198   0.89501    0.018
 4169.00    1.42321   0.83746    0.018
 4170.00    1.18488   0.82914    0.018
 4171.00    1.20414   0.86438    0.018
 4172.00    1.55519   0.89558    0.018
 4173.00    1.46428   0.89619    0.019
 4174.00    0.87184   0.87791    0.019
 4175.00    0.70319   0.87611    0.019
 4176.00    0.95867   0.90154    0.019
 4177.00    1.12656   0.92074    0.019
 4178.00    1.21713   0.91484    0.019
 4179.00    1.33545   0.90997    0.019
 4180.00    1.47536   0.92772    0.019
 4181.00    1.67597   0.95637    0.019
 4182.00    1.91811   0.96448    0.019
 4183.00    1.50393   0.92757    0.019
 4184.00    0.69637   0.88819    0.019
 4185.00    0.63039   0.90482    0.019
 4186.00    0.95229   0.94554    0.019
 4187.00    1.20232   0.95345    0.019
 4188.00    1.41976   0.94837    0.019
 4189.00    1.52249   0.97311    0.019
 4190.00    1.58045   0.99928    0.019
 4191.00    1.25414   0.97819    0.018
 4192.00    0.80019   0.92999    0.018
 4193.00    0.29315   0.89579    0.018
 4194.00   -0.22869   0.87271    0.000
 4195.00    0.50319   0.85702    0.019
 4196.00    1.52270   0.86981    0.019
 4197.00    1.87117   0.88816    0.019
 4198.00    2.09632   0.87976    0.019
 4199.00    1.10564   0.87821    0.018
 4200.00   -0.05697   0.90449    0.000
 4201.00    0.27205   0.92974    0.018
 4202.00    0.75316   0.94855    0.018
 4203.00    0.75429   0.97124    0.018
 4204.00    0.72415   0.98914    0.018
 4205.00    1.39032   0.98910    0.018
 4206.00    2.07595   0.97178    0.018
 4207.00    1.52576   0.96325    0.017
 4208.00    0.99520   0.97916    0.017
 4209.00    1.04098   0.99286    0.017
 4210.00    1.08029   0.97285    0.017
 4211.00    1.02526   0.91830    0.017
 4212.00    0.96024   0.87522    0.017
 4213.00    0.80086   0.90234    0.017
 4214.00    0.65802   0.97334    0.017
 4215.00    0.62887   1.01622    0.017
 4216.00    0.61909   1.02664    0.017
 4217.00    0.71227   1.03220    0.017
 4218.00    0.83476   1.02319    0.017
 4219.00    1.08240   0.98482    0.017
 4220.00    1.28471   0.93102    0.017
 4221.00    1.32735   0.86336    0.017
 4222.00    1.35463   0.77641    0.017
 4223.00    1.33641   0.71519    0.017
 4224.00    1.28467   0.75175    0.017
 4225.00    1.14833   0.86685    0.017
 4226.00    1.02852   0.96437    0.017
 4227.00    0.94463   1.00856    0.017
 4228.00    0.91604   1.00511    0.016
 4229.00    0.99174   0.95832    0.016
 4230.00    1.01552   0.91917    0.016
 4231.00    0.95383   0.91780    0.016
 4232.00    0.90890   0.91605    0.016
 4233.00    0.88814   0.91234    0.016
 4234.00    0.92603   0.92700    0.016
 4235.00    1.03838   0.93825    0.016
 4236.00    1.11813   0.94558    0.016
 4237.00    1.16141   0.96963    0.016
 4238.00    1.27130   0.99326    0.016
 4239.00    1.44693   1.00017    0.016
 4240.00    1.45310   1.01832    0.016
 4241.00    1.31182   1.04510    0.016
 4242.00    1.14411   1.03286    0.016
 4243.00    0.95616   0.98262    0.016
 4244.00    1.00535   0.94289    0.016
 4245.00    1.21435   0.92723    0.017
 4246.00    1.20125   0.90462    0.017
 4247.00    1.05702   0.88614    0.017
 4248.00    1.10294   0.91306    0.017
 4249.00    1.24676   0.94783    0.018
 4250.00    1.10651   0.93309    0.018
 4251.00    0.83953   0.90571    0.018
 4252.00    1.07110   0.92898    0.018
 4253.00    1.49384   0.98370    0.018
 4254.00    1.51376   0.99890    0.018
 4255.00    1.40241   0.95455    0.017
 4256.00    1.41706   0.89272    0.017
 4257.00    1.46611   0.86229    0.018
 4258.00    1.25834   0.89543    0.017
 4259.00    0.99301   0.97023    0.017
 4260.00    1.06257   1.02680    0.017
 4261.00    1.19203   1.04958    0.018
 4262.00    1.36996   1.05790    0.018
 4263.00    1.55453   1.04593    0.018
 4264.00    0.99532   1.00978    0.017
 4265.00    0.36346   0.97261    0.017
 4266.00    0.64111   0.92967    0.017
 4267.00    0.97437   0.85882    0.017
 4268.00    1.11360   0.79827    0.017
 4269.00    1.24938   0.80362    0.017
 4270.00    1.73478   0.83762    0.017
 4271.00    2.18608   0.85248    0.017
 4272.00    1.73617   0.88528    0.017
 4273.00    1.29016   0.95081    0.017
 4274.00    0.89780   1.00436    0.017
 4275.00    0.54282   1.01425    0.017
 4276.00    0.52750   0.98265    0.017
 4277.00    0.55920   0.94811    0.017
 4278.00    0.90416   0.93895    0.017
 4279.00    1.27425   0.94354    0.017
 4280.00    1.77444   0.95076    0.017
 4281.00    2.10175   0.94636    0.017
 4282.00    1.70742   0.93137   -2.000
 4283.00    1.48824   0.92860   -2.000
 4284.00    1.87369   0.92220   -2.000
 4285.00    2.06754   0.87565   -2.000
 4286.00    1.70449   0.81446   -2.000
 4287.00    1.35065   0.81008   -2.000
 4288.00    1.01962   0.87024   -2.000
 4289.00    0.72328   0.92775   -2.000
 4290.00    0.50110   0.93119   -2.000
 4291.00    0.49074   0.90860   -2.000
 4292.00    0.87365   0.90289   -2.000
 4293.00    1.19023   0.89685   -2.000
 4294.00    1.39923   0.86452   -2.000
 4295.00    1.49899   0.80245   -2.000
 4296.00    1.44335   0.74384   -2.000
 4297.00    1.19525   0.73624   -2.000
 4298.00    0.70627   0.75695    0.016
 4299.00    0.59482   0.76639    0.016
 4300.00    0.89981   0.78108    0.016
 4301.00    1.10659   0.79996    0.016
 4302.00    1.21782   0.79612    0.016
 4303.00    1.07818   0.76582    0.016
 4304.00    0.72329   0.72366    0.016
 4305.00    0.64733   0.70694    0.016
 4306.00    0.78216   0.73683    0.016
 4307.00    0.71984   0.78659    0.016
 4308.00    0.52660   0.82504    0.016
 4309.00    0.58179   0.84426    0.016
 4310.00    0.78145   0.85037    0.015
 4311.00    0.99838   0.87370    0.015
 4312.00    1.22406   0.94682    0.015
 4313.00    1.42779   1.02692    0.016
 4314.00    1.62188   1.05203    0.016
 4315.00    1.47536   1.03494    0.015
 4316.00    1.20054   1.00697    0.015
 4317.00    0.81778   0.97570    0.015
 4318.00    0.40050   0.95214    0.015
 4319.00    0.38495   0.91893    0.015
 4320.00    0.47677   0.84503    0.015
 4321.00    0.40682   0.75120    0.015
 4322.00    0.30148   0.70095    0.015
 4323.00    0.44413   0.74646    0.015
 4324.00    0.62991   0.85382    0.015
 4325.00    0.61928   0.92855    0.015
 4326.00    0.58266   0.92867    0.016
 4327.00    0.70586   0.89673    0.016
 4328.00    0.84399   0.88476    0.016
 4329.00    0.89104   0.88716    0.016
 4330.00    0.93289   0.88559    0.000
 4331.00    0.61055   0.88443    0.000
 4332.00    0.28375   0.86202    0.000
 4333.00    0.41785   0.78141    0.000
 4334.00    0.54989   0.67364    0.000
 4335.00    0.63220   0.59249    0.000
 4336.00    0.72749   0.53528    0.000
 4337.00    0.99164   0.52092    0.000
 4338.00    1.21155   0.58415    0.000
 4339.00    1.04498   0.67075    0.000
 4340.00    0.90258   0.72109    0.000
 4341.00    0.91631   0.76165    0.000
 4342.00    0.94829   0.80605    0.000
 4343.00    1.07232   0.83063    0.000
 4344.00    1.10105   0.85602    0.000
 4345.00    0.74082   0.90251    0.000
 4346.00    0.54043   0.91782    0.000
 4347.00    0.88075   0.85437    0.000
 4348.00    1.13546   0.77527    0.000
 4349.00    1.14584   0.77643    0.000
 4350.00    1.18217   0.84030    0.000
 4351.00    1.28175   0.89244    0.016
 4352.00    1.28305   0.92664    0.016
 4353.00    1.07760   0.95959    0.016
 4354.00    0.97865   0.96469    0.019
 4355.00    1.07440   0.93643    0.051
 4356.00    1.14048   0.92781   -1.000
 4357.00    1.15917   0.96497   -1.000
 4358.00    1.14389   1.00564   -1.000
 4359.00    1.08101   1.01772   -1.000
 4360.00    1.06079   1.02935   -1.000
 4361.00    1.09319   1.05768   -1.000
 4362.00    1.20107   1.06159   -1.000
 4363.00    1.39106   1.01869   -1.000
 4364.00    1.31042   0.97205    0.062
 4365.00    0.97017   0.96334    0.021
 4366.00    0.92716   0.97699    0.016
 4367.00    1.13557   0.98987    0.016
 4368.00    1.21099   1.00109    0.016
 4369.00    1.18736   0.99088    0.016
 4370.00    1.14405   0.94061    0.016
 4371.00    1.08788   0.88896    0.016
 4372.00    1.13860   0.89545    0.016
 4373.00    1.25054   0.96043    0.016
 4374.00    1.25352   1.02400    0.016
 4375.00    1.20215   1.04180    0.016
 4376.00    1.15324   1.02512    0.016
 4377.00    1.10540   1.00055    0.016
 4378.00    0.92097   0.94878    0.016
 4379.00    0.68600   0.84065    0.016
 4380.00    0.71419   0.74148    0.016
 4381.00    0.82489   0.74762    0.016
 4382.00    0.72979   0.84416    0.015
 4383.00    0.58085   0.93272    0.015
 4384.00    0.72274   0.96343    0.015
 4385.00    0.92675   0.96025    0.015
 4386.00    1.05757   0.94846    0.015
 4387.00    1.17602   0.94547    0.015
 4388.00    1.32058   0.96642    0.015
 4389.00    1.46849   0.99001    0.015
 4390.00    1.19956   0.97940    0.015
 4391.00    0.89343   0.95139    0.015
 4392.00    0.58693   0.96732    0.015
 4393.00    0.28041   1.02906    0.015
 4394.00    0.55882   1.06583    0.015
 4395.00    0.84852   1.04208    0.015
 4396.00    1.12516   0.98548    0.015
 4397.00    1.39344   0.95565    0.015
 4398.00    1.47776   0.98665    0.015
 4399.00    1.53253   1.00719    0.015
 4400.00    1.22214   0.94293    0.015
 4401.00    0.95514   0.86830    0.014
 4402.00    1.05311   0.88173    0.015
 4403.00    1.16401   0.93432    0.015
 4404.00    1.35592   0.94881    0.015
 4405.00    1.48616   0.95910    0.015
 4406.00    1.31308   1.00705    0.015
 4407.00    1.18836   1.05873    0.014
 4408.00    1.25669   1.08780    0.014
 4409.00    1.30869   1.09146    0.014
 4410.00    1.30655   1.04208    0.014
 4411.00    1.30908   0.95506    0.015
 4412.00    1.32471   0.91486    0.015
 4413.00    1.34281   0.94204    0.015
 4414.00    1.36683   0.99241    0.015
 4415.00    1.34699   1.04737    0.014
 4416.00    1.23634   1.08723    0.014
 4417.00    1.20519   1.08042    0.014
 4418.00    1.31717   1.03319    0.014
 4419.00    1.35841   0.99809    0.014
 4420.00    1.28830   1.00757    0.014
 4421.00    1.30061   1.02871    0.014
 4422.00    1.42680   1.02982    0.014
 4423.00    1.48198   1.02486    0.014
 4424.00    1.45078   1.03486    0.014
 4425.00    1.31077   1.04402    0.014
 4426.00    1.05409   1.02331    0.014
 4427.00    0.90760   1.00847    0.014
 4428.00    0.86533   1.02919    0.015
 4429.00    0.95584   1.03488    0.015
 4430.00    1.15707   0.99270    0.015
 4431.00    1.22745   0.94122    0.014
 4432.00    1.20176   0.93834    0.014
 4433.00    1.18136   0.99552    0.014
 4434.00    1.16435   1.06576    0.014
 4435.00    1.21328   1.10768    0.014
 4436.00    1.29940   1.10443    0.015
 4437.00    1.28843   1.05731    0.015
 4438.00    1.22980   0.99413    0.015
 4439.00    1.30201   0.95212    0.015
 4440.00    1.42972   0.96130    0.014
 4441.00    1.31002   1.02136    0.014
 4442.00    1.10039   1.07810    0.014
 4443.00    1.07546   1.08695    0.014
 4444.00    1.10733   1.08109    0.014
 4445.00    1.14507   1.08430    0.014
 4446.00    1.18430   1.07040    0.014
 4447.00    1.30764   1.05480    0.014
 4448.00    1.44850   1.06032    0.014
 4449.00    1.27760   1.05442    0.014
 4450.00    1.05547   1.00818    0.014
 4451.00    1.01928   0.94900    0.014
 4452.00    1.00601   0.93291    0.014
 4453.00    1.11885   0.95812    0.014
 4454.00    1.24242   0.97314    0.015
 4455.00    1.16260   0.96539    0.014
 4456.00    1.07275   0.95754    0.014
 4457.00    1.19845   0.94527    0.014
 4458.00    1.32159   0.93670    0.014
 4459.00    1.06910   0.97176    0.014
 4460.00    0.82676   1.02333    0.014
 4461.00    0.78985   1.03770    0.000
 4462.00    0.75680   1.02806    0.000
 4463.00    0.76911   1.02213    0.000
 4464.00    0.79416   1.01329    0.000
 4465.00    0.92247   0.99356    0.000
 4466.00    1.03975   0.98919    0.000
 4467.00    1.08986   1.01367    0.000
 4468.00    1.11403   1.04803    0.000
 4469.00    1.01371   1.08151    0.000
 4470.00    1.00416   1.10436    0.000
 4471.00    1.34909   1.10379    0.000
 4472.00    1.47300   1.10064    0.000
 4473.00    0.87829   1.12243    0.000
 4474.00    0.47024   1.14244    0.000
 4475.00    0.57577   1.11417    0.000
 4476.00    0.66297   1.03611    0.000
 4477.00    0.70701   0.95708    0.000
 4478.00    0.74043   0.93428    0.000
 4479.00    0.75221   0.98451    0.000
 4480.00    0.84381   1.06205    0.000
 4481.00    1.07691   1.11620    0.000
 4482.00    1.24241   1.13980    0.014
 4483.00    1.30308   1.13222    0.014
 4484.00    1.20531   1.08835    0.014
 4485.00    0.89175   1.03115    0.014
 4486.00    0.72585   1.00357    0.014
 4487.00    0.73703   1.02387    0.014
 4488.00    0.79929   1.06669    0.014
 4489.00    0.91553   1.08437    0.014
 4490.00    0.94468   1.05261    0.014
 4491.00    0.89259   1.01263    0.014
 4492.00    0.85277   1.00968    0.014
 4493.00    0.82301   1.04008    0.014
 4494.00    0.90055   1.08306    0.014
 4495.00    1.05573   1.11464    0.014
 4496.00    1.15079   1.11271    0.014
 4497.00    1.20767   1.07925    0.014
 4498.00    1.28554   1.06941    0.014
 4499.00    1.37509   1.11918    0.014
 4500.00    1.32787   1.17580    0.014
 4501.00    1.21459   1.19131    0.014
 4502.00    1.21940   1.17383    0.014
 4503.00    1.27348   1.14404    0.014
 4504.00    1.11100   1.12039    0.014
 4505.00    0.87124   1.12132    0.014
 4506.00    0.89846   1.14311    0.014
 4507.00    1.00619   1.15628    0.015
 4508.00    1.43581   1.14098    0.014
 4509.00    1.94607   1.11146    0.014
 4510.00    1.70874   1.08394    0.014
 4511.00    1.31944   1.07046    0.014
 4512.00    1.35942   1.07939    0.014
 4513.00    1.46787   1.08729    0.014
 4514.00    1.40459   1.08040    0.014
 4515.00    1.32091   1.08414    0.014
 4516.00    1.15788   1.10514    0.014
 4517.00    0.98844   1.12339    0.014
 4518.00    0.95951   1.10838    0.014
 4519.00    0.93696   1.07363    0.014
 4520.00    1.13845   1.06265    0.014
 4521.00    1.33398   1.05709    0.014
 4522.00    1.08565   1.02984    0.014
 4523.00    0.86189   0.99251    0.014
 4524.00    1.09916   0.96032    0.014
 4525.00    1.31682   0.94841    0.014
 4526.00    1.31481   0.96373    0.014
 4527.00    1.31521   0.99203    0.014
 4528.00    1.33458   1.02210    0.014
 4529.00    1.30074   1.02186    0.014
 4530.00    0.95222   0.98383    0.014
 4531.00    0.68170   0.95687    0.014
 4532.00    0.77632   0.98885    0.014
 4533.00    0.87248   1.07199    0.014
 4534.00    0.97456   1.12939    0.014
 4535.00    1.11625   1.12271    0.014
 4536.00    1.38430   1.08437    0.014
 4537.00    1.45452   1.05498    0.014
 4538.00    0.99017   1.06278    0.014
 4539.00    0.80127   1.09099    0.014
 4540.00    1.25062   1.09125    0.014
 4541.00    1.46277   1.06586    0.014
 4542.00    1.19945   1.05854    0.014
 4543.00    1.07437   1.06893    0.014
 4544.00    1.19064   1.05804    0.014
 4545.00    1.26535   1.01391    0.014
 4546.00    1.27656   0.99525    0.014
 4547.00    1.24140   1.03274    0.014
 4548.00    1.14398   1.06266    0.014
 4549.00    1.14511   1.05004    0.014
 4550.00    1.26274   1.01800    0.000
 4551.00    1.22260   0.99663    0.000
 4552.00    1.01801   1.01452    0.000
 4553.00    0.97979   1.06757    0.000
 4554.00    1.09455   1.10881    0.000
 4555.00    1.01248   1.12166    0.000
 4556.00    0.77089   1.12438    0.000
 4557.00    0.74864   1.13184    0.000
 4558.00    0.88281   1.13526    0.000
 4559.00    1.08595   1.10568    0.000
 4560.00    1.33224   1.05484    0.000
 4561.00    1.28990   1.02766    0.000
 4562.00    1.08970   1.04753    0.000
 4563.00    1.13824   1.10095    0.000
 4564.00    1.30504   1.14158    0.000
 4565.00    1.29084   1.14797    0.000
 4566.00    1.20241   1.12827    0.000
 4567.00    1.21029   1.07824    0.000
 4568.00    1.25192   1.04712    0.000
 4569.00    1.20665   1.08435    0.000
 4570.00    1.13570   1.12824    0.000
 4571.00    0.98695   1.12861    0.000
 4572.00    0.81914   1.11875    0.000
 4573.00    0.90132   1.11890    0.000
 4574.00    1.03304   1.11108    0.000
 4575.00    0.92877   1.07881    0.000
 4576.00    0.78797   1.03765    0.000
 4577.00    0.76476   1.02248    0.000
 4578.00    0.75501   1.03727    0.000
 4579.00    0.75542   1.04584    0.000
 4580.00    0.75661   1.03895    0.000
 4581.00    0.86937   1.03720    0.000
 4582.00    0.98678   1.04236    0.000
 4583.00    0.80939   1.06133    0.000
 4584.00    0.63455   1.09308    0.000
 4585.00    0.67918   1.11865    0.000
 4586.00    0.73289   1.12060    0.000
 4587.00    0.94562   1.09561    0.000
 4588.00    1.11540   1.06522    0.000
 4589.00    0.82583   1.05677    0.000
 4590.00    0.57935   1.05990    0.000
 4591.00    0.65858   1.05501    0.000
 4592.00    0.74717   1.05222    0.000
 4593.00    0.88954   1.05817    0.000
 4594.00    0.99639   1.06896    0.000
 4595.00    0.94093   1.08175    0.000
 4596.00    0.90194   1.07406    0.000
 4597.00    0.92456   1.06072    0.000
 4598.00    0.95318   1.06941    0.000
 4599.00    1.00054   1.07967    0.000
 4600.00    1.01992   1.07797    0.000
 4601.00    0.96501   1.06766    0.000
 4602.00    0.90211   1.06941    0.000
 4603.00    0.82098   1.09707    0.000
 4604.00    0.89729   1.14082    0.000
 4605.00    1.28423   1.17430    0.000
 4606.00    1.37971   1.17143    0.000
 4607.00    0.97403   1.14255    0.000
 4608.00    0.72620   1.11916    0.000
 4609.00    0.71603   1.10736    0.000
 4610.00    0.74321   1.11232    0.000
 4611.00    0.81981   1.13033    0.000
 4612.00    0.90094   1.13370    0.000
 4613.00    0.98735   1.13297    0.000
 4614.00    0.99584   1.12866    0.000
 4615.00    0.92425   1.10733    0.000
 4616.00    0.89091   1.10352    0.000
 4617.00    0.89223   1.12916    0.000
 4618.00    0.90439   1.14131    0.000
 4619.00    0.92520   1.13921    0.000
 4620.00    1.06686   1.14175    0.000
 4621.00    1.29345   1.13359    0.000
 4622.00    1.35261   1.12082    0.000
 4623.00    1.30853   1.12395    0.000
 4624.00    1.24121   1.12506    0.000
 4625.00    1.16138   1.10623    0.000
 4626.00    1.10710   1.10248    0.000
 4627.00    1.06478   1.13202    0.000
 4628.00    0.92383   1.14333    0.000
 4629.00    0.74311   1.11355    0.000
 4630.00    0.81600   1.08579    0.000
 4631.00    0.97613   1.08511    0.000
 4632.00    0.81421   1.09180    0.000
 4633.00    0.55901   1.08276    0.000
 4634.00    0.88151   1.06563    0.000
 4635.00    1.34238   1.05598    0.000
 4636.00    1.21464   1.05512    0.000
 4637.00    0.97321   1.07714    0.000
 4638.00    1.00437   1.10563    0.000
 4639.00    1.07646   1.10597    0.000
 4640.00    1.01866   1.08669    0.000
 4641.00    0.94656   1.06090    0.000
 4642.00    1.05333   1.02080    0.000
 4643.00    1.17309   0.98999    0.000
 4644.00    1.18017   0.99476    0.000
 4645.00    1.18299   1.02566    0.000
 4646.00    0.98489   1.06367    0.000
 4647.00    0.79199   1.09163    0.000
 4648.00    0.82939   1.10719    0.000
 4649.00    0.85923   1.11111    0.000
 4650.00    0.76525   1.08740    0.000
 4651.00    0.70802   1.05377    0.000
 4652.00    1.02683   1.04026    0.000
 4653.00    1.27560   1.05663    0.000
 4654.00    1.01254   1.10429    0.000
 4655.00    0.79349   1.15654    0.000
 4656.00    0.82051   1.17852    0.000
 4657.00    0.84498   1.16041    0.000
 4658.00    0.85812   1.12060    0.000
 4659.00    0.84576   1.08466    0.000
 4660.00    0.73999   1.07263    0.000
 4661.00    0.66383   1.06795    0.000
 4662.00    0.67852   1.02435    0.000
 4663.00    0.72154   0.95692    0.000
 4664.00    0.83844   0.93614    0.000
 4665.00    0.91649   0.97819    0.000
 4666.00    0.90749   1.03791    0.000
 4667.00    0.90083   1.08194    0.000
 4668.00    0.89870   1.09533    0.000
 4669.00    0.95560   1.08466    0.000
 4670.00    1.11249   1.07518    0.000
 4671.00    1.09907   1.08586    0.000
 4672.00    0.83293   1.11375    0.000
 4673.00    0.74691   1.12419    0.000
 4674.00    0.89582   1.09980    0.000
 4675.00    1.04039   1.06855    0.000
 4676.00    1.17998   1.05005    0.000
 4677.00    1.10708   1.04105    0.000
 4678.00    0.81886   1.04664    0.000
 4679.00    0.70462   1.07306    0.000
 4680.00    0.74587   1.09660    0.000
 4681.00    0.85962   1.10035    0.000
 4682.00    1.03046   1.09720    0.000
 4683.00    1.06616   1.08703    0.000
 4684.00    1.00824   1.07640    0.000
 4685.00    0.88204   1.07875    0.000
 4686.00    0.71436   1.07995    0.000
 4687.00    0.71449   1.06939    0.000
 4688.00    0.80361   1.06605    0.000
 4689.00    0.93654   1.07597    0.000
 4690.00    1.08962   1.09023    0.000
 4691.00    0.96265   1.11094    0.000
 4692.00    0.72472   1.12742    0.000
 4693.00    0.85754   1.11413    0.000
 4694.00    1.11555   1.06915    0.000
 4695.00    1.06566   1.03627    0.000
 4696.00    0.92839   1.04010    0.000
 4697.00    0.91977   1.04572    0.000
 4698.00    0.94128   1.02892    0.000
 4699.00    0.85245   1.01217    0.000
 4700.00    0.74287   1.02981    0.000
 4701.00    0.87010   1.06350    0.000
 4702.00    1.03179   1.07078    0.000
 4703.00    0.96320   1.04951    0.000
 4704.00    0.87027   1.02948    0.000
 4705.00    0.72900   1.02520    0.000
 4706.00    0.58441   1.04449    0.000
 4707.00    0.71472   1.08309    0.000
 4708.00    0.85439   1.10245    0.000
 4709.00    0.76206   1.08637    0.000
 4710.00    0.67169   1.05232    0.000
 4711.00    0.65676   1.04326    0.000
 4712.00    0.64574   1.07858    0.000
 4713.00    0.69461   1.11678    0.000
 4714.00    0.72969   1.13287    0.000
 4715.00    0.62947   1.14679    0.000
 4716.00    0.54973   1.15862    0.000
 4717.00    0.61476   1.15327    0.000
 4718.00    0.70461   1.13403    0.000
 4719.00    0.92945   1.12573    0.000
 4720.00    1.10435   1.14267    0.000
 4721.00    1.06161   1.16136    0.000
 4722.00    0.99826   1.14559    0.000
 4723.00    0.86093   1.08762    0.000
 4724.00    0.81087   1.03210    0.000
 4725.00    1.02354   1.01723    0.000
 4726.00    1.15524   1.02535    0.000
 4727.00    1.07945   1.03734    0.000
 4728.00    1.08495   1.06011    0.000
 4729.00    1.26960   1.08380    0.000
 4730.00    1.32751   1.09727    0.000
 4731.00    1.14308   1.10520    0.000
 4732.00    0.95717   1.08667    0.000
 4733.00    0.76879   1.06684    0.000
 4734.00    0.66441   1.09218    0.000
 4735.00    0.68283   1.12165    0.000
 4736.00    0.76665   1.11368    0.000
 4737.00    0.93455   1.09653    0.000
 4738.00    1.03487   1.10147    0.000
 4739.00    1.05864   1.11904    0.000
 4740.00    1.08159   1.12233    0.000
 4741.00    1.10372   1.11340    0.000
 4742.00    1.17347   1.12265    0.000
 4743.00    1.28521   1.13941    0.000
 4744.00    1.23188   1.13832    0.000
 4745.00    1.05040   1.13321    0.000
 4746.00    1.06787   1.13632    0.000
 4747.00    1.22114   1.13433    0.000
 4748.00    1.19679   1.11621    0.000
 4749.00    1.06619   1.09864    0.000
 4750.00    0.74536   1.08629    0.000
 4751.00    0.32524   1.08040    0.000
 4752.00    0.49900   1.08034    0.000
 4753.00    0.94158   1.08596    0.000
 4754.00    1.02535   1.09683    0.000
 4755.00    0.96942   1.11081    0.000
 4756.00    1.00132   1.12066    0.000
 4757.00    1.06234   1.10246    0.000
 4758.00    1.11164   1.06518    0.000
 4759.00    1.15770   1.04511    0.000
 4760.00    1.20746   1.03840    0.000
 4761.00    1.25807   1.02235    0.012
 4762.00    1.08062   1.01162    0.012
 4763.00    0.86138   1.02794    0.012
 4764.00    0.89954   1.06133    0.012
 4765.00    0.97395   1.09589    0.012
 4766.00    1.04165   1.11328    0.012
 4767.00    1.10867   1.09428    0.012
 4768.00    1.02697   1.07181    0.012
 4769.00    0.93566   1.08334    0.012
 4770.00    0.85848   1.11864    0.012
 4771.00    0.78193   1.13697    0.012
 4772.00    0.80517   1.13011    0.012
 4773.00    0.82356   1.13291    0.012
 4774.00    0.70153   1.13978    0.012
 4775.00    0.59880   1.12837    0.012
 4776.00    0.77509   1.11509    0.012
 4777.00    0.94554   1.11177    0.012
 4778.00    1.06101   1.09846    0.012
 4779.00    1.13249   1.07383    0.012
 4780.00    0.90286   1.07322    0.011
 4781.00    0.72859   1.08551    0.011
 4782.00    0.84764   1.06987    0.011
 4783.00    0.98263   1.06034    0.011
 4784.00    1.18553   1.07319    0.011
 4785.00    1.30503   1.07126    0.011
 4786.00    1.13145   1.06797    0.011
 4787.00    0.99261   1.07915    0.011
 4788.00    0.95643   1.09533    0.011
 4789.00    0.92110   1.12161    0.011
 4790.00    0.88794   1.15602    0.011
 4791.00    0.85941   1.17311    0.011
 4792.00    0.84092   1.16159    0.011
 4793.00    0.80760   1.13638    0.011
 4794.00    0.74635   1.10531    0.011
 4795.00    0.76550   1.07640    0.011
 4796.00    0.91678   1.07093    0.011
 4797.00    0.99273   1.09731    0.011
 4798.00    0.96013   1.13359    0.011
 4799.00    0.92219   1.14720    0.011
 4800.00    0.87748   1.12780    0.011
 4801.00    0.88090   1.09581    0.011
 4802.00    0.93808   1.08454    0.011
 4803.00    0.95015   1.07919    0.011
 4804.00    0.91777   1.07079    0.011
 4805.00    0.97781   1.07953    0.011
 4806.00    1.11814   1.09794    0.011
 4807.00    1.03620   1.10471    0.011
 4808.00    0.78416   1.10222    0.011
 4809.00    0.84361   1.10037    0.011
 4810.00    1.11259   1.10408    0.011
 4811.00    1.09741   1.11197    0.011
 4812.00    0.91478   1.12395    0.011
 4813.00    0.88672   1.13587    0.011
 4814.00    0.93810   1.14353    0.011
 4815.00    0.96006   1.15150    0.011
 4816.00    0.96891   1.15115    0.011
 4817.00    0.90493   1.14005    0.011
 4818.00    0.81309   1.11222    0.011
 4819.00    0.78683   1.06009    0.011
 4820.00    0.78190   1.03373    0.011
 4821.00    0.80369   1.06412    0.011
 4822.00    0.83277   1.10230    0.011
 4823.00    0.89428   1.10783    0.011
 4824.00    0.96304   1.09089    0.011
 4825.00    0.98079   1.08038    0.011
 4826.00    0.98946   1.08416    0.011
 4827.00    0.88422   1.07256    0.011
 4828.00    0.76346   1.04853    0.011
 4829.00    0.83501   1.05628    0.011
 4830.00    0.92525   1.08394    0.011
 4831.00    0.94848   1.09304    0.011
 4832.00    0.96766   1.08570    0.011
 4833.00    1.02449   1.08263    0.011
 4834.00    1.08173   1.07306    0.011
 4835.00    1.03382   1.04571    0.011
 4836.00    0.98996   1.02514    0.011
 4837.00    1.05203   1.03068    0.011
 4838.00    1.10221   1.03759    0.011
 4839.00    0.99012   1.02508    0.011
 4840.00    0.90473   1.02693    0.011
 4841.00    1.06066   1.05342    0.011
 4842.00    1.20451   1.06632    0.011
 4843.00    1.26817   1.04439    0.011
 4844.00    1.29890   1.00202    0.011
 4845.00    1.15976   0.98237    0.011
 4846.00    1.06376   1.00031    0.011
 4847.00    1.14740   1.01010    0.011
 4848.00    1.19867   0.99972    0.000
 4849.00    1.13853   0.98518    0.000
 4850.00    1.06331   0.94507    0.000
 4851.00    0.94436   0.88490    0.000
 4852.00    0.80239   0.86244    0.000
 4853.00    0.60345   0.88002    0.000
 4854.00    0.57011   0.87292    0.000
 4855.00    0.89010   0.81018    0.000
 4856.00    1.10687   0.70712    0.000
 4857.00    1.13240   0.62380    0.000
 4858.00    1.16451   0.64334    0.000
 4859.00    1.20730   0.73637    0.000
 4860.00    1.18900   0.80373    0.000
 4861.00    1.08395   0.84702    0.000
 4862.00    1.01259   0.88895    0.000
 4863.00    0.98330   0.91416    0.000
 4864.00    0.99776   0.92605    0.000
 4865.00    1.06037   0.93743    0.000
 4866.00    1.06640   0.91813    0.000
 4867.00    1.01749   0.86504    0.000
 4868.00    0.98711   0.85383    0.000
 4869.00    0.97261   0.90705    0.000
 4870.00    0.86870   0.95612    0.000
 4871.00    0.69733   0.96896    0.000
 4872.00    0.79757   0.97866    0.000
 4873.00    1.07784   0.99641    0.000
 4874.00    1.05875   1.01533    0.000
 4875.00    0.86592   1.05139    0.011
 4876.00    0.79822   1.06813    0.011
 4877.00    0.79379   1.03766    0.011
 4878.00    0.96166   1.01699    0.011
 4879.00    1.20497   1.02901    0.011
 4880.00    1.13759   1.02651    0.011
 4881.00    0.95344   0.99677    0.011
 4882.00    0.95634   0.97637    0.011
 4883.00    1.01890   0.98745    0.011
 4884.00    1.03445   1.00787    0.011
 4885.00    1.03746   1.00707    0.011
 4886.00    0.93036   0.96936    0.011
 4887.00    0.79925   0.92884    0.011
 4888.00    0.82911   0.96532    0.011
 4889.00    0.88688   1.05347    0.011
 4890.00    1.08273   1.11779    0.011
 4891.00    1.29676   1.14956    0.011
 4892.00    1.30625   1.15664    0.011
 4893.00    1.29674   1.15207    0.011
 4894.00    1.15584   1.14205    0.011
 4895.00    1.00748   1.11188    0.011
 4896.00    0.87892   1.08335    0.011
 4897.00    0.75314   1.08906    0.011
 4898.00    0.88219   1.09443    0.011
 4899.00    1.00722   1.07615    0.011
 4900.00    1.03694   1.07501    0.011
 4901.00    1.06487   1.11098    0.011
 4902.00    1.06971   1.14661    0.011
 4903.00    1.07992   1.14240    0.011
 4904.00    1.13688   1.10822    0.011
 4905.00    1.17889   1.06623    0.011
 4906.00    1.12469   1.03177    0.011
 4907.00    1.06062   1.03185    0.011
 4908.00    0.94696   1.06223    0.011
 4909.00    0.88180   1.09042    0.011
 4910.00    1.01409   1.11106    0.011
 4911.00    1.08215   1.13524    0.011
 4912.00    0.93344   1.14167    0.011
 4913.00    0.83421   1.10470    0.011
 4914.00    0.87588   1.02566    0.011
 4915.00    0.91333   0.94273    0.011
 4916.00    0.94054   0.90342    0.011
 4917.00    0.98771   0.93234    0.011
 4918.00    1.07682   0.99854    0.011
 4919.00    1.13559   1.02926    0.011
 4920.00    1.13900   1.01894    0.011
 4921.00    1.07129   1.02976    0.011
 4922.00    0.89017   1.07731    0.011
 4923.00    0.80955   1.11461    0.011
 4924.00    0.86959   1.13283    0.011
 4925.00    0.91255   1.15257    0.011
 4926.00    0.93450   1.15907    0.011
 4927.00    1.03917   1.15159    0.011
 4928.00    1.23364   1.12615    0.011
 4929.00    1.27554   1.06845    0.011
 4930.00    1.17135   1.03852    0.011
 4931.00    1.06491   1.07148    0.011
 4932.00    0.95656   1.09302    0.011
 4933.00    0.93760   1.05681    0.011
 4934.00    0.98509   1.00052    0.011
 4935.00    1.06444   0.98664    0.011
 4936.00    1.16462   1.03767    0.011
 4937.00    1.15180   1.10259    0.011
 4938.00    1.07440   1.13102    0.011
 4939.00    0.98128   1.14414    0.011
 4940.00    0.88035   1.15127    0.000
 4941.00    0.81697   1.13352    0.000
 4942.00    0.76976   1.11477    0.000
 4943.00    0.82837   1.12658    0.000
 4944.00    0.92604   1.14577    0.000
 4945.00    0.99509   1.15215    0.000
 4946.00    1.05517   1.15651    0.000
 4947.00    1.02976   1.16250    0.000
 4948.00    0.98204   1.15247    0.000
 4949.00    0.86658   1.13118    0.000
 4950.00    0.73669   1.12133    0.000
 4951.00    1.01132   1.11088    0.000
 4952.00    1.35411   1.05378    0.000
 4953.00    1.10706   0.95614    0.000
 4954.00    0.78499   0.93968    0.000
 4955.00    0.88142   1.03384    0.000
 4956.00    1.01498   1.11674    0.000
 4957.00    0.97682   1.13376    0.000
 4958.00    0.92960   1.12685    0.000
 4959.00    0.90434   1.12851    0.000
 4960.00    0.88019   1.11576    0.000
 4961.00    0.90953   1.07636    0.000
 4962.00    0.94106   1.04973    0.000
 4963.00    1.02041   1.05167    0.000
 4964.00    1.08528   1.05826    0.000
 4965.00    0.97251   1.06589    0.000
 4966.00    0.88856   1.07513    0.000
 4967.00    1.04584   1.09165    0.000
 4968.00    1.16368   1.11321    0.000
 4969.00    1.03522   1.12552    0.000
 4970.00    0.96651   1.13360    0.000
 4971.00    1.19074   1.13318    0.000
 4972.00    1.34916   1.12124    0.000
 4973.00    1.24561   1.10371    0.000
 4974.00    1.13420   1.07581    0.000
 4975.00    0.99679   1.05701    0.000
 4976.00    0.91625   1.05239    0.000
 4977.00    0.99472   1.02521    0.000
 4978.00    1.03430   0.96890    0.000
 4979.00    0.98085   0.93580    0.000
 4980.00    0.93374   0.95284    0.000
 4981.00    0.89969   0.98954    0.000
 4982.00    0.90140   1.03112    0.000
 4983.00    0.96737   1.07632    0.000
 4984.00    1.02703   1.09617    0.000
 4985.00    1.07681   1.08533    0.000
 4986.00    1.06576   1.06491    0.000
 4987.00    0.97082   1.05417    0.000
 4988.00    0.92121   1.06736    0.000
 4989.00    0.92663   1.07294    0.000
 4990.00    0.90483   1.06647    0.000
 4991.00    0.85390   1.08093    0.000
 4992.00    0.88075   1.09597    0.000
 4993.00    0.98103   1.09275    0.000
 4994.00    1.01801   1.07763    0.000
 4995.00    1.00230   1.04426    0.000
 4996.00    0.98805   1.01128    0.000
 4997.00    0.97486   0.99917    0.000
 4998.00    0.96330   1.00453    0.000
 4999.00    0.95279   1.01692    0.000
 5000.00    0.92710   1.01243    0.000
 5001.00    0.89285   0.97607    0.000
 5002.00    0.99779   0.94487    0.000
 5003.00    1.17092   0.97058    0.000
 5004.00    1.14248   1.03312    0.000
 5005.00    1.02869   1.06693    0.000
 5006.00    1.02222   1.06080    0.000
 5007.00    1.05465   1.03313    0.000
 5008.00    1.07636   0.98982    0.000
 5009.00    1.09477   0.95299    0.000
 5010.00    1.18839   0.94208    0.000
 5011.00    1.30120   0.96566    0.000
 5012.00    1.22072   0.99456    0.000
 5013.00    1.10009   0.98536    0.000
 5014.00    0.89935   0.96278    0.000
 5015.00    0.68551   0.97522    0.000
 5016.00    0.83134   1.00364    0.000
 5017.00    1.02131   1.00828    0.000
 5018.00    0.90061   0.99567    0.000
 5019.00    0.75364   1.00756    0.000
 5020.00    0.81836   1.04003    0.000
 5021.00    0.89343   1.05535    0.000
 5022.00    0.99458   1.04665    0.000
 5023.00    1.09372   1.01885    0.000
 5024.00    1.04538   1.01442    0.000
 5025.00    1.00041   1.04663    0.000
 5026.00    1.02298   1.06924    0.000
 5027.00    1.03507   1.07988    0.000
 5028.00    0.92470   1.10317    0.000
 5029.00    0.82806   1.12586    0.010
 5030.00    0.84233   1.11167    0.010
 5031.00    0.85222   1.05566    0.010
 5032.00    0.83560   1.01365    0.010
 5033.00    0.84884   1.02379    0.010
 5034.00    1.00493   1.02883    0.011
 5035.00    1.10371   0.98807    0.011
 5036.00    0.97931   0.92299    0.011
 5037.00    0.90915   0.88492    0.010
 5038.00    1.01492   0.93258    0.010
 5039.00    1.05502   1.02323    0.010
 5040.00    0.91486   1.08149    0.010
 5041.00    0.80937   1.11491    0.010
 5042.00    0.78539   1.13239    0.010
 5043.00    0.80207   1.10842    0.011
 5044.00    0.90139   1.05126    0.010
 5045.00    0.98481   1.00991    0.010
 5046.00    1.04010   1.00499    0.010
 5047.00    1.10144   1.01046    0.010
 5048.00    1.17216   1.01935    0.010
 5049.00    1.16254   1.04660    0.011
 5050.00    1.04368   1.07892    0.011
 5051.00    1.01435   1.09481    0.011
 5052.00    1.09218   1.09337    0.011
 5053.00    1.10658   1.09477    0.011
 5054.00    1.05403   1.10453    0.011
 5055.00    0.98919   1.11051    0.010
 5056.00    0.91289   1.11801    0.010
 5057.00    0.90267   1.13224    0.010
 5058.00    0.94665   1.13489    0.010
 5059.00    0.86908   1.10582    0.010
 5060.00    0.70371   1.04525    0.010
 5061.00    0.81839   1.00675    0.010
 5062.00    1.11063   1.02296    0.010
 5063.00    1.18672   1.03881    0.010
 5064.00    1.14299   1.03269    0.010
 5065.00    1.03280   1.04179    0.010
 5066.00    0.89056   1.06612    0.010
 5067.00    0.84801   1.06008    0.010
 5068.00    0.84696   1.03237    0.010
 5069.00    0.78571   1.03616    0.010
 5070.00    0.70302   1.05484    0.010
 5071.00    0.80232   1.05132    0.010
 5072.00    0.95636   1.04809    0.010
 5073.00    0.86776   1.05850    0.010
 5074.00    0.71855   1.03661    0.010
 5075.00    0.77962   0.96866    0.010
 5076.00    0.88330   0.93169    0.010
 5077.00    0.87119   0.95917    0.010
 5078.00    0.84069   0.99386    0.010
 5079.00    0.85783   1.00337    0.010
 5080.00    0.88060   1.01704    0.010
 5081.00    0.84428   1.04431    0.010
 5082.00    0.80321   1.05872    0.010
 5083.00    0.93101   1.05583    0.010
 5084.00    1.06641   1.05739    0.010
 5085.00    1.03555   1.06813    0.009
 5086.00    1.00198   1.07335    0.009
 5087.00    0.93146   1.07564    0.009
 5088.00    0.86761   1.09025    0.009
 5089.00    0.92766   1.10814    0.009
 5090.00    0.98234   1.10624    0.009
 5091.00    0.97734   1.08462    0.009
 5092.00    0.96146   1.05531    0.009
 5093.00    0.86088   1.02049    0.009
 5094.00    0.76943   0.98118    0.009
 5095.00    0.73187   0.96230    0.010
 5096.00    0.71665   0.99399    0.010
 5097.00    0.80574   1.04481    0.010
 5098.00    0.89023   1.06830    0.010
 5099.00    0.95720   1.06088    0.009
 5100.00    0.99668   1.04717    0.009
 5101.00    0.94868   1.04076    0.009
 5102.00    0.92145   1.03014    0.009
 5103.00    0.95025   1.00917    0.010
 5104.00    0.96542   1.00029    0.010
 5105.00    0.94912   1.00170    0.010
 5106.00    0.96063   1.00017    0.009
 5107.00    1.02777   1.01901    0.010
 5108.00    1.02828   1.04730    0.010
 5109.00    0.91268   1.05932    0.010
 5110.00    0.82855   1.06778    0.010
 5111.00    0.79243   1.07550    0.010
 5112.00    0.81358   1.08448    0.010
 5113.00    0.91149   1.10155    0.010
 5114.00    1.00225   1.10870    0.010
 5115.00    1.08456   1.09729    0.010
 5116.00    1.03588   1.07451    0.010
 5117.00    0.85089   1.04824    0.010
 5118.00    0.74433   1.02010    0.010
 5119.00    0.70976   0.98449    0.010
 5120.00    0.77338   0.96401    0.010
 5121.00    0.91642   0.97448    0.010
 5122.00    0.95632   0.98989    0.010
 5123.00    0.92281   0.99187    0.010
 5124.00    0.87166   0.98723    0.010
 5125.00    0.80949   0.98548    0.010
 5126.00    0.87076   0.99817    0.010
 5127.00    0.99941   1.02200    0.010
 5128.00    0.94107   1.03459    0.010
 5129.00    0.79402   1.03548    0.010
 5130.00    0.74937   1.04669    0.010
 5131.00    0.74663   1.06608    0.010
 5132.00    0.81109   1.05477    0.010
 5133.00    0.89906   1.01937    0.010
 5134.00    0.94503   0.98946    0.010
 5135.00    0.97863   0.97492    0.010
 5136.00    0.91958   0.99787    0.010
 5137.00    0.83790   1.01592    0.010
 5138.00    0.81937   0.98886    0.010
 5139.00    0.81330   0.98099    0.010
 5140.00    1.02748   1.00858    0.010
 5141.00    1.27562   1.01203    0.010
 5142.00    1.21203   0.99093    0.010
 5143.00    1.11295   0.97951    0.010
 5144.00    0.96254   0.98937    0.010
 5145.00    0.80822   1.00890    0.010
 5146.00    0.80379   1.00887    0.010
 5147.00    0.80552   0.99154    0.010
 5148.00    0.89201   0.98039    0.010
 5149.00    0.97438   0.97729    0.010
 5150.00    0.85343   0.98350    0.010
 5151.00    0.74162   1.00748    0.010
 5152.00    0.78820   1.04012    0.010
 5153.00    0.83851   1.06673    0.010
 5154.00    0.92860   1.07669    0.010
 5155.00    1.00124   1.07338    0.010
 5156.00    0.94249   1.07283    0.010
 5157.00    0.88223   1.06276    0.010
 5158.00    0.81332   1.03599    0.010
 5159.00    0.76189   1.02009    0.010
 5160.00    0.79012   0.99830    0.010
 5161.00    0.86098   0.93355    0.010
 5162.00    1.09085   0.83679    0.010
 5163.00    1.23381   0.75708    0.010
 5164.00    1.10566   0.75395    0.010
 5165.00    0.96277   0.82523    0.010
 5166.00    0.78086   0.88290    0.009
 5167.00    0.68187   0.84202    0.009
 5168.00    0.77142   0.75439    0.009
 5169.00    0.82436   0.75976    0.010
 5170.00    0.80519   0.87272    0.009
 5171.00    0.79426   0.97445    0.009
 5172.00    0.79748   1.00882    0.009
 5173.00    0.79793   1.01735    0.010
 5174.00    0.79422   1.02574    0.010
 5175.00    0.74869   1.02169    0.010
 5176.00    0.64793   1.00000    0.009
 5177.00    0.58703   0.95118    0.009
 5178.00    0.57253   0.85499    0.009
 5179.00    0.67425   0.75304    0.009
 5180.00    0.89522   0.75493    0.009
 5181.00    0.96700   0.86919    0.009
 5182.00    0.90379   0.97839    0.009
 5183.00    0.86842   1.01806    0.009
 5184.00    0.85526   1.01644    0.009
 5185.00    0.81719   1.02762    0.009
 5186.00    0.76163   1.03405    0.009
 5187.00    0.79425   0.98068    0.009
 5188.00    0.88114   0.92395    0.010
 5189.00    0.98850   0.93825    0.010
 5190.00    1.10687   0.97510    0.000
 5191.00    1.02388   0.98082    0.000
 5192.00    0.84689   0.98665    0.000
 5193.00    0.79039   1.00809    0.000
 5194.00    0.78236   1.03085    0.000
 5195.00    0.70270   1.05191    0.000
 5196.00    0.59846   1.06102    0.000
 5197.00    0.73244   1.05253    0.000
 5198.00    0.93526   1.03813    0.000
 5199.00    1.00502   1.01697    0.000
 5200.00    1.04302   0.96916    0.000
 5201.00    0.99097   0.91560    0.000
 5202.00    0.92160   0.90242    0.000
 5203.00    0.82554   0.90796    0.000
 5204.00    0.72550   0.89818    0.000
 5205.00    0.72546   0.91120    0.000
 5206.00    0.73637   0.95899    0.000
 5207.00    0.85022   1.01115    0.000
 5208.00    0.97151   1.05569    0.000
 5209.00    0.89611   1.07506    0.000
 5210.00    0.81336   1.05684    0.000
 5211.00    0.80886   1.01564    0.010
 5212.00    0.80754   0.99348    0.010
 5213.00    0.90832   1.01028    0.010
 5214.00    1.00498   1.04800    0.010
 5215.00    1.03486   1.07757    0.010
 5216.00    1.05115   1.08920    0.010
 5217.00    0.92921   1.09223    0.010
 5218.00    0.81374   1.08170    0.010
 5219.00    0.74547   1.04890    0.010
 5220.00    0.69910   0.99842    0.010
 5221.00    0.77477   0.93710    0.010
 5222.00    0.83250   0.87971    0.010
 5223.00    0.81041   0.87815    0.010
 5224.00    0.82295   0.95489    0.010
 5225.00    0.96200   1.03305    0.010
 5226.00    1.04016   1.06370    0.010
 5227.00    0.93199   1.06268    0.010
 5228.00    0.85746   1.02775    0.010
 5229.00    0.87051   0.98847    0.010
 5230.00    0.86630   0.98754    0.010
 5231.00    0.82351   1.01686    0.010
 5232.00    0.82685   1.05747    0.010
 5233.00    0.91962   1.08743    0.010
 5234.00    0.96438   1.09441    0.009
 5235.00    0.92799   1.08984    0.009
 5236.00    0.88945   1.08919    0.009
 5237.00    0.84770   1.09187    0.009
 5238.00    0.85852   1.08698    0.009
 5239.00    0.93777   1.08737    0.009
 5240.00    0.99544   1.10453    0.009
 5241.00    1.02835   1.10272    0.009
 5242.00    1.07146   1.05688    0.009
 5243.00    1.12489   1.01412    0.009
 5244.00    1.09531   1.01633    0.009
 5245.00    0.99167   1.02167    0.009
 5246.00    0.98283   1.00464    0.009
 5247.00    1.04852   1.00795    0.009
 5248.00    1.09155   1.03619    0.009
 5249.00    1.11891   1.04801    0.009
 5250.00    1.05879   1.02995    0.009
 5251.00    0.94563   1.01938    0.010
 5252.00    0.91657   1.05489    0.010
 5253.00    0.93201   1.10569    0.010
 5254.00    0.95064   1.12813    0.010
 5255.00    0.97073   1.11967    0.010
 5256.00    0.96568   1.08731    0.010
 5257.00    0.95069   1.03756    0.010
 5258.00    0.94462   0.97959    0.010
 5259.00    0.94155   0.92862    0.010
 5260.00    1.01728   0.89259    0.010
 5261.00    1.11530   0.87181    0.010
 5262.00    1.09936   0.88609    0.010
 5263.00    1.05681   0.93114    0.010
 5264.00    0.95781   0.92103    0.010
 5265.00    0.84822   0.84435    0.010
 5266.00    0.79732   0.83110    0.010
 5267.00    0.75491   0.91935    0.010
 5268.00    0.85843   0.99777    0.010
 5269.00    0.97731   1.01430    0.010
 5270.00    1.04564   1.00028    0.010
 5271.00    1.11053   0.98451    0.010
 5272.00    1.07915   1.00937    0.010
 5273.00    1.04453   1.07309    0.010
 5274.00    0.90703   1.11143    0.010
 5275.00    0.77637   1.10087    0.010
 5276.00    0.86821   1.06693    0.010
 5277.00    0.94377   1.03529    0.010
 5278.00    0.77154   1.01168    0.010
 5279.00    0.62695   0.99549    0.010
 5280.00    0.75202   1.01178    0.010
 5281.00    0.85869   1.07288    0.010
 5282.00    0.83573   1.12830    0.010
 5283.00    0.82958   1.13900    0.010
 5284.00    0.91453   1.12680    0.010
 5285.00    0.99765   1.12718    0.010
 5286.00    1.07279   1.14056    0.010
 5287.00    1.08947   1.14264    0.010
 5288.00    0.89698   1.12769    0.010
 5289.00    0.81276   1.11302    0.010
 5290.00    1.05367   1.10700    0.010
 5291.00    1.21676   1.08843    0.009
 5292.00    1.18085   1.03791    0.009
 5293.00    1.14048   0.98114    0.009
 5294.00    1.09025   0.97219    0.009
 5295.00    1.02793   1.01649    0.009
 5296.00    0.94250   1.05036    0.009
 5297.00    0.90848   1.04929    0.009
 5298.00    0.96005   1.05609    0.009
 5299.00    0.96478   1.09084    0.009
 5300.00    0.90114   1.12864    0.009
 5301.00    0.84746   1.14080    0.009
 5302.00    0.80653   1.12513    0.009
 5303.00    0.79849   1.10787    0.009
 5304.00    0.82766   1.11402    0.009
 5305.00    0.88309   1.13432    0.009
 5306.00    0.96471   1.14368    0.009
 5307.00    1.00989   1.13789    0.009
 5308.00    1.02302   1.12536    0.009
 5309.00    0.98232   1.11385    0.009
 5310.00    0.89990   1.10667    0.009
 5311.00    0.88841   1.09142    0.009
 5312.00    0.92525   1.06810    0.009
 5313.00    0.97228   1.06562    0.009
 5314.00    1.02539   1.08425    0.009
 5315.00    1.04654   1.09567    0.009
 5316.00    1.05106   1.09644    0.009
 5317.00    1.02743   1.09329    0.009
 5318.00    0.99108   1.07854    0.009
 5319.00    1.01274   1.04500    0.009
 5320.00    1.05694   1.01918    0.009
 5321.00    1.00424   1.02490    0.009
 5322.00    0.91952   1.00963    0.009
 5323.00    0.95002   0.92975    0.009
 5324.00    1.01248   0.86339    0.009
 5325.00    1.09776   0.90477    0.009
 5326.00    1.18824   1.00363    0.009
 5327.00    1.07743   1.06122    0.009
 5328.00    0.92987   1.06776    0.010
 5329.00    0.96348   1.07235    0.010
 5330.00    1.02249   1.09607    0.010
 5331.00    1.10416   1.11098    0.010
 5332.00    1.18812   1.10311    0.010
 5333.00    1.15508   1.09142    0.010
 5334.00    1.11455   1.07690    0.010
 5335.00    1.20398   1.03776    0.010
 5336.00    1.29642   0.99678    0.010
 5337.00    1.03724   1.00786    0.009
 5338.00    0.78866   1.05771    0.009
 5339.00    0.84314   1.09029    0.009
 5340.00    0.89456   1.09049    0.009
 5341.00    0.90213   1.07340    0.009
 5342.00    0.91017   1.06374    0.009
 5343.00    0.92260   1.06341    0.009
 5344.00    0.94098   1.04889    0.009
 5345.00    0.99995   1.03897    0.009
 5346.00    1.04771   1.06325    0.009
 5347.00    1.03630   1.10053    0.009
 5348.00    1.01115   1.11730    0.009
 5349.00    0.92770   1.12189    0.009
 5350.00    0.87718   1.13847    0.009
 5351.00    0.94214   1.15781    0.009
 5352.00    1.00108   1.16333    0.010
 5353.00    1.04229   1.16158    0.025
 5354.00    1.07742   1.16018   -1.000
 5355.00    1.09724   1.15649   -1.000
 5356.00    1.10308   1.14215   -1.000
 5357.00    1.07866   1.11529   -1.000
 5358.00    1.05704   1.09206   -1.000
 5359.00    1.04068   1.08257   -1.000
 5360.00    1.01705   1.07317   -1.000
 5361.00    0.98151   1.06414   -1.000
 5362.00    0.96331   1.06548   -1.000
 5363.00    0.97005   1.06720   -1.000
 5364.00    0.99679   1.05522    0.041
 5365.00    1.04884   1.01620    0.012
 5366.00    1.03241   0.96357    0.009
 5367.00    0.93964   0.95046    0.009
 5368.00    0.84273   1.00341   -2.000
 5369.00    0.74177   1.07717   -2.000
 5370.00    0.78984   1.11946   -2.000
 5371.00    0.96714   1.12938   -2.000
 5372.00    0.99045   1.12000   -2.000
 5373.00    0.89613   1.11127   -2.000
 5374.00    0.87909   1.11569   -2.000
 5375.00    0.91395   1.11557   -2.000
 5376.00    0.82164   1.10248   -2.000
 5377.00    0.65453   1.08928   -2.000
 5378.00    0.66898   1.07829   -2.000
 5379.00    0.77653   1.07387   -2.000
 5380.00    0.89455   1.08945   -2.000
 5381.00    1.01722   1.10861   -2.000
 5382.00    1.09900   1.11036   -2.000
 5383.00    1.16516   1.10122    0.009
 5384.00    1.14370   1.08597    0.009
 5385.00    1.09380   1.06508    0.009
 5386.00    1.03704   1.04862    0.009
 5387.00    0.97841   1.04302    0.009
 5388.00    1.02348   1.04199    0.009
 5389.00    1.09165   1.04127    0.009
 5390.00    1.01490   1.04147    0.009
 5391.00    0.91242   1.02795    0.009
 5392.00    0.96984   0.99013    0.009
 5393.00    1.04896   0.97275    0.009
 5394.00    1.05919   1.00946    0.009
 5395.00    1.06277   1.04904    0.009
 5396.00    1.01093   1.05810    0.009
 5397.00    0.95577   1.06360    0.009
 5398.00    1.01620   1.06433    0.009
 5399.00    1.07871   1.02756    0.009
 5400.00    0.98529   0.96535    0.009
 5401.00    0.89239   0.92913    0.009
 5402.00    0.81267   0.94800    0.009
 5403.00    0.74687   0.99548    0.009
 5404.00    0.86982   1.01535    0.009
 5405.00    0.97797   0.99809    0.009
 5406.00    0.95300   0.99484    0.009
 5407.00    0.92124   1.03291    0.009
 5408.00    0.84469   1.07431    0.009
 5409.00    0.80604   1.08361    0.009
 5410.00    0.96234   1.07341    0.009
 5411.00    1.09520   1.07710    0.009
 5412.00    1.13069   1.10143    0.009
 5413.00    1.12760   1.11823    0.009
 5414.00    0.99202   1.11093    0.009
 5415.00    0.88697   1.09009    0.009
 5416.00    0.87026   1.07492    0.009
 5417.00    0.87652   1.07992    0.009
 5418.00    0.93955   1.08437    0.009
 5419.00    0.98591   1.06056    0.009
 5420.00    0.99681   1.04092    0.009
 5421.00    1.03242   1.06579    0.009
 5422.00    1.11376   1.10847    0.009
 5423.00    1.12414   1.11550    0.009
 5424.00    1.01986   1.06313    0.009
 5425.00    0.96092   1.00113    0.009
 5426.00    0.96626   1.00471    0.009
 5427.00    1.01129   1.04327    0.009
 5428.00    1.10581   1.04343    0.009
 5429.00    1.17842   1.01413    0.009
 5430.00    1.22695   0.99481    0.009
 5431.00    1.18329   1.00041    0.009
 5432.00    1.05027   1.02802    0.009
 5433.00    0.99839   1.06929    0.009
 5434.00    1.01588   1.11040    0.009
 5435.00    1.02663   1.13463    0.009
 5436.00    1.03232   1.14061    0.009
 5437.00    1.04189   1.13923    0.009
 5438.00    1.05404   1.13801    0.009
 5439.00    0.99898   1.12771    0.009
 5440.00    0.90499   1.09221    0.008
 5441.00    0.89434   1.03221    0.009
 5442.00    0.92577   0.98071    0.009
 5443.00    1.02979   0.98623    0.009
 5444.00    1.16553   1.04275    0.009
 5445.00    1.18236   1.09089    0.009
 5446.00    1.15459   1.10514    0.009
 5447.00    1.06783   1.10021    0.009
 5448.00    0.96230   1.08815    0.009
 5449.00    0.98197   1.06206    0.009
 5450.00    1.03492   1.01445    0.009
 5451.00    1.08593   0.97901    0.009
 5452.00    1.13651   1.00325    0.009
 5453.00    1.10376   1.06439    0.009
 5454.00    1.05661   1.10416    0.008
 5455.00    1.04465   1.10605    0.009
 5456.00    1.03730   1.08716    0.009
 5457.00    0.93880   1.06091    0.009
 5458.00    0.83188   1.03133    0.009
 5459.00    0.89972   1.02287    0.009
 5460.00    0.97738   1.04789    0.008
 5461.00    0.92037   1.07092    0.008
 5462.00    0.86188   1.07425    0.008
 5463.00    0.96240   1.07894    0.009
 5464.00    1.05886   1.08478    0.009
 5465.00    1.06015   1.07549    0.009
 5466.00    1.05945   1.06248    0.008
 5467.00    1.03328   1.06086    0.009
 5468.00    1.00066   1.05470    0.009
 5469.00    0.91227   1.04013    0.009
 5470.00    0.83885   1.03136    0.009
 5471.00    0.86133   1.00624    0.008
 5472.00    0.88724   0.96628    0.008
 5473.00    0.93034   0.97202    0.008
 5474.00    0.94888   1.02610    0.008
 5475.00    0.86779   1.05647    0.008
 5476.00    0.82450   1.03476    0.008
 5477.00    0.90848   1.00811    0.009
 5478.00    0.96998   1.01746   -2.000
 5479.00    0.96759   1.05156   -2.000
 5480.00    0.95868   1.08582   -2.000
 5481.00    0.93391   1.09733   -2.000
 5482.00    0.94294   1.07390   -2.000
 5483.00    1.02277   1.04379   -2.000
 5484.00    0.96774   1.04159   -2.000
 5485.00    0.66713   1.05590   -2.000
 5486.00    0.34846   1.06669   -2.000
 5487.00    0.00107   1.07559   -2.000
 5488.00   -0.28636   1.07310   -2.000
 5489.00   -0.49003   1.06147   -2.000
 5490.00   -0.41002   1.06389   -2.000
 5491.00    0.01875   1.07204   -2.000
 5492.00    0.24638   1.06041   -2.000
 5493.00    0.25603   1.04815   -2.000
 5494.00    0.39156   1.06676   -2.000
 5495.00    0.64742   1.08907   -2.000
 5496.00    0.81888   1.07559   -2.000
 5497.00    0.91921   1.04530   -2.000
 5498.00    0.96072   1.03483   -2.000
 5499.00    0.95857   1.04471   -2.000
 5500.00    0.99009   1.05042   -2.000
 5501.00    1.04355   1.03477   -2.000
 5502.00    1.00402   1.01918    0.008
 5503.00    0.91143   1.03503    0.008
 5504.00    0.80973   1.06101    0.008
 5505.00    0.70351   1.06536    0.008
 5506.00    0.70661   1.05178    0.008
 5507.00    0.75668   1.02777    0.008
 5508.00    0.83971   1.00616    0.008
 5509.00    0.93488   1.00500    0.008
 5510.00    0.95197   1.02052    0.008
 5511.00    0.94469   1.03807    0.008
 5512.00    0.91167   1.05360    0.008
 5513.00    0.87195   1.07452    0.008
 5514.00    0.92319   1.09682    0.008
 5515.00    0.99374   1.10355    0.008
 5516.00    1.03618   1.09633    0.008
 5517.00    1.07390   1.09007    0.008
 5518.00    1.03800   1.08952    0.008
 5519.00    0.99277   1.08998    0.008
 5520.00    1.01231   1.08352    0.008
 5521.00    1.03755   1.06648    0.008
 5522.00    1.06856   1.03844    0.008
 5523.00    1.09988   1.00527    0.008
 5524.00    1.00725   0.99640    0.008
 5525.00    0.91362   1.02836    0.008
 5526.00    0.91919   1.06646    0.008
 5527.00    0.92393   1.07820    0.008
 5528.00    0.91098   1.07186    0.008
 5529.00    0.90204   1.06099    0.008
 5530.00    0.94217   1.04798    0.008
 5531.00    0.98264   1.04561    0.008
 5532.00    1.02596   1.05767    0.008
 5533.00    1.05557   1.06558    0.008
 5534.00    0.99984   1.07058    0.008
 5535.00    0.94820   1.08541    0.008
 5536.00    0.91660   1.10126    0.008
 5537.00    0.90142   1.10123    0.008
 5538.00    0.95146   1.08332    0.008
 5539.00    0.99187   1.06751    0.008
 5540.00    1.00049   1.06643    0.008
 5541.00    1.00958   1.06806    0.008
 5542.00    1.01997   1.07072    0.008
 5543.00    1.03456   1.08625    0.008
 5544.00    1.05916   1.10529    0.008
 5545.00    1.06651   1.11296    0.010
 5546.00    1.03833   1.11287    0.025
 5547.00    1.00083   1.10829   -1.000
 5548.00    0.94665   1.09448   -1.000
 5549.00    0.89458   1.07542   -1.000
 5550.00    0.84583   1.06705   -1.000
 5551.00    0.82513   1.07451   -1.000
 5552.00    0.84306   1.08090   -1.000
 5553.00    0.85441   1.07808    0.036
 5554.00    0.85779   1.07740    0.011
 5555.00    0.90161   1.08037    0.008
 5556.00    0.98863   1.07822    0.008
 5557.00    0.99802   1.06711    0.008
 5558.00    0.93422   1.05329    0.008
 5559.00    0.88963   1.04977    0.008
 5560.00    0.86101   1.05102    0.008
 5561.00    0.84409   1.04323    0.008
 5562.00    0.83573   1.03672    0.008
 5563.00    0.84743   1.03957    0.008
 5564.00    0.87203   1.03820    0.008
 5565.00    0.88902   1.03688    0.008
 5566.00    0.90173   1.04971    0.008
 5567.00    0.92270   1.05112    0.008
 5568.00    0.94772   1.03222    0.008
 5569.00    0.95594   1.03562    0.008
 5570.00    0.95705   1.06005    0.008
 5571.00    0.89026   1.06810    0.008
 5572.00    0.79889   1.06735    0.008
 5573.00    0.80454   1.07206    0.008
 5574.00    0.83989   1.07426    0.008
 5575.00    0.88374   1.07710    0.008
 5576.00    0.92977   1.07902    0.008
 5577.00    0.92748   1.07168    0.008
 5578.00    0.91519   1.06671    0.008
 5579.00    0.85356   1.06700    0.008
 5580.00    0.78389   1.05565    0.008
 5581.00    0.78704   1.02301    0.008
 5582.00    0.79909   0.97966    0.008
 5583.00    0.81415   0.95071    0.008
 5584.00    0.82946   0.94946    0.008
 5585.00    0.85460   0.97089    0.008
 5586.00    0.88021   1.00137    0.008
 5587.00    0.87513   1.02173    0.008
 5588.00    0.87047   1.02323    0.008
 5589.00    0.91828   1.01461    0.008
 5590.00    0.96221   1.02142    0.008
 5591.00    0.92901   1.05428    0.008
 5592.00    0.89816   1.07448    0.008
 5593.00    0.89456   1.05344    0.008
 5594.00    0.89084   1.02479    0.008
 5595.00    0.88625   1.01568    0.008
 5596.00    0.88583   1.00705    0.008
 5597.00    0.91060   0.99116    0.008
 5598.00    0.92499   0.98776    0.008
 5599.00    0.88993   1.01533    0.008
 5600.00    0.86994   1.06101    0.008
 5601.00    0.90852   1.09463    0.008
 5602.00    0.96686   1.10675    0.008
 5603.00    1.08916   1.10518    0.008
 5604.00    1.16644   1.10004    0.008
 5605.00    1.12041   1.09765    0.008
 5606.00    1.09574   1.10111    0.008
 5607.00    1.12123   1.10966    0.008
 5608.00    1.12055   1.11006    0.008
 5609.00    1.06680   1.07634    0.008
 5610.00    1.02634   1.00826    0.008
 5611.00    1.00936   0.96649    0.008
 5612.00    0.99751   0.99063    0.008
 5613.00    0.99358   1.03274    0.008
 5614.00    0.99732   1.04522    0.008
 5615.00    1.01147   1.04227    0.008
 5616.00    1.01646   1.05094    0.008
 5617.00    1.01051   1.06781    0.008
 5618.00    1.00332   1.06560    0.008
 5619.00    0.99483   1.03048    0.008
 5620.00    0.98480   0.99632    0.008
 5621.00    0.97332   1.00197    0.008
 5622.00    0.93253   1.03034    0.008
 5623.00    0.86774   1.05047    0.008
 5624.00    0.90134   1.06637    0.008
 5625.00    1.00588   1.08351    0.008
 5626.00    1.05840   1.09347    0.008
 5627.00    1.07800   1.09320    0.008
 5628.00    1.01800   1.08513    0.008
 5629.00    0.91397   1.07302    0.008
 5630.00    0.85449   1.06188    0.008
 5631.00    0.81643   1.04923    0.008
 5632.00    0.92295   1.03319    0.008
 5633.00    1.08953   1.02690    0.008
 5634.00    1.21953   1.03736    0.008
 5635.00    1.33654   1.04594    0.008
 5636.00    1.25960   1.03730    0.008
 5637.00    1.12448   1.02800    0.008
 5638.00    1.04244   1.03248    0.008
 5639.00    0.97362   1.04110    0.008
 5640.00    0.99156   1.04814    0.008
 5641.00    1.02702   1.05509    0.008
 5642.00    1.01764   1.06149    0.008
 5643.00    1.00115   1.06396    0.008
 5644.00    0.98030   1.05878    0.008
 5645.00    0.95894   1.05265    0.008
 5646.00    0.98721   1.05770    0.008
 5647.00    1.01944   1.07215    0.008
 5648.00    1.02925   1.07845    0.008
 5649.00    1.03806   1.06362    0.008
 5650.00    1.07513   1.04352    0.008
 5651.00    1.11000   1.04265    0.008
 5652.00    1.02208   1.03826    0.008
 5653.00    0.93803   0.99795    0.008
 5654.00    0.92521   0.96713    0.008
 5655.00    0.91981   0.99052    0.008
 5656.00    0.99650   1.02235    0.008
 5657.00    1.06618   1.01865    0.008
 5658.00    1.08143   1.00885    0.008
 5659.00    1.08223   1.02620    0.008
 5660.00    0.99821   1.05457    0.007
 5661.00    0.91934   1.06475    0.007
 5662.00    0.86442   1.05270    0.007
 5663.00    0.82092   1.03881    0.008
 5664.00    0.82081   1.03783    0.008
 5665.00    0.82212   1.04361    0.008
 5666.00    0.82794   1.04973    0.008
 5667.00    0.83729   1.06315    0.008
 5668.00    0.85617   1.08521    0.008
 5669.00    0.89761   1.09720    0.008
 5670.00    0.99114   1.09013    0.008
 5671.00    1.05814   1.08429    0.008
 5672.00    1.07221   1.09111    0.008
 5673.00    1.09075   1.09238    0.008
 5674.00    1.11708   1.08169    0.008
 5675.00    1.13310   1.07457    0.008
 5676.00    1.13343   1.06986    0.008
 5677.00    1.08782   1.05190    0.008
 5678.00    0.98075   1.03297    0.008
 5679.00    0.88936   1.03647    0.008
 5680.00    0.81644   1.05136    0.008
 5681.00    0.82951   1.05135    0.008
 5682.00    0.93190   1.03510    0.008
 5683.00    1.01224   1.02372    0.008
 5684.00    1.07239   1.03044    0.008
 5685.00    1.08933   1.04990    0.008
 5686.00    1.07138   1.06770    0.008
 5687.00    1.04499   1.08059    0.008
 5688.00    1.01258   1.08806    0.008
 5689.00    0.97455   1.08545    0.008
 5690.00    0.93301   1.07906    0.008
 5691.00    0.96543   1.07912    0.008
 5692.00    1.03816   1.07820    0.008
 5693.00    1.06304   1.06213    0.008
 5694.00    1.06526   1.04489    0.008
 5695.00    1.02524   1.03724    0.008
 5696.00    0.96797   1.02578    0.008
 5697.00    0.95785   1.01428    0.008
 5698.00    0.96416   1.02067    0.008
 5699.00    0.95918   1.04003    0.008
 5700.00    0.95088   1.04624    0.008
 5701.00    0.95377   1.02914    0.008
 5702.00    0.95937   1.00747    0.008
 5703.00    1.01556   0.98950    0.008
 5704.00    1.08171   0.97352    0.008
 5705.00    1.13844   0.97294    0.008
 5706.00    1.19373   0.98069    0.008
 5707.00    1.15571   0.98672    0.008
 5708.00    1.10712   1.00930    0.007
 5709.00    1.05312   1.04217    0.007
 5710.00    0.99872   1.06127    0.007
 5711.00    0.94144   1.06932    0.008
 5712.00    0.88405   1.07199    0.008
 5713.00    0.83627   1.07115    0.008
 5714.00    0.79209   1.07616    0.008
 5715.00    0.89380   1.08461    0.008
 5716.00    0.99179   1.09124    0.008
 5717.00    1.02608   1.10030    0.008
 5718.00    1.05365   1.10745    0.008
 5719.00    1.01007   1.10709    0.008
 5720.00    0.97126   1.10143    0.008
 5721.00    0.96816   1.08656    0.008
 5722.00    0.96137   1.06416    0.008
 5723.00    0.93352   1.05877    0.008
 5724.00    0.91245   1.07652    0.008
 5725.00    0.92220   1.08621    0.008
 5726.00    0.92476   1.07120    0.008
 5727.00    0.90057   1.05706    0.008
 5728.00    0.88639   1.06772    0.008
 5729.00    0.90334   1.08809    0.008
 5730.00    0.93770   1.09725    0.007
 5731.00    1.01801   1.09436    0.008
 5732.00    1.07765   1.08659    0.008
 5733.00    1.09041   1.08075    0.008
 5734.00    1.09852   1.07952    0.008
 5735.00    1.09751   1.08055    0.008
 5736.00    1.07413   1.08081    0.008
 5737.00    1.01241   1.07649    0.008
 5738.00    0.98567   1.07088    0.007
 5739.00    1.01142   1.07606    0.007
 5740.00    1.04067   1.09229    0.000
 5741.00    1.07451   1.10107    0.000
 5742.00    1.08004   1.08704    0.000
 5743.00    1.05267   1.06131    0.000
 5744.00    1.05754   1.05705    0.000
 5745.00    1.09544   1.07771    0.000
 5746.00    1.12396   1.09070    0.000
 5747.00    1.14402   1.07514    0.000
 5748.00    1.12277   1.04075    0.000
 5749.00    1.06864   1.01625    0.000
 5750.00    1.06132   1.02694    0.000
 5751.00    1.08678   1.06243    0.000
 5752.00    1.10778   1.09056    0.000
 5753.00    1.12604   1.09969    0.000
 5754.00    1.13494   1.09212    0.000
 5755.00    1.13882   1.07304    0.000
 5756.00    1.12993   1.04900    0.000
 5757.00    1.11510   1.02601    0.000
 5758.00    1.07548   1.01963    0.000
 5759.00    1.02590   1.04599    0.000
 5760.00    0.95461   1.08291    0.000
 5761.00    0.87587   1.10065    0.000
 5762.00    0.91855   1.10398    0.000
 5763.00    0.99622   1.10371    0.000
 5764.00    1.04001   1.09953    0.000
 5765.00    1.07572   1.09419    0.000
 5766.00    1.00125   1.08907    0.000
 5767.00    0.90564   1.08067    0.000
 5768.00    0.95586   1.07541    0.000
 5769.00    1.02781   1.07299    0.000
 5770.00    1.08382   1.07106    0.000
 5771.00    1.13810   1.07740    0.000
 5772.00    1.16001   1.08663    0.000
 5773.00    1.17960   1.08887    0.000
 5774.00    1.11797   1.07819    0.000
 5775.00    1.05334   1.04809    0.000
 5776.00    1.00415   1.00715    0.000
 5777.00    0.95599   0.98716    0.000
 5778.00    0.94210   0.99506    0.000
 5779.00    0.92859   1.00081    0.000
 5780.00    0.92122   0.99215    0.000
 5781.00    0.91953   0.99664    0.000
 5782.00    0.97531   1.02509    0.000
 5783.00    1.02334   1.05250    0.000
 5784.00    1.01521   1.06584    0.000
 5785.00    1.01465   1.06077    0.000
 5786.00    1.05619   1.04487    0.000
 5787.00    1.09644   1.04597    0.000
 5788.00    1.13098   1.06355    0.000
 5789.00    1.14808   1.07979    0.000
 5790.00    1.10158   1.09187    0.000
 5791.00    1.05584   1.09186   -2.000
 5792.00    1.01238   1.07144   -2.000
 5793.00    0.98303   1.05252   -2.000
 5794.00    0.99030   1.06379   -2.000
 5795.00    0.99839   1.09300   -2.000
 5796.00    1.00826   1.11140   -2.000
 5797.00    1.03275   1.11680   -2.000
 5798.00    1.08549   1.10825   -2.000
 5799.00    1.09422   1.08447   -2.000
 5800.00    1.02870   1.06437   -2.000
 5801.00    0.99694   1.06134   -2.000
 5802.00    1.01508   1.06889   -2.000
 5803.00    1.00862   1.07697   -2.000
 5804.00    0.97019   1.08054   -2.000
 5805.00    0.94506   1.08430   -2.000
 5806.00    0.93514   1.09184   -2.000
 5807.00    0.94609   1.09583   -2.000
 5808.00    0.97812   1.09390   -2.000
 5809.00    0.99603   1.08608   -2.000
 5810.00    1.00136   1.06926   -2.000
 5811.00    0.99708   1.05155    0.000
 5812.00    0.98526   1.05359    0.000
 5813.00    0.96546   1.07737    0.000
 5814.00    0.94015   1.09978    0.000
 5815.00    0.97254   1.10888    0.000
 5816.00    1.03983   1.10932    0.000
 5817.00    1.10795   1.10423    0.000
 5818.00    1.17651   1.09719    0.000
 5819.00    1.17373   1.09420    0.000
 5820.00    1.13825   1.09774    0.000
 5821.00    1.09100   1.09995    0.000
 5822.00    1.03911   1.09808    0.000
 5823.00    1.00494   1.09754    0.000
 5824.00    0.97673   1.10184    0.000
 5825.00    0.98743   1.10515    0.000
 5826.00    1.00913   1.10190    0.000
 5827.00    1.05732   1.09854    0.000
 5828.00    1.11168   1.09657    0.000
 5829.00    1.07455   1.08889    0.000
 5830.00    1.02034   1.08062    0.000
 5831.00    1.03169   1.08519    0.000
 5832.00    1.05250   1.09172    0.000
 5833.00    1.07765   1.08529    0.000
 5834.00    1.10325   1.08179    0.000
 5835.00    1.13441   1.09209    0.000
 5836.00    1.16595   1.10524    0.000
 5837.00    1.20552   1.11156    0.000
 5838.00    1.24534   1.11225    0.000
 5839.00    1.19140   1.10809    0.000
 5840.00    1.13669   1.09878    0.000
 5841.00    1.05934   1.08574    0.000
 5842.00    0.98581   1.07169    0.000
 5843.00    0.96996   1.06520    0.000
 5844.00    0.95594   1.07025    0.000
 5845.00    0.95978   1.07739    0.000
 5846.00    0.96924   1.07657    0.000
 5847.00    1.01801   1.06149    0.000
 5848.00    1.07008   1.03988    0.000
 5849.00    1.13996   1.03311    0.000
 5850.00    1.19578   1.04357    0.000
 5851.00    1.19069   1.04133    0.000
 5852.00    1.16981   1.01517    0.000
 5853.00    1.09257   0.99655    0.000
 5854.00    1.03803   1.00902    0.000
 5855.00    1.05149   1.03556    0.000
 5856.00    1.06569   1.05401    0.000
 5857.00    1.08177   1.05386    0.000
 5858.00    1.10211   1.05021    0.000
 5859.00    1.13182   1.05850    0.000
 5860.00    1.15089   1.06561    0.000
 5861.00    1.14972   1.05545    0.000
 5862.00    1.12746   1.04447    0.000
 5863.00    1.07018   1.05342    0.000
 5864.00    1.00872   1.07275    0.000
 5865.00    0.94118   1.08565    0.000
 5866.00    0.93104   1.08691    0.000
 5867.00    0.99442   1.07954    0.000
 5868.00    1.05000   1.07048    0.000
 5869.00    1.09679   1.07155    0.000
 5870.00    1.11857   1.07908    0.000
 5871.00    1.11544   1.07744    0.000
 5872.00    1.09862   1.06951    0.000
 5873.00    1.06978   1.06319    0.000
 5874.00    1.03615   1.05344    0.000
 5875.00    0.99882   1.03843    0.000
 5876.00    1.00886   1.03541    0.000
 5877.00    1.05111   1.04582    0.000
 5878.00    1.06341   1.04756    0.000
 5879.00    1.05785   1.03871    0.000
 5880.00    1.02898   1.03805    0.000
 5881.00    0.98800   1.04346    0.000
 5882.00    0.97730   1.03177    0.000
 5883.00    0.98026   0.97281    0.000
 5884.00    0.98271   0.85533    0.000
 5885.00    0.98496   0.75488    0.000
 5886.00    0.94444   0.77246    0.000
 5887.00    0.88980   0.86485    0.000
 5888.00    0.81990   0.92996    0.000
 5889.00    0.74577   0.93690    0.000
 5890.00    0.73911   0.87675    0.000
 5891.00    0.74779   0.81062    0.000
 5892.00    0.78076   0.83754    0.000
 5893.00    0.81815   0.92252    0.000
 5894.00    0.91395   0.97733    0.000
 5895.00    1.01792   1.00375    0.000
 5896.00    1.07184   1.02532    0.000
 5897.00    1.12075   1.03815    0.000
 5898.00    1.08761   1.04257    0.000
 5899.00    1.04924   1.04446    0.000
 5900.00    1.02760   1.04110    0.000
 5901.00    1.00645   1.03668    0.007
 5902.00    0.98904   1.04221    0.007
 5903.00    0.97335   1.05169    0.007
 5904.00    1.00662   1.05479    0.007
 5905.00    1.03978   1.05505    0.007
 5906.00    1.07135   1.06010    0.007
 5907.00    1.09696   1.06273    0.007
 5908.00    1.06695   1.04779    0.007
 5909.00    1.03224   1.02145    0.007
 5910.00    0.96554   1.00865    0.007
 5911.00    0.90483   1.01247    0.007
 5912.00    0.87563   1.02524    0.007
 5913.00    0.85382   1.03985    0.007
 5914.00    0.86331   1.04886    0.007
 5915.00    0.87192   1.05596    0.007
 5916.00    0.87747   1.05658    0.007
 5917.00    0.88587   1.04799    0.007
 5918.00    0.90269   1.04460    0.007
 5919.00    0.93069   1.05176    0.007
 5920.00    0.98674   1.05932    0.007
 5921.00    1.04010   1.06570    0.007
 5922.00    1.08765   1.06613    0.007
 5923.00    1.11199   1.05546    0.007
 5924.00    1.09286   1.03694    0.007
 5925.00    1.07186   1.02405    0.007
 5926.00    1.04783   1.03373    0.007
 5927.00    1.02388   1.05484    0.007
 5928.00    1.00006   1.06007    0.007
 5929.00    1.00874   1.04404    0.007
 5930.00    1.05848   1.03261    0.007
 5931.00    1.09971   1.04339    0.007
 5932.00    1.13149   1.05834    0.007
 5933.00    1.13773   1.06612    0.007
 5934.00    1.11889   1.07036    0.007
 5935.00    1.09283   1.06216    0.007
 5936.00    1.06052   1.04139    0.007
 5937.00    1.02385   1.03076    0.007
 5938.00    0.98387   1.03725    0.007
 5939.00    0.94522   1.05083    0.007
 5940.00    0.90747   1.06351    0.007
 5941.00    0.93950   1.06936    0.007
 5942.00    1.01249   1.06202    0.007
 5943.00    1.09317   1.04128    0.007
 5944.00    1.17780   1.02543    0.007
 5945.00    1.19104   1.03392    0.007
 5946.00    1.17263   1.04937    0.007
 5947.00    1.08737   1.04265    0.007
 5948.00    0.97664   1.02786    0.007
 5949.00    0.92264   1.03446    0.007
 5950.00    0.88700   1.04902    0.007
 5951.00    0.91481   1.04418    0.007
 5952.00    0.95980   1.03044    0.007
 5953.00    1.02134   1.02864    0.007
 5954.00    1.08655   1.04016    0.007
 5955.00    1.08907   1.05689    0.007
 5956.00    1.08049   1.06970    0.007
 5957.00    1.01297   1.07552    0.007
 5958.00    0.93748   1.07444    0.007
 5959.00    0.91562   1.06954    0.007
 5960.00    0.89891   1.06042    0.007
 5961.00    0.92080   1.05231    0.007
 5962.00    0.94501   1.05718    0.007
 5963.00    1.01565   1.06737    0.007
 5964.00    1.08713   1.07302    0.007
 5965.00    1.10487   1.07738    0.007
 5966.00    1.12104   1.08084    0.007
 5967.00    1.09756   1.08144    0.007
 5968.00    1.07736   1.08128    0.007
 5969.00    1.10145   1.07508    0.007
 5970.00    1.12819   1.05834    0.007
 5971.00    1.17871   1.03786    0.007
 5972.00    1.21716   1.02591    0.007
 5973.00    1.17620   1.02682    0.007
 5974.00    1.13555   1.03915    0.007
 5975.00    1.09646   1.05762    0.007
 5976.00    1.06638   1.06743    0.007
 5977.00    1.07355   1.06024    0.007
 5978.00    1.08648   1.03672    0.007
 5979.00    1.11916   1.00979    0.007
 5980.00    1.13251   1.00664    0.007
 5981.00    1.09011   1.02505    0.007
 5982.00    1.06437   1.03980    0.007
 5983.00    1.07971   1.04612    0.007
 5984.00    1.09981   1.05405    0.007
 5985.00    1.13002   1.05821    0.007
 5986.00    1.13059   1.04950    0.007
 5987.00    1.07642   1.04497    0.007
 5988.00    1.03951   1.05895    0.007
 5989.00    1.03044   1.07379    0.007
 5990.00    1.02973   1.07418    0.007
 5991.00    1.04087   1.06180    0.007
 5992.00    1.05428   1.04233    0.007
 5993.00    1.07053   1.03114    0.007
 5994.00    1.06066   1.03625    0.007
 5995.00    1.02214   1.04815    0.007
 5996.00    0.98015   1.05492    0.007
 5997.00    0.93481   1.04571    0.007
 5998.00    0.90805   1.03372    0.007
 5999.00    0.89714   1.03924    0.007
 6000.00    0.90452   1.04771    0.007
 6001.00    0.92565   1.03980    0.007
 6002.00    0.92996   1.01842    0.007
 6003.00    0.92316   0.99930    0.007
 6004.00    0.92337   1.00949    0.007
 6005.00    0.92761   1.04218    0.007
 6006.00    0.95376   1.05913    0.007
 6007.00    0.99094   1.04635    0.007
 6008.00    1.02926   1.02612    0.007
 6009.00    1.06807   1.02438    0.007
 6010.00    1.05941   1.03382    0.007
 6011.00    1.03298   1.03078    0.007
 6012.00    1.00550   1.02455    0.007
 6013.00    0.97768   1.02924    0.007
 6014.00    0.96038   1.02936    0.007
 6015.00    0.94587   1.01697    0.007
 6016.00    0.92203   1.01177    0.007
 6017.00    0.89617   1.01894    0.007
 6018.00    0.92405   1.02658    0.007
 6019.00    0.96118   1.02931    0.007
 6020.00    1.01818   1.03940    0.007
 6021.00    1.07776   1.04957    0.007
 6022.00    1.09771   1.04909    0.007
 6023.00    1.11402   1.05388    0.007
 6024.00    1.10167   1.06356    0.007
 6025.00    1.08771   1.06684    0.007
 6026.00    1.03484   1.06478    0.007
 6027.00    0.98170   1.06916    0.007
 6028.00    0.98722   1.07635    0.007
 6029.00    0.99412   1.07730    0.007
 6030.00    1.03323   1.07472    0.007
 6031.00    1.07003   1.07411    0.007
 6032.00    1.07736   1.07572    0.007
 6033.00    1.08667   1.07546    0.007
 6034.00    1.11309   1.06934    0.007
 6035.00    1.13266   1.06158    0.007
 6036.00    1.10843   1.05859    0.007
 6037.00    1.08335   1.05882    0.007
 6038.00    1.05408   1.06700    0.007
 6039.00    1.03292   1.07823    0.007
 6040.00    1.04456   1.08047    0.007
 6041.00    1.04160   1.07925    0.007
 6042.00    0.98960   1.08064    0.007
 6043.00    0.94274   1.08101    0.007
 6044.00    0.91046   1.07859    0.007
 6045.00    0.89904   1.07926    0.007
 6046.00    0.93816   1.08069    0.007
 6047.00    0.98223   1.07571    0.007
 6048.00    1.03662   1.06502    0.007
 6049.00    1.06861   1.05627    0.007
 6050.00    1.05986   1.05122    0.007
 6051.00    1.05106   1.04480    0.007
 6052.00    1.04215   1.04474    0.007
 6053.00    1.03686   1.05336    0.007
 6054.00    1.03661   1.06576    0.007
 6055.00    1.04601   1.07269    0.007
 6056.00    1.06723   1.07250    0.007
 6057.00    1.08083   1.06463    0.007
 6058.00    1.08620   1.05190    0.007
 6059.00    1.09151   1.03521    0.007
 6060.00    1.09676   1.01488    0.007
 6061.00    1.10736   1.01859    0.007
 6062.00    1.12246   1.05075    0.007
 6063.00    1.14181   1.07851    0.007
 6064.00    1.16429   1.08788    0.007
 6065.00    1.16806   1.08811    0.007
 6066.00    1.15966   1.08836    0.007
 6067.00    1.13581   1.08987    0.007
 6068.00    1.10316   1.09163    0.007
 6069.00    1.09664   1.09137    0.007
 6070.00    1.10308   1.08829    0.007
 6071.00    1.12453   1.08150    0.007
 6072.00    1.15242   1.06830    0.007
 6073.00    1.14500   1.04778    0.007
 6074.00    1.12459   1.03608    0.007
 6075.00    1.05232   1.04251    0.007
 6076.00    0.96392   1.04290    0.007
 6077.00    0.96977   1.03102    0.007
 6078.00    1.00009   1.03194    0.007
 6079.00    1.03374   1.04023    0.007
 6080.00    1.06809   1.03887    0.007
 6081.00    1.07572   1.03618    0.007
 6082.00    1.07888   1.04400    0.007
 6083.00    1.00435   1.05353    0.007
 6084.00    0.92003   1.04738    0.007
 6085.00    0.89038   1.03087    0.007
 6086.00    0.86551   1.02517    0.007
 6087.00    0.91690   1.02868    0.007
 6088.00    0.97224   1.03252    0.007
 6089.00    0.95637   1.04399    0.007
 6090.00    0.93927   1.06018    0.007
 6091.00    0.92782   1.06315    0.007
 6092.00    0.91875   1.05479    0.007
 6093.00    0.96030   1.05367    0.007
 6094.00    0.99927   1.06428    0.007
 6095.00    1.00690   1.06925    0.007
 6096.00    1.01384   1.04614    0.007
 6097.00    1.01514   0.99204    0.007
 6098.00    1.01558   0.96170    0.007
 6099.00    1.01066   0.99397    0.007
 6100.00    1.00956   1.03894    0.007
 6101.00    1.02707   1.05626    0.007
 6102.00    1.03949   1.05118    0.007
 6103.00    1.03178   1.04469    0.007
 6104.00    1.02271   1.05391    0.007
 6105.00    1.00918   1.06281    0.007
 6106.00    1.00287   1.05465    0.007
 6107.00    1.01666   1.04906    0.007
 6108.00    1.01023   1.05937    0.007
 6109.00    0.95567   1.07090    0.007
 6110.00    0.92907   1.06786    0.007
 6111.00    0.95998   1.05252    0.007
 6112.00    1.01312   1.04779    0.007
 6113.00    1.10606   1.05509    0.007
 6114.00    1.17276   1.04898    0.007
 6115.00    1.19839   1.02636    0.007
 6116.00    1.18275   0.99668    0.007
 6117.00    1.11040   0.97391    0.007
 6118.00    1.04713   0.99036    0.007
 6119.00    0.99486   1.03030    0.007
 6120.00    0.94738   1.04637    0.007
 6121.00    0.90502   1.04067    0.007
 6122.00    0.89791   1.03166    0.007
 6123.00    0.92395   1.02474    0.006
 6124.00    0.96400   1.02821    0.006
 6125.00    1.01566   1.04361    0.006
 6126.00    1.06860   1.05686    0.006
 6127.00    1.12247   1.06062    0.006
 6128.00    1.15041   1.06039    0.006
 6129.00    1.16171   1.04852    0.006
 6130.00    1.12121   1.01258    0.006
 6131.00    1.05168   0.95546    0.006
 6132.00    1.00407   0.91154    0.007
 6133.00    0.96716   0.93348    0.007
 6134.00    0.96597   1.00173    0.007
 6135.00    0.97984   1.03998    0.007
 6136.00    1.00512   1.02445    0.007
 6137.00    1.03452   1.00614    0.007
 6138.00    1.06048   1.02562    0.007
 6139.00    1.08539   1.05607    0.007
 6140.00    1.08540   1.06633    0.007
 6141.00    1.07909   1.06199    0.007
 6142.00    1.05421   1.05205    0.007
 6143.00    1.02549   1.03631    0.007
 6144.00    1.06911   1.02215    0.007
 6145.00    1.12448   1.01817    0.007
 6146.00    1.12699   1.02594    0.007
 6147.00    1.12306   1.03923    0.007
 6148.00    1.06838   1.04541    0.007
 6149.00    1.00946   1.03547    0.007
 6150.00    0.99495   1.02248    0.007
 6151.00    0.98256   1.02183    0.007
 6152.00    0.97307   1.02595    0.006
 6153.00    0.96382   1.02610    0.006
 6154.00    0.96612   1.02243    0.006
 6155.00    0.96741   0.99429    0.006
 6156.00    0.94902   0.93502    0.007
 6157.00    0.92949   0.88931    0.007
 6158.00    0.89693   0.89508    0.007
 6159.00    0.86434   0.93597    0.007
 6160.00    0.83154   0.97289    0.007
 6161.00    0.81036   0.99197    0.007
 6162.00    0.85913   1.00279    0.007
 6163.00    0.90672   0.99206    0.007
 6164.00    0.94870   0.95276    0.007
 6165.00    0.97856   0.93322    0.007
 6166.00    0.96144   0.96396    0.007
 6167.00    0.95093   1.00187    0.007
 6168.00    0.96175   1.01064    0.007
 6169.00    0.97595   1.00983    0.007
 6170.00    0.99941   1.01132    0.007
 6171.00    1.02014   1.00735    0.007
 6172.00    1.03445   1.00535    0.007
 6173.00    1.04249   1.01576    0.007
 6174.00    1.03784   1.02329    0.007
 6175.00    1.02291   1.02120    0.007
 6176.00    0.98987   1.02575    0.007
 6177.00    0.96891   1.03567    0.007
 6178.00    0.96659   1.03798    0.007
 6179.00    0.96680   1.03610    0.006
 6180.00    0.97044   1.03170    0.006
 6181.00    0.97416   1.01622    0.006
 6182.00    0.97799   1.00018    0.006
 6183.00    0.99915   0.99519    0.006
 6184.00    1.03855   0.99399    0.006
 6185.00    1.04731   0.97806    0.007
 6186.00    1.02765   0.94639    0.007
 6187.00    0.98402   0.94370    0.007
 6188.00    0.92079   0.98215    0.007
 6189.00    0.90107   1.01415    0.007
 6190.00    0.91266   1.02574    0.007
 6191.00    0.92369   1.03325    0.007
 6192.00    0.93435   1.03871    0.007
 6193.00    0.91926   1.02849    0.007
 6194.00    0.88995   1.00029    0.007
 6195.00    0.86993   0.98309    0.007
 6196.00    0.85438   0.99676   -2.000
 6197.00    0.82127   1.02158   -2.000
 6198.00    0.78088   1.03473   -2.000
 6199.00    0.66986   1.03479   -2.000
 6200.00    0.53380   1.03259   -2.000
 6201.00    0.51334   1.03496   -2.000
 6202.00    0.52748   1.03710   -2.000
 6203.00    0.56149   1.03598   -2.000
 6204.00    0.60044   1.03312   -2.000
 6205.00    0.68101   1.02651   -2.000
 6206.00    0.76997   1.01858   -2.000
 6207.00    0.84891   1.00565   -2.000
 6208.00    0.92626   0.97866    0.007
 6209.00    0.95889   0.95236    0.007
 6210.00    0.98627   0.94308    0.006
 6211.00    0.95886   0.95330    0.006
 6212.00    0.92710   0.97667    0.006
 6213.00    0.94695   0.98873    0.006
 6214.00    0.96907   0.97542    0.006
 6215.00    0.98874   0.96102    0.006
 6216.00    1.00821   0.96521    0.006
 6217.00    1.01952   0.98098    0.006
 6218.00    1.02963   0.99171    0.007
 6219.00    1.01780   0.99040    0.007
 6220.00    1.00588   0.99125    0.007
 6221.00    0.99297   0.99732    0.007
 6222.00    0.98240   0.99950    0.007
 6223.00    0.98991   0.99486    0.007
 6224.00    0.99647   0.97269    0.007
 6225.00    0.99743   0.93471    0.007
 6226.00    1.00552   0.91770    0.007
 6227.00    1.04664   0.93489    0.007
 6228.00    1.07646   0.96216    0.007
 6229.00    1.06340   0.99370    0.007
 6230.00    1.05383   1.01820    0.007
 6231.00    1.05527   1.01996    0.007
 6232.00    1.05489   1.00611    0.007
 6233.00    1.04961   0.98908    0.006
 6234.00    1.04124   0.97200    0.006
 6235.00    1.02576   0.96076    0.006
 6236.00    1.01001   0.96465    0.006
 6237.00    0.99376   0.96457    0.006
 6238.00    0.98269   0.94888    0.006
 6239.00    0.98064   0.94391    0.006
 6240.00    0.98164   0.95002    0.006
 6241.00    0.98725   0.95363    0.006
 6242.00    0.97727   0.96813    0.006
 6243.00    0.94645   0.99165    0.006
 6244.00    0.91124   1.00421    0.006
 6245.00    0.87086   1.00136    0.007
 6246.00    0.86304   0.98236    0.007
 6247.00    0.88898   0.95198    0.007
 6248.00    0.91095   0.93480    0.007
 6249.00    0.92929   0.93673    0.007
 6250.00    0.92697   0.94211    0.007
 6251.00    0.90798   0.93769    0.007
 6252.00    0.91988   0.92398    0.007
 6253.00    0.95371   0.91379    0.007
 6254.00    0.99145   0.92543    0.007
 6255.00    1.03161   0.95402    0.007
 6256.00    1.04210   0.97405    0.007
 6257.00    1.03645   0.99069    0.007
 6258.00    1.02631   1.00737    0.007
 6259.00    1.01405   1.00265    0.007
 6260.00    1.01149   0.98199    0.007
 6261.00    1.01289   0.98065    0.008
 6262.00    0.98735   0.99554    0.008
 6263.00    0.95244   0.99837    0.008
 6264.00    0.89783   0.99063    0.008
 6265.00    0.83745   0.98650    0.008
 6266.00    0.85441   0.99053    0.007
 6267.00    0.89015   0.99930    0.007
 6268.00    0.93219   1.00700    0.007
 6269.00    0.97547   1.00722    0.007
 6270.00    0.99372   1.00687    0.007
 6271.00    1.00815   1.00842    0.007
 6272.00    1.01123   1.00625    0.007
 6273.00    1.01303   1.00188    0.007
 6274.00    1.00719   0.99156    0.007
 6275.00    1.00077   0.97605    0.007
 6276.00    1.01616   0.97206    0.007
 6277.00    1.03243   0.98240    0.007
 6278.00    1.01783   0.99762    0.007
 6279.00    1.00394   1.01040    0.007
 6280.00    1.02821   1.01211    0.000
 6281.00    1.04967   1.01486    0.000
 6282.00    1.02338   1.02449    0.000
 6283.00    0.99729   1.03360    0.000
 6284.00    0.97332   1.03361    0.000
 6285.00    0.95628   1.02053    0.000
 6286.00    0.99096   1.00573    0.000
 6287.00    1.01879   0.99904    0.000
 6288.00    1.00771   0.99926    0.000
 6289.00    0.99642   1.00624    0.000
 6290.00    0.98413   1.00623    0.000
 6291.00    0.98437   0.98764    0.000
 6292.00    1.03111   0.97078    0.000
 6293.00    1.06456   0.97354    0.000
 6294.00    1.05674   0.98552    0.000
 6295.00    1.04763   0.98533    0.000
 6296.00    1.03513   0.96905    0.000
 6297.00    1.02784   0.95958    0.000
 6298.00    1.03237   0.97262    0.000
 6299.00    1.03019   0.99121    0.000
 6300.00    1.01488   0.99791    0.000
 6301.00    0.99968   1.00333    0.000
 6302.00    0.98468   1.01943    0.000
 6303.00    0.98056   1.03037    0.000
 6304.00    0.99274   1.02555    0.000
 6305.00    0.99014   1.01063    0.000
 6306.00    0.96810   0.99716    0.000
 6307.00    0.95632   0.99452    0.000
 6308.00    0.95643   0.99672    0.000
 6309.00    0.96035   0.98468    0.000
 6310.00    0.96816   0.96897    0.000
 6311.00    0.96978   0.96936    0.000
 6312.00    0.96584   0.96692    0.000
 6313.00    0.97181   0.95241    0.000
 6314.00    0.98565   0.95662    0.000
 6315.00    0.98983   0.98037    0.000
 6316.00    0.98727   0.99518    0.000
 6317.00    0.96805   0.99577    0.000
 6318.00    0.93862   1.00069    0.000
 6319.00    0.92580   1.01415    0.000
 6320.00    0.92187   1.02184    0.000
 6321.00    0.92350   1.02136    0.006
 6322.00    0.92772   1.01641    0.006
 6323.00    0.93261   1.01709    0.006
 6324.00    0.93777   1.01844    0.006
 6325.00    0.93259   1.01157    0.006
 6326.00    0.92389   1.01039    0.006
 6327.00    0.93135   1.02199    0.006
 6328.00    0.94346   1.02841    0.006
 6329.00    0.98161   1.01004    0.006
 6330.00    1.02595   0.97445    0.006
 6331.00    1.01616   0.95511    0.006
 6332.00    0.99603   0.96511    0.006
 6333.00    0.98442   0.98329    0.006
 6334.00    0.97408   0.99474    0.006
 6335.00    1.00184   1.00837    0.006
 6336.00    1.03373   1.01861    0.006
 6337.00    1.02909   1.00901    0.006
 6338.00    1.02185   0.98614    0.006
 6339.00    0.99828   0.97196    0.006
 6340.00    0.97412   0.97858    0.006
 6341.00    0.96571   0.98993    0.006
 6342.00    0.95786   0.99601    0.006
 6343.00    0.96811   1.00584    0.006
 6344.00    0.97615   1.01613    0.006
 6345.00    0.94899   1.02031    0.006
 6346.00    0.92561   1.02230    0.006
 6347.00    0.94030   1.02092    0.006
 6348.00    0.95847   1.01052    0.006
 6349.00    1.00180   0.99244    0.006
 6350.00    1.04002   0.98226    0.006
 6351.00    1.04998   0.98688    0.007
 6352.00    1.05146   0.98535    0.007
 6353.00    1.01552   0.96615    0.007
 6354.00    0.98461   0.95177    0.007
 6355.00    0.97202   0.95136    0.007
 6356.00    0.97189   0.94649    0.006
 6357.00    1.00970   0.93680    0.006
 6358.00    1.03719   0.93951    0.006
 6359.00    1.03795   0.95556    0.006
 6360.00    1.03076   0.97270    0.006
 6361.00    1.00584   0.98698    0.006
 6362.00    0.99069   1.00040    0.006
 6363.00    0.99441   1.01085    0.006
 6364.00    0.99362   1.01045    0.006
 6365.00    0.98526   1.00173    0.006
 6366.00    0.97921   1.00255    0.006
 6367.00    0.97654   1.01777    0.006
 6368.00    0.97668   1.03002    0.007
 6369.00    0.98045   1.02986    0.006
 6370.00    1.00255   1.02672    0.006
 6371.00    1.04561   1.02624    0.006
 6372.00    1.05296   1.02142    0.006
 6373.00    1.02432   1.00959    0.006
 6374.00    1.00426   1.00089    0.006
 6375.00    0.99185   0.99867    0.007
 6376.00    0.98328   1.00246    0.007
 6377.00    0.97772   1.01138    0.007
 6378.00    0.97993   1.01355    0.007
 6379.00    0.98747   1.00670    0.006
 6380.00    1.01482   1.00616    0.006
 6381.00    1.05411   1.01546    0.006
 6382.00    1.07882   1.02294    0.006
 6383.00    1.09584   1.02322    0.006
 6384.00    1.10194   1.02332    0.006
 6385.00    1.10305   1.02377    0.006
 6386.00    1.08853   1.01409    0.006
 6387.00    1.06786   0.98723    0.006
 6388.00    1.05986   0.95913    0.006
 6389.00    1.05612   0.96291    0.006
 6390.00    1.04672   0.99446    0.006
 6391.00    1.03574   1.02091    0.006
 6392.00    1.01643   1.02941    0.006
 6393.00    0.99520   1.01416    0.006
 6394.00    0.96746   0.97325    0.006
 6395.00    0.93850   0.94560    0.006
 6396.00    0.94895   0.96983    0.007
 6397.00    0.96507   1.01325    0.007
 6398.00    0.96508   1.03390    0.007
 6399.00    0.96341   1.03687    0.006
 6400.00    0.96287   1.02992    0.006
 6401.00    0.96241   1.01410    0.006
 6402.00    0.95734   0.99327    0.006
 6403.00    0.95212   0.98539    0.006
 6404.00    0.91007   0.99942    0.006
 6405.00    0.86866   1.00533    0.006
 6406.00    0.84725   0.99010    0.006
 6407.00    0.82702   0.98541    0.006
 6408.00    0.82459   0.99683    0.006
 6409.00    0.82720   1.00385    0.006
 6410.00    0.87842   1.00784    0.006
 6411.00    0.92577   1.01351    0.006
 6412.00    0.94613   1.01415    0.006
 6413.00    0.96073   1.00612    0.006
 6414.00    0.94425   0.98757    0.006
 6415.00    0.92796   0.96633    0.006
 6416.00    0.91252   0.96449    0.006
 6417.00    0.90805   0.99097    0.006
 6418.00    0.94264   1.02192    0.006
 6419.00    0.97375   1.03111    0.006
 6420.00    0.99445   1.02758    0.006
 6421.00    1.00972   1.03071    0.006
 6422.00    1.01117   1.03827    0.006
 6423.00    1.01312   1.03623    0.006
 6424.00    1.01619   1.01506    0.006
 6425.00    1.01500   0.98081    0.006
 6426.00    1.00570   0.96439    0.006
 6427.00    0.98801   0.98010    0.006
 6428.00    0.95642   1.00501    0.006
 6429.00    0.94849   1.02029    0.006
 6430.00    0.97495   1.02794    0.007
 6431.00    1.00351   1.02888    0.007
 6432.00    1.03476   1.01281    0.006
 6433.00    1.04847   0.98042    0.006
 6434.00    1.04241   0.96622    0.006
 6435.00    1.03797   0.99259    0.006
 6436.00    1.03514   1.02761    0.006
 6437.00    1.03134   1.04205    0.006
 6438.00    1.02670   1.04328    0.006
 6439.00    1.03752   1.04166    0.006
 6440.00    1.06029   1.04335    0.006
 6441.00    1.07325   1.04672    0.006
 6442.00    1.07956   1.03839    0.006
 6443.00    1.05114   1.00328    0.006
 6444.00    1.00205   0.94953    0.006
 6445.00    0.98382   0.92561    0.006
 6446.00    0.98160   0.95545    0.006
 6447.00    0.99271   0.99793    0.006
 6448.00    1.00982   1.01945    0.007
 6449.00    0.97779   1.01407    0.007
 6450.00    0.92674   0.99157    0.007
 6451.00    0.90841   0.98076    0.007
 6452.00    0.90085   0.99833    0.007
 6453.00    0.93955   1.02631    0.006
 6454.00    0.99101   1.04230    0.006
 6455.00    1.00751   1.03784    0.006
 6456.00    1.01608   1.00544    0.006
 6457.00    1.01004   0.96186    0.006
 6458.00    1.00135   0.95321    0.006
 6459.00    1.01739   0.98399    0.006
 6460.00    1.03688   1.01215    0.006
 6461.00    1.02859   1.02592    0.006
 6462.00    1.01753   1.03187    0.006
 6463.00    1.01058   1.02792    0.006
 6464.00    1.00389   1.01611    0.006
 6465.00    1.02202   1.00540    0.006
 6466.00    1.04074   0.99819    0.006
 6467.00    1.02043   1.00143    0.006
 6468.00    1.00100   1.01203    0.006
 6469.00    1.00603   1.01049    0.006
 6470.00    1.01381   1.00212    0.006
 6471.00    1.06050   1.00511    0.006
 6472.00    1.09667   1.01583    0.006
 6473.00    1.03534   1.02040    0.006
 6474.00    0.97050   1.01969    0.006
 6475.00    0.88182   1.00950    0.006
 6476.00    0.81386   0.98371    0.006
 6477.00    0.85460   0.96252    0.006
 6478.00    0.90369   0.96632    0.006
 6479.00    0.98807   0.98645    0.006
 6480.00    1.05310   1.00274    0.006
 6481.00    1.05066   1.01071    0.006
 6482.00    1.03371   1.01469    0.006
 6483.00    0.97418   1.01459    0.006
 6484.00    0.92258   1.00678    0.006
 6485.00    0.89083   0.99373    0.006
 6486.00    0.87973   0.98234    0.006
 6487.00    0.91314   0.96466    0.006
 6488.00    0.94850   0.92376    0.006
 6489.00    0.98752   0.87349    0.006
 6490.00    1.00098   0.85128    0.006
 6491.00    0.97267   0.86328    0.006
 6492.00    0.95279   0.89079    0.006
 6493.00    0.94500   0.91625    0.006
 6494.00    0.95218   0.93178    0.006
 6495.00    0.97825   0.95045    0.006
 6496.00    0.99107   0.97145    0.006
 6497.00    0.98918   0.98450    0.006
 6498.00    0.98913   0.99156    0.006
 6499.00    0.99089   0.99711    0.006
 6500.00    1.00741   1.00396    0.006
 6501.00    1.03667   1.00801    0.006
 6502.00    1.05447   1.00391    0.006
 6503.00    1.06353   0.99459    0.006
 6504.00    1.06087   0.99227    0.006
 6505.00    1.05036   0.99933    0.006
 6506.00    1.01964   1.00548    0.006
 6507.00    0.97708   1.00655    0.006
 6508.00    0.94063   1.00528    0.006
 6509.00    0.90730   0.99806    0.006
 6510.00    0.92048   0.98441    0.006
 6511.00    0.95425   0.97208    0.006
 6512.00    0.98729   0.96437    0.006
 6513.00    1.02007   0.96009    0.006
 6514.00    1.02555   0.96775    0.006
 6515.00    1.02223   0.98697    0.006
 6516.00    1.02648   1.00108    0.006
 6517.00    1.03277   1.00333    0.006
 6518.00    1.02632   1.00262    0.006
 6519.00    1.01704   1.00450    0.006
 6520.00    1.02497   1.00017    0.006
 6521.00    1.03592   0.98539    0.006
 6522.00    1.04775   0.97540    0.006
 6523.00    1.05969   0.98182    0.006
 6524.00    1.03112   0.99385    0.006
 6525.00    0.99868   0.99741    0.006
 6526.00    0.96486   0.98848    0.006
 6527.00    0.93095   0.97480    0.006
 6528.00    0.93474   0.97018    0.000
 6529.00    0.93957   0.97984    0.000
 6530.00    0.95696   0.99371    0.000
 6531.00    0.97283   0.99671    0.000
 6532.00    0.95035   0.99064    0.000
 6533.00    0.92832   0.99181    0.000
 6534.00    0.91213   1.00109    0.000
 6535.00    0.90157   1.00509    0.000
 6536.00    0.94111   0.99717    0.000
 6537.00    0.97729   0.98442    0.000
 6538.00    0.99142   0.97487    0.000
 6539.00    1.00203   0.96463    0.000
 6540.00    0.99459   0.94619    0.000
 6541.00    0.99967   0.93094    0.000
 6542.00    1.05636   0.93659    0.000
 6543.00    1.11801   0.95325    0.000
 6544.00    1.19660   0.96078    0.000
 6545.00    1.25412   0.95498    0.000
 6546.00    1.25097   0.94388    0.000
 6547.00    1.23095   0.93471    0.000
 6548.00    1.16945   0.92404    0.000
 6549.00    1.11510   0.90738    0.000
 6550.00    1.07593   0.89224    0.000
 6551.00    1.04405   0.88992    0.000
 6552.00    1.02559   0.89620    0.000
 6553.00    1.04471   0.89647    0.000
 6554.00    1.12431   0.88216    0.000
 6555.00    1.26819   0.84078    0.000
 6556.00    1.50281   0.74611    0.000
 6557.00    1.76042   0.63263    0.000
 6558.00    2.04658   0.61618    0.000
 6559.00    2.25244   0.71983    0.000
 6560.00    2.37036   0.83156    0.000
 6561.00    2.32391   0.88924    0.000
 6562.00    2.11868   0.91103    0.000
 6563.00    1.84625   0.91171    0.000
 6564.00    1.51656   0.90474    0.000
 6565.00    1.30308   0.90850    0.000
 6566.00    1.17678   0.91537    0.000
 6567.00    1.09505   0.91007    0.000
 6568.00    1.04269   0.89818    0.000
 6569.00    0.99334   0.89469    0.000
 6570.00    0.94571   0.90911    0.000
 6571.00    0.94894   0.93749    0.000
 6572.00    0.97773   0.96128    0.000
 6573.00    1.00797   0.96948    0.000
 6574.00    1.03885   0.96470    0.000
 6575.00    1.06747   0.95235    0.000
 6576.00    1.09526   0.94636    0.000
 6577.00    1.19918   0.95558    0.000
 6578.00    1.32719   0.96698    0.000
 6579.00    1.43549   0.96984    0.000
 6580.00    1.53858   0.96572    0.000
 6581.00    1.54360   0.96399    0.000
 6582.00    1.52743   0.97203    0.000
 6583.00    1.40327   0.98409    0.000
 6584.00    1.26059   0.99045    0.000
 6585.00    1.16033   0.98589    0.000
 6586.00    1.06558   0.96318    0.000
 6587.00    1.02416   0.92401    0.000
 6588.00    0.98760   0.90110    0.000
 6589.00    0.97297   0.91894    0.000
 6590.00    0.95955   0.95243    0.000
 6591.00    0.92462   0.96798    0.000
 6592.00    0.88963   0.96412    0.000
 6593.00    0.89273   0.95761    0.000
 6594.00    0.89665   0.96348    0.000
 6595.00    0.91918   0.98043    0.000
 6596.00    0.94318   0.99373    0.000
 6597.00    0.98573   0.99420    0.000
 6598.00    1.02532   0.98497    0.000
 6599.00    1.03947   0.97338    0.000
 6600.00    1.04801   0.96567    0.000
 6601.00    1.02091   0.96237    0.000
 6602.00    0.98993   0.95541    0.000
 6603.00    0.93962   0.94276    0.000
 6604.00    0.89377   0.93952    0.000
 6605.00    0.86588   0.95809    0.000
 6606.00    0.84568   0.98047    0.000
 6607.00    0.85126   0.98505    0.000
 6608.00    0.87088   0.97802    0.000
 6609.00    0.93023   0.97952    0.006
 6610.00    0.98559   0.98991    0.006
 6611.00    1.03133   0.99372    0.006
 6612.00    1.05745   0.98989    0.006
 6613.00    1.04265   0.98860    0.006
 6614.00    1.03551   0.99291    0.006
 6615.00    1.04227   0.99850    0.006
 6616.00    1.03101   0.99946    0.006
 6617.00    0.99118   0.99213    0.006
 6618.00    0.97273   0.97567    0.006
 6619.00    0.98406   0.95872    0.006
 6620.00    1.00729   0.95694    0.006
 6621.00    1.04510   0.96826    0.006
 6622.00    1.06791   0.97708    0.006
 6623.00    1.07453   0.97871    0.006
 6624.00    1.06620   0.97592    0.006
 6625.00    1.04363   0.97129    0.006
 6626.00    1.02728   0.96443    0.006
 6627.00    1.01615   0.95002    0.006
 6628.00    1.00061   0.93295    0.006
 6629.00    0.98183   0.93132    0.006
 6630.00    0.96179   0.94955    0.006
 6631.00    0.94095   0.96992    0.006
 6632.00    0.93728   0.97958    0.006
 6633.00    0.94337   0.97725    0.006
 6634.00    0.98431   0.96971    0.006
 6635.00    1.04250   0.97014    0.006
 6636.00    1.01120   0.97593    0.006
 6637.00    0.94160   0.96740    0.006
 6638.00    0.87210   0.95133    0.006
 6639.00    0.80264   0.95178    0.006
 6640.00    0.79963   0.96476    0.006
 6641.00    0.81726   0.97166    0.006
 6642.00    0.86484   0.97082    0.006
 6643.00    0.92018   0.97198    0.006
 6644.00    0.93505   0.97606    0.006
 6645.00    0.94138   0.97589    0.006
 6646.00    0.91982   0.97226    0.006
 6647.00    0.89361   0.97041    0.006
 6648.00    0.89356   0.97063    0.006
 6649.00    0.89678   0.97208    0.006
 6650.00    0.90672   0.97282    0.006
 6651.00    0.91725   0.97169    0.006
 6652.00    0.92329   0.97219    0.006
 6653.00    0.92909   0.97398    0.006
 6654.00    0.94657   0.97205    0.006
 6655.00    0.96385   0.96605    0.006
 6656.00    0.95256   0.95654    0.006
 6657.00    0.94059   0.94087    0.006
 6658.00    0.91418   0.92919    0.006
 6659.00    0.89024   0.93475    0.006
 6660.00    0.89606   0.94591    0.006
 6661.00    0.90339   0.94884    0.006
 6662.00    0.92315   0.94905    0.006
 6663.00    0.93641   0.95492    0.006
 6664.00    0.90961   0.96672    0.006
 6665.00    0.88961   0.97675    0.006
 6666.00    0.90269   0.97977    0.006
 6667.00    0.91526   0.97896    0.006
 6668.00    0.92578   0.97837    0.006
 6669.00    0.93983   0.97888    0.006
 6670.00    0.96546   0.97501    0.006
 6671.00    0.98791   0.95503    0.006
 6672.00    1.00158   0.92301    0.006
 6673.00    0.99427   0.91052    0.006
 6674.00    0.93710   0.93105    0.006
 6675.00    0.89481   0.95394    0.006
 6676.00    0.88308   0.96170    0.006
 6677.00    0.88171   0.96561    0.006
 6678.00    0.89884   0.97110    0.006
 6679.00    0.91245   0.97476    0.006
 6680.00    0.92055   0.97464    0.006
 6681.00    0.93493   0.97215    0.006
 6682.00    0.95795   0.96929    0.006
 6683.00    0.97769   0.96855    0.006
 6684.00    0.99348   0.97053    0.006
 6685.00    1.00475   0.97308    0.006
 6686.00    1.01119   0.97354    0.006
 6687.00    1.00190   0.97268    0.006
 6688.00    0.97783   0.97141    0.006
 6689.00    0.96327   0.96379    0.006
 6690.00    0.95659   0.94872    0.006
 6691.00    0.94890   0.93708    0.006
 6692.00    0.94048   0.93860    0.006
 6693.00    0.93651   0.94808    0.006
 6694.00    0.93539   0.95983    0.006
 6695.00    0.95475   0.96992    0.006
 6696.00    0.98557   0.97160    0.000
 6697.00    0.98724   0.96353    0.000
 6698.00    0.97472   0.95115    0.000
 6699.00    0.95545   0.94512    0.000
 6700.00    0.93333   0.95108    0.000
 6701.00    0.93972   0.96080    0.000
 6702.00    0.95636   0.96448    0.000
 6703.00    0.99608   0.96264    0.000
 6704.00    1.04282   0.95722    0.000
 6705.00    1.04207   0.95272    0.000
 6706.00    1.02930   0.95288    0.000
 6707.00    1.02734   0.95121    0.000
 6708.00    1.02760   0.94443    0.000
 6709.00    1.08757   0.93566    0.000
 6710.00    1.15720   0.92371    0.000
 6711.00    1.22051   0.90863    0.000
 6712.00    1.28305   0.90125    0.000
 6713.00    1.29906   0.91455    0.000
 6714.00    1.31120   0.93822    0.000
 6715.00    1.28365   0.95027    0.000
 6716.00    1.25421   0.94987    0.000
 6717.00    1.18456   0.95115    0.000
 6718.00    1.11448   0.95746    0.000
 6719.00    1.05165   0.95809    0.000
 6720.00    0.99217   0.94983    0.000
 6721.00    0.99784   0.94405    0.000
 6722.00    1.00629   0.94761    0.000
 6723.00    1.04648   0.95487    0.000
 6724.00    1.08821   0.96131    0.000
 6725.00    1.14225   0.96478    0.000
 6726.00    1.19587   0.96357    0.000
 6727.00    1.24696   0.95851    0.000
 6728.00    1.28335   0.95413    0.000
 6729.00    1.25001   0.95412    0.000
 6730.00    1.20857   0.95740    0.000
 6731.00    1.13587   0.95747    0.000
 6732.00    1.05747   0.94883    0.000
 6733.00    0.96068   0.93736    0.000
 6734.00    0.88743   0.93447    0.000
 6735.00    0.87832   0.94147    0.000
 6736.00    0.87788   0.94560    0.000
 6737.00    0.89769   0.94011    0.000
 6738.00    0.92361   0.93646    0.000
 6739.00    0.96185   0.94116    0.000
 6740.00    0.97866   0.94479    0.000
 6741.00    0.95778   0.94338    0.000
 6742.00    0.95202   0.94038    0.000
 6743.00    0.96956   0.93549    0.000
 6744.00    0.97749   0.93035    0.000
 6745.00    0.97242   0.93078    0.000
 6746.00    0.96089   0.93448    0.000
 6747.00    0.94166   0.93332    0.000
 6748.00    0.93643   0.93434    0.000
 6749.00    0.94588   0.94241    0.000
 6750.00    0.93698   0.94865    0.000
 6751.00    0.91107   0.95266    0.000
 6752.00    0.88857   0.95894    0.000
 6753.00    0.86886   0.96584    0.006
 6754.00    0.87094   0.97045    0.007
 6755.00    0.88868   0.97079    0.007
 6756.00    0.89286   0.96649    0.007
 6757.00    0.88849   0.96359    0.007
 6758.00    0.89468   0.96503    0.007
 6759.00    0.90669   0.96454    0.007
 6760.00    0.98180   0.95624    0.007
 6761.00    1.08716   0.94192    0.007
 6762.00    1.19214   0.93250    0.008
 6763.00    1.29696   0.93658    0.008
 6764.00    1.28510   0.94384    0.008
 6765.00    1.23197   0.94198    0.008
 6766.00    1.18000   0.93851    0.007
 6767.00    1.12838   0.94469    0.007
 6768.00    1.08283   0.95736    0.007
 6769.00    1.03879   0.96742    0.007
 6770.00    1.05256   0.97224    0.007
 6771.00    1.07793   0.97213    0.007
 6772.00    1.07116   0.97004    0.007
 6773.00    1.05935   0.97252    0.007
 6774.00    1.04522   0.97545    0.006
 6775.00    1.03082   0.97088    0.006
 6776.00    1.01462   0.95955    0.006
 6777.00    0.99827   0.94336    0.006
 6778.00    1.02421   0.92732    0.007
 6779.00    1.05198   0.92077    0.007
 6780.00    1.03133   0.92410    0.007
 6781.00    1.01078   0.93294    0.007
 6782.00    1.01826   0.94578    0.007
 6783.00    1.02651   0.95480    0.007
 6784.00    1.04874   0.95612    0.007
 6785.00    1.06498   0.95598    0.007
 6786.00    1.01563   0.95576    0.007
 6787.00    0.97180   0.95024    0.007
 6788.00    0.97040   0.94230    0.007
 6789.00    0.97544   0.93941    0.007
 6790.00    1.01792   0.94095    0.007
 6791.00    1.04730   0.94375    0.007
 6792.00    1.01606   0.94631    0.007
 6793.00    1.00014   0.94884    0.007
 6794.00    1.04211   0.95250    0.007
 6795.00    1.07653   0.95676    0.007
 6796.00    1.08713   0.95944    0.007
 6797.00    1.10168   0.95725    0.007
 6798.00    1.12682   0.95142    0.007
 6799.00    1.14116   0.94926    0.007
 6800.00    1.13068   0.95071    0.007
 6801.00    1.10513   0.94933    0.007
 6802.00    1.04964   0.94911    0.007
 6803.00    0.99686   0.95061    0.007
 6804.00    0.94877   0.94770    0.007
 6805.00    0.88713   0.94644    0.007
 6806.00    0.80496   0.95080    0.007
 6807.00    0.78143   0.95408    0.006
 6808.00    0.83605   0.94933    0.006
 6809.00    0.88452   0.94059    0.006
 6810.00    0.92577   0.94211    0.006
 6811.00    0.94850   0.95486    0.007
 6812.00    0.95207   0.96318    0.007
 6813.00    0.95295   0.95943    0.007
 6814.00    0.95138   0.94985    0.007
 6815.00    0.94422   0.94684    0.007
 6816.00    0.93255   0.95522    0.007
 6817.00    0.92032   0.96576    0.007
 6818.00    0.90771   0.96971    0.007
 6819.00    0.92760   0.96873    0.006
 6820.00    0.96768   0.96656    0.006
 6821.00    0.99954   0.96009    0.006
 6822.00    1.02693   0.94791    0.006
 6823.00    1.04397   0.94075    0.006
 6824.00    1.05613   0.94659    0.006
 6825.00    1.02745   0.95697    0.007
 6826.00    0.98216   0.96042    0.007
 6827.00    0.95672   0.95824    0.007
 6828.00    0.93818   0.95992    0.007
 6829.00    0.97099   0.96595    0.007
 6830.00    1.01884   0.96768    0.007
 6831.00    1.03377   0.96273    0.007
 6832.00    1.04074   0.95349    0.007
 6833.00    1.03536   0.94035    0.007
 6834.00    1.02756   0.92658    0.007
 6835.00    1.02840   0.91380    0.007
 6836.00    1.03055   0.90573    0.007
 6837.00    1.04399   0.91012    0.007
 6838.00    1.05869   0.92698    0.007
 6839.00    1.01199   0.94543    0.007
 6840.00    0.96071   0.95547    0.007
 6841.00    0.90117   0.95770    0.007
 6842.00    0.84131   0.95772    0.007
 6843.00    0.80542   0.95721    0.007
 6844.00    0.77347   0.95596    0.007
 6845.00    0.89116   0.95443    0.007
 6846.00    1.00073   0.95458    0.006
 6847.00    0.97295   0.95594    0.006
 6848.00    0.94897   0.94893    0.006
 6849.00    0.96480   0.93090    0.007
 6850.00    0.97327   0.92018    0.007
 6851.00    0.92709   0.92518    0.006
 6852.00    0.89211   0.93305    0.006
 6853.00    0.92067   0.93818    0.006
 6854.00    0.94501   0.93871    0.006
 6855.00    0.95032   0.92889    0.006
 6856.00    0.95905   0.91967    0.006
 6857.00    0.98041   0.92841    0.006
 6858.00    1.00858   0.94951    0.006
 6859.00    1.05781   0.96143    0.007
 6860.00    1.08381   0.95604    0.007
 6861.00    1.04870   0.93986    0.007
 6862.00    1.00870   0.92356    0.007
 6863.00    0.95770   0.92178    0.006
 6864.00    0.91972   0.93582    0.006
 6865.00    0.90724   0.94438    0.007
 6866.00    0.89136   0.93752    0.007
 6867.00    0.86965   0.93159    0.007
 6868.00    0.87554   0.93460    0.007
 6869.00    0.92269   0.93682    0.007
 6870.00    0.95085   0.93748    0.007
 6871.00    0.95408   0.94390    0.007
 6872.00    0.94721   0.95309    0.006
 6873.00    0.92864   0.95701    0.006
 6874.00    0.94565   0.95432    0.006
 6875.00    0.99896   0.94531    0.006
 6876.00    0.99850   0.93188    0.006
 6877.00    0.94963   0.92422    0.006
 6878.00    0.90370   0.93073    0.006
 6879.00    0.86011   0.94290    0.006
 6880.00    0.82642   0.94698    0.006
 6881.00    0.79963   0.94780    0.006
 6882.00    0.82571   0.95616    0.006
 6883.00    0.88414   0.96412    0.006
 6884.00    0.92008   0.96735    0.007
 6885.00    0.94400   0.97169    0.006
 6886.00    0.92890   0.97257    0.006
 6887.00    0.89569   0.96729    0.006
 6888.00    0.89292   0.96404    0.006
 6889.00    0.90232   0.96057    0.007
 6890.00    0.94380   0.95468    0.006
 6891.00    0.99622   0.95452    0.006
 6892.00    0.96611   0.96207    0.006
 6893.00    0.91235   0.96553    0.006
 6894.00    0.95899   0.95938    0.006
 6895.00    1.02940   0.95705    0.006
 6896.00    1.02306   0.96457    0.006
 6897.00    1.00210   0.97002    0.006
 6898.00    0.96415   0.96686    0.006
 6899.00    0.92369   0.96223    0.006
 6900.00    0.91455   0.96445    0.007
 6901.00    0.90879   0.97177    0.007
 6902.00    0.95624   0.97564    0.007
 6903.00    1.00745   0.97548    0.007
 6904.00    0.95674   0.97380    0.007
 6905.00    0.90237   0.97027    0.007
 6906.00    0.89624   0.96341    0.007
 6907.00    0.89034   0.95402    0.007
 6908.00    0.88727   0.94320    0.007
 6909.00    0.88797   0.93881    0.007
 6910.00    0.94852   0.94403    0.007
 6911.00    1.00390   0.94838    0.007
 6912.00    1.00740   0.95116    0.006
 6913.00    1.00275   0.95702    0.006
 6914.00    0.93947   0.96445    0.006
 6915.00    0.89368   0.96987    0.006
 6916.00    0.94438   0.97221    0.006
 6917.00    0.97914   0.96635    0.006
 6918.00    0.94364   0.95007    0.006
 6919.00    0.91989   0.93366    0.006
 6920.00    0.93877   0.92951    0.006
 6921.00    0.94478   0.93953    0.006
 6922.00    0.91169   0.95304    0.006
 6923.00    0.89493   0.95986    0.007
 6924.00    0.92040   0.96056    0.007
 6925.00    0.91720   0.95949    0.007
 6926.00    0.85028   0.95409    0.007
 6927.00    0.82670   0.94472    0.007
 6928.00    0.88660   0.94219    0.007
 6929.00    0.92196   0.95211    0.007
 6930.00    0.91604   0.96091    0.007
 6931.00    0.91558   0.96105    0.007
 6932.00    0.92315   0.95864    0.007
 6933.00    0.90908   0.96135    0.007
 6934.00    0.86698   0.96734    0.007
 6935.00    0.87936   0.97094    0.007
 6936.00    0.95390   0.96778    0.006
 6937.00    0.99492   0.95804    0.006
 6938.00    1.00222   0.94380    0.006
 6939.00    1.00572   0.93009    0.006
 6940.00    1.00585   0.92990    0.007
 6941.00    0.97827   0.94377    0.007
 6942.00    0.92904   0.95716    0.007
 6943.00    0.94550   0.96390    0.007
 6944.00    1.00713   0.96198    0.007
 6945.00    1.01702   0.95132    0.007
 6946.00    0.99571   0.94182    0.007
 6947.00    0.99889   0.94000    0.007
 6948.00    1.01493   0.94086    0.007
 6949.00    1.03300   0.94413    0.007
 6950.00    1.05199   0.95239    0.007
 6951.00    1.03327   0.96085    0.007
 6952.00    0.99974   0.96310    0.007
 6953.00    0.99165   0.96372    0.007
 6954.00    0.99208   0.96482    0.007
 6955.00    0.97763   0.96602    0.007
 6956.00    0.95902   0.96663    0.007
 6957.00    0.93694   0.96756    0.007
 6958.00    0.91405   0.96958    0.006
 6959.00    0.90671   0.96713    0.006
 6960.00    0.90224   0.96119    0.007
 6961.00    0.92562   0.96364    0.007
 6962.00    0.95298   0.97488    0.007
 6963.00    0.98599   0.98099    0.007
 6964.00    1.01959   0.97616    0.007
 6965.00    1.00418   0.96537    0.007
 6966.00    0.98549   0.96218    0.007
 6967.00    0.93688   0.97059    0.007
 6968.00    0.88733   0.97419    0.007
 6969.00    0.92683   0.96382    0.007
 6970.00    0.96540   0.94881    0.007
 6971.00    0.97551   0.93044    0.007
 6972.00    0.97937   0.90427    0.007
 6973.00    0.89029   0.88786    0.007
 6974.00    0.80906   0.90284    0.007
 6975.00    0.80317   0.93556    0.007
 6976.00    0.79995   0.96006    0.007
 6977.00    0.81526   0.97184    0.007
 6978.00    0.83132   0.97720    0.007
 6979.00    0.85140   0.97852    0.006
 6980.00    0.88451   0.97741    0.006
 6981.00    0.97380   0.97456    0.007
 6982.00    1.02094   0.96744    0.007
 6983.00    0.91848   0.95667    0.007
 6984.00    0.84828   0.95238    0.007
 6985.00    0.87432   0.96050    0.007
 6986.00    0.90358   0.97117    0.007
 6987.00    0.94104   0.97509    0.007
 6988.00    0.96827   0.97076    0.007
 6989.00    0.97313   0.96619    0.007
 6990.00    0.96769   0.96760    0.007
 6991.00    0.94272   0.97158    0.007
 6992.00    0.92480   0.96911    0.007
 6993.00    0.91854   0.95520    0.007
 6994.00    0.94946   0.93926    0.007
 6995.00    1.03433   0.93830    0.007
 6996.00    1.06349   0.95099    0.007
 6997.00    1.02153   0.95853    0.007
 6998.00    0.97539   0.95168    0.007
 6999.00    0.92455   0.94259    0.007
 7000.00    0.90355   0.94034    0.007
 7001.00    0.91213   0.94384    0.007
 7002.00    0.95977   0.95145    0.007
 7003.00    1.04157   0.96073    0.007
 7004.00    1.07495   0.96365    0.007
 7005.00    1.07101   0.95870    0.007
 7006.00    1.01351   0.95599    0.007
 7007.00    0.91973   0.96025    0.007
 7008.00    0.89415   0.96016    0.007
 7009.00    0.90907   0.94261    0.007
 7010.00    0.86891   0.91330    0.007
 7011.00    0.80023   0.90254    0.007
 7012.00    0.80490   0.92512    0.007
 7013.00    0.84249   0.95539    0.007
 7014.00    0.87672   0.97235    0.007
 7015.00    0.90965   0.97659    0.007
 7016.00    0.87301   0.96804    0.007
 7017.00    0.81354   0.94755    0.007
 7018.00    0.84360   0.92903    0.007
 7019.00    0.89829   0.92808    0.007
 7020.00    0.92984   0.94098    0.007
 7021.00    0.95615   0.95174    0.007
 7022.00    0.91352   0.95604    0.007
 7023.00    0.85843   0.95847    0.007
 7024.00    0.88593   0.96302    0.007
 7025.00    0.92486   0.96670    0.007
 7026.00    0.92290   0.96547    0.007
 7027.00    0.91688   0.96151    0.007
 7028.00    0.91224   0.95942    0.007
 7029.00    0.90768   0.96155    0.007
 7030.00    0.91097   0.96683    0.007
 7031.00    0.91436   0.96188    0.007
 7032.00    0.88217   0.94070    0.007
 7033.00    0.85186   0.93067    0.007
 7034.00    0.87314   0.95223    0.007
 7035.00    0.88892   0.98373    0.007
 7036.00    0.82753   1.00273    0.007
 7037.00    0.78206   1.00624    0.007
 7038.00    0.88329   0.99594    0.007
 7039.00    0.96490   0.97963    0.007
 7040.00    0.91422   0.97506    0.007
 7041.00    0.88001   0.98620    0.007
 7042.00    0.93185   1.00031    0.007
 7043.00    0.97071   1.00692    0.007
 7044.00    0.95492   1.00432    0.007
 7045.00    0.95927   0.99368    0.007
 7046.00    1.03362   0.97105    0.007
 7047.00    1.08865   0.94113    0.007
 7048.00    1.08712   0.92127    0.007
 7049.00    1.06836   0.91893    0.008
 7050.00    1.00655   0.92907   -2.000
 7051.00    0.95710   0.94222   -2.000
 7052.00    0.93427   0.94654   -2.000
 7053.00    0.95894   0.93547   -2.000
 7054.00    1.07236   0.91940   -2.000
 7055.00    1.11719   0.91371   -2.000
 7056.00    1.05017   0.91941   -2.000
 7057.00    0.97364   0.92685   -2.000
 7058.00    0.88351   0.93427   -2.000
 7059.00    0.85075   0.93814   -2.000
 7060.00    0.89019   0.93085   -2.000
 7061.00    0.93844   0.91396   -2.000
 7062.00    0.99646   0.89611   -2.000
 7063.00    0.99367   0.89350   -2.000
 7064.00    0.93142   0.91113   -2.000
 7065.00    0.89069   0.93280   -2.000
 7066.00    0.86852   0.94279   -2.000
 7067.00    0.93009   0.94385   -2.000
 7068.00    1.05527   0.94509   -2.000
 7069.00    1.04610   0.94511   -2.000
 7070.00    0.94724   0.94275   -2.000
 7071.00    1.01569   0.94285   -2.000
 7072.00    1.18200   0.94617   -2.000
 7073.00    1.22911   0.94896   -2.000
 7074.00    1.21545   0.95214   -2.000
 7075.00    1.15297   0.95425   -2.000
 7076.00    1.06894   0.94806   -2.000
 7077.00    1.01481   0.92879   -2.000
 7078.00    0.97201   0.90023   -2.000
 7079.00    1.01787   0.88202   -2.000
 7080.00    1.09229   0.88488   -2.000
 7081.00    1.06170   0.89147   -2.000
 7082.00    1.00282   0.89061   -2.000
 7083.00    0.94541   0.88632   -2.000
 7084.00    0.88832   0.88064   -2.000
 7085.00    0.92331   0.87802   -2.000
 7086.00    0.97449   0.88067   -2.000
 7087.00    1.00038   0.88157   -2.000
 7088.00    1.02288   0.88185   -2.000
 7089.00    0.95923   0.88234   -2.000
 7090.00    0.88739   0.88252   -2.000
 7091.00    0.86832   0.88549   -2.000
 7092.00    0.85234   0.89056   -2.000
 7093.00    0.96420   0.90300   -2.000
 7094.00    1.07740   0.91115   -2.000
 7095.00    0.94303   0.90962   -2.000
 7096.00    0.81465   0.90267   -2.000
 7097.00    0.83481   0.89872   -2.000
 7098.00    0.85941   0.90444   -2.000
 7099.00    0.94293   0.91505   -2.000
 7100.00    1.01065   0.91589   -2.000
 7101.00    0.93838   0.90789   -2.000
 7102.00    0.88014   0.90278   -2.000
 7103.00    0.91359   0.90321   -2.000
 7104.00    0.94547   0.89868   -2.000
 7105.00    0.96928   0.88693   -2.000
 7106.00    0.97446   0.88193   -2.000
 7107.00    0.90297   0.88991   -2.000
 7108.00    0.84958   0.90107   -2.000
 7109.00    0.85791   0.90730   -2.000
 7110.00    0.90263   0.91035   -2.000
 7111.00    1.05190   0.91227   -2.000
 7112.00    1.14713   0.91113   -2.000
 7113.00    1.10977   0.90820   -2.000
 7114.00    1.06755   0.90597   -2.000
 7115.00    1.01505   0.90205   -2.000
 7116.00    1.00993   0.89534   -2.000
 7117.00    1.09193   0.89734   -2.000
 7118.00    1.12374   0.90545   -2.000
 7119.00    1.07490   0.90396   -2.000
 7120.00    1.02455   0.89271   -2.000
 7121.00    0.97207   0.88585   -2.000
 7122.00    1.04284   0.88918   -2.000
 7123.00    1.26650   0.88763   -2.000
 7124.00    1.34369   0.87387   -2.000
 7125.00    1.26075   0.86176   -2.000
 7126.00    1.15754   0.86700   -2.000
 7127.00    1.03479   0.88297   -2.000
 7128.00    0.93495   0.89850   -2.000
 7129.00    0.85461   0.90700   -2.000
 7130.00    0.91439   0.90956   -2.000
 7131.00    1.07911   0.91381   -2.000
 7132.00    1.07254   0.91305   -2.000
 7133.00    0.95328   0.90461   -2.000
 7134.00    0.93591   0.90116   -2.000
 7135.00    0.97724   0.90763   -2.000
 7136.00    0.97311   0.91306   -2.000
 7137.00    0.94616   0.91342   -2.000
 7138.00    0.98294   0.91128   -2.000
 7139.00    1.04738   0.90859   -2.000
 7140.00    0.98416   0.90691   -2.000
 7141.00    0.87340   0.89718   -2.000
 7142.00    0.89751   0.87809   -2.000
 7143.00    0.96424   0.87384   -2.000
 7144.00    0.90005   0.88616   -2.000
 7145.00    0.80133   0.89936   -2.000
 7146.00    0.84865   0.91186   -2.000
 7147.00    0.92745   0.92384   -2.000
 7148.00    0.92043   0.92604   -2.000
 7149.00    0.89874   0.91884   -2.000
 7150.00    0.82351   0.91629   -2.000
 7151.00    0.74134   0.92638   -2.000
 7152.00    0.78254   0.93213   -2.000
 7153.00    0.83495   0.92419   -2.000
 7154.00    0.94312   0.91390   -2.000
 7155.00    1.05434   0.91418   -2.000
 7156.00    1.02012   0.92037   -2.000
 7157.00    0.98302   0.91017   -2.000
 7158.00    0.96115   0.88313   -2.000
 7159.00    0.94101   0.86264   -2.000
 7160.00    0.96006   0.86903   -2.000
 7161.00    0.98354   0.89250   -2.000
 7162.00    1.06284   0.91111   -2.000
 7163.00    1.12805   0.91628   -2.000
 7164.00    1.07317   0.91517   -2.000
 7165.00    1.02618   0.91675   -2.000
 7166.00    1.02920   0.92458   -2.000
 7167.00    1.03224   0.92986   -2.000
 7168.00    1.03540   0.92756   -2.000
 7169.00    1.03154   0.91778   -2.000
 7170.00    0.99947   0.90389   -2.000
 7171.00    0.98461   0.90327   -2.000
 7172.00    1.02726   0.91562   -2.000
 7173.00    1.02903   0.91704   -2.000
 7174.00    0.91546   0.89720   -2.000
 7175.00    0.87699   0.87596   -2.000
 7176.00    1.01964   0.87733   -2.000
 7177.00    1.04722   0.90018   -2.000
 7178.00    0.83517   0.91869   -2.000
 7179.00    0.76830   0.91960   -2.000
 7180.00    0.96426   0.90750   -2.000
 7181.00    1.00897   0.88440   -2.000
 7182.00    0.81425   0.86703   -2.000
 7183.00    0.77302   0.86749   -2.000
 7184.00    0.94506   0.88010   -2.000
 7185.00    0.95412   0.89398   -2.000
 7186.00    0.76389   0.89619   -2.000
 7187.00    0.73101   0.89076   -2.000
 7188.00    0.86776   0.89129   -2.000
 7189.00    0.92718   0.90224   -2.000
 7190.00    0.91307   0.90595   -2.000
 7191.00    0.96546   0.89763   -2.000
 7192.00    1.07361   0.89618   -2.000
 7193.00    0.98838   0.90653   -2.000
 7194.00    0.76039   0.91198   -2.000
 7195.00    0.74779   0.90651   -2.000
 7196.00    0.87482   0.90124   -2.000
 7197.00    0.92238   0.90713   -2.000
 7198.00    0.92485   0.92060   -2.000
 7199.00    0.91251   0.92573   -2.000
 7200.00    0.89285   0.90665   -2.000
 7201.00    0.92776   0.87434   -2.000
 7202.00    0.98596   0.86107   -2.000
 7203.00    0.91581   0.87325   -2.000
 7204.00    0.79868   0.89607   -2.000
 7205.00    0.79271   0.91665   -2.000
 7206.00    0.82116   0.92228   -2.000
 7207.00    0.78785   0.91410   -2.000
 7208.00    0.73861   0.90359   -2.000
 7209.00    0.77421   0.89883   -2.000
 7210.00    0.82765   0.90108   -2.000
 7211.00    0.87228   0.91214   -2.000
 7212.00    0.91544   0.92459   -2.000
 7213.00    0.89150   0.92688   -2.000
 7214.00    0.85917   0.92129   -2.000
 7215.00    0.86397   0.91457   -2.000
 7216.00    0.87198   0.90985   -2.000
 7217.00    0.89582   0.90719   -2.000
 7218.00    0.92046   0.91063   -2.000
