###################################################################
## OUTPUT of StarlightChains_v04.for    [Cid@UFSC - 01/Apr/2007] ##
###################################################################

## Some input info
KUG0210-078._34_41.txt                   [arq_obs]
Base.CB07.vall.4m                        [arq_base]
Masks.EmLines.NEW.gm                     [arq_masks]
StCv04.C11.config                        [arq_config]
   66                                    [N_base]
    0                                    [N_YAV_components = # of components with extra extinction!]
    0                                    [i_FitPowerLaw (1/0 = Yes/No)]
-9.99                                    [alpha_PowerLaw]
CCM                                      [red_law_option]
 1.458241                                [q_norm = A(l_norm)/A(V)]

## (Re)Sampling Parameters
 3741.00                                 [l_ini (A)]
 7218.00                                 [l_fin (A)]
    1.00                                 [dl    (A)]     (OBS: dl_cushion =    50.00 A)

## Normalization info
 4020.00                                 [l_norm (A) - for base]
 4010.00                                 [llow_norm (A) - window for f_obs]
 4060.00                                 [lupp_norm (A) - window for f_obs]
1.063043E-17                             [fobs_norm (in input units)]

## S/N
 3691.00                                 [llow_SN (A) - window for S/N]
 7268.00                                 [lupp_SN (A) - window for S/N]
   4.467                                 [S/N in S/N window]
   3.129                                 [S/N in norm. window]
   0.018                                 [S/N_err in S/N window]
   0.012                                 [S/N_err in norm. window]
  1.0000                                 [fscale_chi2]

## etc...
    -2007546                             [idum_orig]
  2425                                   [NOl_eff]
  2405                                   [Nl_eff]
    20    NSIGMA                         [Ntot_cliped & clip_method]
  1875090                                [Nglobal_steps]
   7                                     [N_chains]
  25                                     [NEX0s_base = N_base in EX0s-fits]
 0   0   1       20   2.0   1.979E+03    [Clip-Bug, RC-Crash & Burn-In warning-flags, n_censored_weights, wei_nsig_threshold & wei_limit]
    20     20.131     19.726      0.405  [idt_all, wdt_TotTime, wdt_UsrTime & wdt_SysTime (sec)]

## Synthesis Results - Best model ##

 1.29761E-05                             [chi2/Nl_eff]
    35.11162                             [adev (%)]

   126.37653                             [sum-of-x (%)]
 9.11934E-18                             [Flux_tot (units of input spectrum!)]
 7.81221E-13                             [Mini_tot (???)]
 3.93865E-13                             [Mcor_tot (???)]

-419.17                                  [v0_min  (km/s)]
 420.75                                  [vd_min  (km/s)]
-0.2885                                  [AV_min  (mag)]
 0.0000                                  [YAV_min (mag)]

# j     x_j(%)      Mini_j(%)     Mcor_j(%)     age_j(yr)     Z_j      (L/M)_j    YAV?  Mstars   component_j        a/Fe...       SSP_chi2r SSP_adev(%)   SSP_AV   SSP_x(%)
  1      0.0000     0.0000E+00    0.0000E+00    1.000000E+06  0.00400  1.094E-02    0   1.0000   age020_m42            0.0000     2.0735E-05    48.2568   3.7487   104.4321
  2      0.0000     0.0000E+00    0.0000E+00    3.160000E+06  0.00400  4.007E-02    0   0.9999   age045_m42            0.0000     1.8843E-05    45.5969   3.0111   111.8330
  3      0.0000     0.0000E+00    0.0000E+00    5.010000E+06  0.00400  2.539E-02    0   0.9488   age055_m42            0.0000     1.9641E-05    47.0774   3.3386   108.9259
  4      0.0000     0.0000E+00    0.0000E+00    6.610000E+06  0.00400  2.620E-02    0   0.9220   age061_m42            0.0000     1.8835E-05    45.6186   2.9394   112.0019
  5      0.7215     5.0409E-04    8.8607E-04    1.000000E+07  0.00400  1.322E-02    0   0.8862   age070_m42            0.0000     2.0135E-05    47.9026   2.6808   113.3323
  6      0.0000     0.0000E+00    0.0000E+00    1.445000E+07  0.00400  7.883E-03    0   0.8571   age078_m42            0.0000     2.0513E-05    48.4710   3.0051   110.6240
  7      0.0000     0.0000E+00    0.0000E+00    2.512000E+07  0.00400  5.251E-03    0   0.8174   age090_m42            0.0000     2.0289E-05    48.1186   2.5543   113.7998
  8      0.0000     0.0000E+00    0.0000E+00    4.000000E+07  0.00400  3.649E-03    0   0.7851   age104_m42            0.0000     1.9712E-05    47.2783   2.3208   114.9677
  9      0.0000     0.0000E+00    0.0000E+00    5.500000E+07  0.00400  3.098E-03    0   0.7629   age110_m42            0.0000     1.8964E-05    45.6070   2.4620   115.5102
 10      0.0000     0.0000E+00    0.0000E+00    1.015200E+08  0.00400  2.228E-03    0   0.7207   age116_m42            0.0000     1.8494E-05    44.3867   2.4744   116.0611
 11      6.0893     5.1460E-02    6.7856E-02    2.861200E+08  0.00400  1.093E-03    0   0.6648   age125_m42            0.0000     1.8442E-05    44.1243   1.9033   119.2629
 12      0.0000     0.0000E+00    0.0000E+00    5.088000E+08  0.00400  6.597E-04    0   0.6365   age130_m42            0.0000     1.7544E-05    42.2047   1.8810   120.8413
 13      0.0000     0.0000E+00    0.0000E+00    1.434000E+09  0.00400  2.132E-04    0   0.5798   age139_m42            0.0000     1.5711E-05    40.4407   0.9048   123.3784
 14      4.6609     7.3032E-01    7.7889E-01    4.250000E+09  0.00400  5.895E-05    0   0.5377   age158_m42            0.0000     1.4373E-05    40.0018   0.4480   119.3422
 15      0.0000     0.0000E+00    0.0000E+00    7.500000E+09  0.00400  3.510E-05    0   0.5212   age171_m42            0.0000     1.3979E-05    39.1962   0.2500   118.8906
 16      0.0000     0.0000E+00    0.0000E+00    1.300000E+10  0.00400  2.005E-05    0   0.5034   age193_m42            0.0000     1.3701E-05    38.2802   0.0763   118.5186
 17      0.0000     0.0000E+00    0.0000E+00    1.800000E+10  0.00400  1.525E-05    0   0.4967   age213_m42            0.0000     1.3804E-05    38.5592   0.0564   117.8768
 18      0.0000     0.0000E+00    0.0000E+00    1.000000E+06  0.00800  1.238E-02    0   1.0000   age020_m52            0.0000     2.0734E-05    48.2968   3.7442   104.6632
 19      0.0000     0.0000E+00    0.0000E+00    3.160000E+06  0.00800  3.074E-02    0   0.9966   age045_m52            0.0000     2.0528E-05    48.2456   3.6671   105.6116
 20      0.0000     0.0000E+00    0.0000E+00    5.010000E+06  0.00800  2.668E-02    0   0.9443   age055_m52            0.0000     1.9901E-05    47.6017   3.4235   107.8934
 21      0.0000     0.0000E+00    0.0000E+00    6.610000E+06  0.00800  2.136E-02    0   0.9177   age061_m52            0.0000     1.9239E-05    47.7912   2.1788   114.6842
 22      0.1112     8.4513E-05    1.4797E-04    1.000000E+07  0.00800  1.215E-02    0   0.8827   age070_m52            0.0000     2.0923E-05    49.0929   2.8648   112.8369
 23      0.0000     0.0000E+00    0.0000E+00    1.445000E+07  0.00800  8.717E-03    0   0.8552   age078_m52            0.0000     2.0354E-05    48.3261   2.9727   112.0833
 24      0.0000     0.0000E+00    0.0000E+00    2.512000E+07  0.00800  5.592E-03    0   0.8162   age090_m52            0.0000     2.0310E-05    48.1058   2.6164   115.1721
 25      0.0000     0.0000E+00    0.0000E+00    4.000000E+07  0.00800  3.896E-03    0   0.7841   age104_m52            0.0000     1.9622E-05    47.0088   2.5196   116.3892
 26      0.0000     0.0000E+00    0.0000E+00    1.015200E+08  0.00800  2.148E-03    0   0.7226   age116_m52            0.0000     1.8584E-05    45.2934   2.4465   116.7373
 27      0.0000     0.0000E+00    0.0000E+00    2.861200E+08  0.00800  9.925E-04    0   0.6683   age125_m52            0.0000     1.7530E-05    42.1445   1.9468   121.9652
 28      0.0000     0.0000E+00    0.0000E+00    9.047900E+08  0.00800  3.141E-04    0   0.6138   age135_m52            0.0000     1.5328E-05    38.9391   1.1236   127.8995
 29      0.0000     0.0000E+00    0.0000E+00    1.434000E+09  0.00800  1.719E-04    0   0.5853   age139_m52            0.0000     1.4583E-05    39.7838   0.5426   125.2243
 30      0.0000     0.0000E+00    0.0000E+00    2.500000E+09  0.00800  7.872E-05    0   0.5600   age150_m52            0.0000     1.3673E-05    38.4503   0.2588   122.6463
 31      0.0000     0.0000E+00    0.0000E+00    4.250000E+09  0.00800  4.336E-05    0   0.5426   age158_m52            0.0000     1.3672E-05    38.5017   0.2421   121.5564
 32      0.0000     0.0000E+00    0.0000E+00    6.250000E+09  0.00800  3.159E-05    0   0.5319   age166_m52            0.0000     1.3309E-05    37.0840   0.0260   122.0837
 33      0.0000     0.0000E+00    0.0000E+00    1.300000E+10  0.00800  1.361E-05    0   0.5073   age193_m52            0.0000     1.3142E-05    35.4015  -0.4580   121.8523
 34      0.0000     0.0000E+00    0.0000E+00    1.800000E+10  0.00800  9.886E-06    0   0.4990   age213_m52            0.0000     1.3206E-05    34.2719  -0.5836   121.9134
 35      0.0000     0.0000E+00    0.0000E+00    1.000000E+06  0.02000  1.544E-02    0   1.0000   age020_m62            0.0000     2.0800E-05    48.4297   3.7406   104.8942
 36      0.0000     0.0000E+00    0.0000E+00    3.160000E+06  0.02000  3.762E-02    0   0.9858   age045_m62            0.0000     2.0716E-05    48.4777   3.6795   105.8111
 37      0.5879     1.6475E-04    3.0527E-04    5.010000E+06  0.02000  3.296E-02    0   0.9342   age055_m62            0.0000     1.9150E-05    46.2459   3.2920   110.5293
 38      0.0000     0.0000E+00    0.0000E+00    8.710000E+06  0.02000  1.154E-02    0   0.8861   age067_m62            0.0000     2.5683E-05    54.7147   2.3510   114.1124
 39      0.0000     0.0000E+00    0.0000E+00    1.445000E+07  0.02000  7.663E-03    0   0.8472   age078_m62            0.0000     2.1838E-05    50.4938   2.5182   114.8777
 40      0.0000     0.0000E+00    0.0000E+00    2.512000E+07  0.02000  4.532E-03    0   0.8099   age090_m62            0.0000     2.2051E-05    50.6357   2.5100   114.5248
 41      0.0000     0.0000E+00    0.0000E+00    5.500000E+07  0.02000  2.733E-03    0   0.7595   age110_m62            0.0000     1.9604E-05    47.2127   2.5026   115.5565
 42      0.0000     0.0000E+00    0.0000E+00    1.609000E+08  0.02000  1.369E-03    0   0.6985   age120_m62            0.0000     1.8306E-05    43.8170   2.3222   119.5557
 43      0.0000     0.0000E+00    0.0000E+00    2.861200E+08  0.02000  9.013E-04    0   0.6714   age125_m62            0.0000     1.7627E-05    41.5513   2.0591   123.5100
 44      0.0000     0.0000E+00    0.0000E+00    5.088000E+08  0.02000  5.028E-04    0   0.6449   age130_m62            0.0000     1.6229E-05    38.6761   1.6608   127.6098
 45      0.0000     0.0000E+00    0.0000E+00    9.047900E+08  0.02000  2.428E-04    0   0.6179   age135_m62            0.0000     1.4474E-05    38.2643   1.0614   127.3479
 46     13.0675     9.5568E-01    1.1199E+00    1.434000E+09  0.02000  1.263E-04    0   0.5908   age139_m62            0.0000     1.3776E-05    38.3009   0.6101   125.7463
 47      0.0000     0.0000E+00    0.0000E+00    2.500000E+09  0.02000  5.985E-05    0   0.5673   age150_m62            0.0000     1.3290E-05    37.2214   0.2275   124.6897
 48     28.2081     7.9656E+00    8.6392E+00    4.250000E+09  0.02000  3.271E-05    0   0.5468   age158_m62            0.0000     1.3045E-05    35.4505  -0.0982   124.4314
 49      0.0000     0.0000E+00    0.0000E+00    1.000000E+10  0.02000  1.360E-05    0   0.5167   age181_m62            0.0000     1.3283E-05    33.5066  -0.4741   124.9308
 50      5.5252     7.1638E+00    7.1231E+00    1.800000E+10  0.02000  7.124E-06    0   0.5013   age213_m62            0.0000     1.3765E-05    32.4386  -0.7070   124.7869
 51      0.0000     0.0000E+00    0.0000E+00    1.000000E+06  0.05000  2.592E-02    0   0.9998   age020_m72            0.0000     2.1078E-05    48.8858   3.7346   104.8347
 52      0.0000     0.0000E+00    0.0000E+00    3.160000E+06  0.05000  4.845E-02    0   0.9577   age045_m72            0.0000     1.9985E-05    47.5809   3.5565   107.4282
 53      0.0000     0.0000E+00    0.0000E+00    5.010000E+06  0.05000  3.072E-02    0   0.9147   age055_m72            0.0000     2.1428E-05    49.8479   3.0894   111.1400
 54      0.0000     0.0000E+00    0.0000E+00    6.610000E+06  0.05000  1.455E-02    0   0.8877   age061_m72            0.0000     2.9621E-05    58.0949   2.3835   114.6805
 55      0.0000     0.0000E+00    0.0000E+00    1.000000E+07  0.05000  9.074E-03    0   0.8524   age070_m72            0.0000     2.2168E-05    50.2982   3.2536   111.0847
 56      0.0000     0.0000E+00    0.0000E+00    2.512000E+07  0.05000  4.250E-03    0   0.7902   age090_m72            0.0000     2.1080E-05    48.9586   2.9608   113.1702
 57      0.0000     0.0000E+00    0.0000E+00    4.000000E+07  0.05000  3.087E-03    0   0.7618   age104_m72            0.0000     2.1100E-05    48.7100   2.7333   114.9865
 58      0.0000     0.0000E+00    0.0000E+00    1.015200E+08  0.05000  1.700E-03    0   0.7096   age116_m72            0.0000     1.9071E-05    45.1360   2.4679   118.8328
 59      0.0000     0.0000E+00    0.0000E+00    2.861200E+08  0.05000  7.384E-04    0   0.6633   age125_m72            0.0000     1.6880E-05    39.9133   1.9143   125.7318
 60      0.0000     0.0000E+00    0.0000E+00    5.088000E+08  0.05000  3.819E-04    0   0.6372   age130_m72            0.0000     1.5098E-05    38.1418   1.4050   128.5184
 61      4.0446     2.2291E-01    2.7014E-01    9.047900E+08  0.05000  1.676E-04    0   0.6110   age135_m72            0.0000     1.3480E-05    36.7289   0.6849   127.2318
 62     17.7324     1.8535E+00    2.1595E+00    1.434000E+09  0.05000  8.837E-05    0   0.5874   age139_m72            0.0000     1.3267E-05    36.5770   0.2198   126.7895
 63      2.9427     6.4213E-01    7.1299E-01    2.500000E+09  0.05000  4.233E-05    0   0.5598   age150_m72            0.0000     1.3121E-05    35.0364  -0.1087   125.9168
 64      1.0667     6.8664E-01    7.1487E-01    6.250000E+09  0.05000  1.435E-05    0   0.5249   age166_m72            0.0000     1.3477E-05    33.4532  -0.5795   124.7262
 65      8.3429     1.1832E+01    1.1819E+01    1.300000E+10  0.05000  6.513E-06    0   0.5036   age193_m72            0.0000     1.4173E-05    32.1560  -0.8854   126.8116
 66     33.2756     6.7895E+01    6.6594E+01    1.800000E+10  0.05000  4.527E-06    0   0.4945   age213_m72            0.0000     1.4845E-05    30.7293  -1.0000   124.9059


## Synthesis Results - Average & Chains ##

# j      x_j: min, <> & last-chain-values for 1 ...  7 chains
  1      0.0000      1.0860      0.6318      0.1354      0.0022      0.5310      0.0191      0.1431      0.5507
  2      0.0000      1.1634      0.0464      0.0000      0.8309      0.6525      0.0957      0.0000      0.1193
  3      0.0000      1.2923      0.7576      0.3937      0.0741      0.0000      0.0869      0.0909      0.0000
  4      0.0000      1.2788      0.4993      0.0504      0.0000      1.0826      0.4304      0.1500      0.0244
  5      0.7215      1.3429      0.1180      0.0428      0.1353      0.3070      0.1819      0.7658      0.4005
  6      0.0000      1.0419      0.1299      0.0000      1.5943      0.5175      0.4859      0.1447      0.3367
  7      0.0000      1.2071      0.0354      0.1888      1.2148      0.5714      0.6613      0.5578      0.2738
  8      0.0000      1.3268      0.2138      0.0000      0.0000      0.0720      0.4152      0.0000      0.0503
  9      0.0000      1.1305      0.2095      0.3765      0.0000      0.0000      0.3540      0.0532      0.3608
 10      0.0000      1.2171      0.5582      0.7790      0.4149      0.0000      0.1948      0.0000      0.5041
 11      6.0893      0.9653      0.8187      0.2952      0.0000      0.0000      0.0000      0.7195      0.0275
 12      0.0000      1.2807      0.0000      0.0000      0.0964      0.0000      0.1750      0.2615      0.2425
 13      0.0000      0.8240      0.2451      0.1729      0.4283      0.5269      0.8437      0.3829      0.3617
 14      4.6609      1.3590      0.0000      0.1159      0.0000      0.3985      0.4819      0.9036      0.3168
 15      0.0000      0.9066      0.9913      0.0000      0.0000      0.4016      0.7338      0.0916      0.0446
 16      0.0000      1.3058      0.2862      0.2395      0.1563      0.0000      0.0616      0.0000      0.0253
 17      0.0000      1.3677      0.0000      0.0000      0.4428      0.0000      0.0000      0.9680      0.0000
 18      0.0000      1.2034      0.2060      0.4619      0.0000      0.1507      0.3532      0.0000      0.4372
 19      0.0000      1.1575      0.2773      0.6834      0.0413      0.2426      0.3038      0.0049      0.1464
 20      0.0000      1.4797      0.4261      0.7163      0.0881      0.3503      0.8039      0.0000      0.1340
 21      0.0000      0.9994      0.0461      0.4169      0.0091      0.0843      0.5557      0.0000      0.2718
 22      0.1112      1.3874      0.0000      0.0125      1.1463      0.5979      0.1075      0.6264      0.0000
 23      0.0000      2.4291      0.0000      0.0000      0.7922      0.0074      0.5180      0.6683      0.8841
 24      0.0000      0.9739      0.0000      0.0940      0.5115      0.5088      0.0000      0.0000      0.1713
 25      0.0000      0.8346      0.2117      0.0000      0.0877      0.4420      0.0000      0.0000      0.0583
 26      0.0000      0.8819      0.2940      0.6758      0.0154      0.0217      0.8538      0.0000      0.0252
 27      0.0000      1.3819      0.4689      0.0000      0.0000      0.0024      0.0000      0.5940      0.0272
 28      0.0000      1.0413      0.1621      0.2180      0.0586      0.1033      1.1582      0.0000      0.0000
 29      0.0000      0.8665      0.0918      0.0253      0.7174      0.1603      0.0000      0.2030      0.3717
 30      0.0000      1.3055      0.0336      0.1275      1.1891      0.0383      0.4964      0.3500      0.0252
 31      0.0000      0.9574      0.4857      0.1982      0.0000      0.4933      0.0000      0.8182      0.0000
 32      0.0000      1.2012      0.2510      0.0000      1.0750      0.3547      0.0838      0.1513      0.0807
 33      0.0000      1.1149      0.1085      0.0561      0.0698      0.5413      0.4662      0.0000      0.0506
 34      0.0000      1.3963      2.2231      2.0071      1.7122      2.3360      1.9650      2.4505      2.0637
 35      0.0000      1.1181      0.0000      0.4053      0.8824      0.2555      0.4530      0.0000      0.0358
 36      0.0000      1.2470      0.3919      0.2849      0.0987      0.3183      0.0000      0.0000      0.1488
 37      0.5879      0.9653      0.0000      0.0000      0.0000      0.0000      0.0000      1.7528      0.1684
 38      0.0000      1.2004      0.2225      0.1966      0.0000      0.1824      0.3964      0.0984      0.1798
 39      0.0000      0.9820      0.2062      0.1825      0.3208      0.0763      0.3550      0.1022      0.3268
 40      0.0000      1.1907      0.2177      0.1076      0.3759      1.5055      0.6086      0.0000      0.0000
 41      0.0000      1.0641      0.1516      1.3799      0.2170      0.0827      0.3217      0.0000      0.0000
 42      0.0000      1.2085      0.1593      0.4097      0.8674      0.1570      0.2385      0.1105      0.0000
 43      0.0000      1.1060      0.0057      0.2030      0.0000      0.3802      0.0140      0.6916      0.0083
 44      0.0000      1.2309      0.1836      0.1222      0.0777      0.0000      1.2331      0.0000      0.0000
 45      0.0000      1.0638      0.2497      1.5948      0.3239      0.1187      0.3958      0.0000      0.5794
 46     13.0675      0.9046      0.4715      0.0284      0.4844      0.2051      0.1919      0.7371      0.7655
 47      0.0000      0.8040      0.4344      0.8714      0.0717      0.3228      0.4535      0.0000      0.0000
 48     28.2081      7.9677     15.5645     15.0519     15.4227     15.3335     14.5753     17.1605     12.1204
 49      0.0000     20.1485     38.6458     40.6895     36.1781     36.1758     37.7918     37.4608     40.1536
 50      5.5252     11.2737     19.9161     19.7516     18.4908     19.8100     19.9792     20.0637     22.6069
 51      0.0000      1.1495      0.2604      0.0000      0.2520      0.3251      0.2589      0.0917      0.3125
 52      0.0000      1.3415      0.0000      0.0000      0.3189      0.0000      0.0000      0.2996      0.3953
 53      0.0000      1.4005      0.2952      0.0000      0.4389      0.0000      0.5902      0.0000      0.0000
 54      0.0000      1.0921      0.0215      0.1280      0.3410      0.6087      1.0680      0.0000      0.0000
 55      0.0000      1.1771      0.2007      0.1707      0.1161      0.0000      0.6759      0.1647      0.0000
 56      0.0000      1.5672      0.7156      0.0000      0.3251      0.2745      0.9420      0.0000      0.2230
 57      0.0000      0.9598      0.1363      0.0000      1.0300      0.0000      0.0000      0.3835      0.0000
 58      0.0000      0.6691      0.0322      0.0000      0.4434      0.2717      0.1651      0.0000      0.0000
 59      0.0000      1.3026      0.2863      0.0000      1.5112      0.1094      0.0000      0.2252      0.0321
 60      0.0000      0.8807      0.1934      0.0000      0.1219      0.4301      0.8065      0.0000      0.4038
 61      4.0446      1.2064      0.9787      1.7887      1.5702      1.6830      1.0915      1.4489      1.3544
 62     17.7324      1.2095      0.0000      0.0368      0.6086      0.0000      0.7400      0.5938      0.1176
 63      2.9427     15.0236     30.3405     27.5166     26.2982     28.9616     25.2234     27.8978     32.0180
 64      1.0667      2.0203      3.6286      4.5832      4.6612      3.9446      3.2630      3.6309      4.1799
 65      8.3429      2.2241      2.6248      3.4322      2.5524      3.2080      2.3162      3.0902      2.9741
 66     33.2756      1.9483      2.5643      2.5202      2.4943      3.7632      2.8800      2.7855      2.3061

# j      m_j: min, <> & last-chain-values for 1 ...  7 chains
  1  0.0000E+00  3.7411E-03  1.3398E-03  2.8149E-04  4.9574E-06  1.1066E-03  4.1701E-05  2.9973E-04  1.1178E-03
  2  0.0000E+00  1.0941E-03  2.6865E-05  0.0000E+00  5.0861E-04  3.7124E-04  5.6921E-05  0.0000E+00  6.6086E-05
  3  0.0000E+00  1.8200E-03  6.5685E-04  3.3468E-04  6.7928E-05  0.0000E+00  7.7437E-05  7.7836E-05  0.0000E+00
  4  0.0000E+00  1.6960E-03  4.0764E-04  4.0384E-05  0.0000E+00  8.6855E-04  3.6107E-04  1.2097E-04  1.9050E-05
  5  8.8607E-04  3.3926E-03  1.8356E-04  6.5325E-05  2.2241E-04  4.6923E-04  2.9065E-04  1.1764E-03  5.9608E-04
  6  0.0000E+00  4.2692E-03  3.2757E-04  0.0000E+00  4.2522E-03  1.2829E-03  1.2595E-03  3.6043E-04  8.1293E-04
  7  0.0000E+00  7.0814E-03  1.2769E-04  6.6845E-04  4.6388E-03  2.0279E-03  2.4542E-03  1.9897E-03  9.4654E-04
  8  0.0000E+00  1.0759E-02  1.0673E-03  0.0000E+00  0.0000E+00  3.5303E-04  2.1297E-03  0.0000E+00  2.4042E-04
  9  0.0000E+00  1.0492E-02  1.1970E-03  2.1095E-03  0.0000E+00  0.0000E+00  2.0783E-03  3.0047E-04  1.9727E-03
 10  0.0000E+00  1.4838E-02  4.1894E-03  5.7328E-03  3.2923E-03  0.0000E+00  1.5023E-03  0.0000E+00  3.6206E-03
 11  6.7856E-02  2.2128E-02  1.1554E-02  4.0847E-03  0.0000E+00  0.0000E+00  0.0000E+00  1.0028E-02  3.7182E-04
 12  0.0000E+00  4.6569E-02  0.0000E+00  0.0000E+00  2.2809E-03  0.0000E+00  4.0249E-03  5.7815E-03  5.1956E-03
 13  0.0000E+00  8.4454E-02  1.5467E-02  1.0700E-02  2.8572E-02  3.2671E-02  5.4700E-02  2.3864E-02  2.1841E-02
 14  7.7889E-01  4.6718E-01  0.0000E+00  2.4048E-02  0.0000E+00  8.2876E-02  1.0479E-01  1.8887E-01  6.4168E-02
 15  0.0000E+00  5.0738E-01  3.4153E-01  0.0000E+00  0.0000E+00  1.3597E-01  2.5977E-01  3.1163E-02  1.4704E-02
 16  0.0000E+00  1.2356E+00  1.6672E-01  1.3682E-01  9.6242E-02  0.0000E+00  3.6859E-02  0.0000E+00  1.4118E-02
 17  0.0000E+00  1.6788E+00  0.0000E+00  0.0000E+00  3.5376E-01  0.0000E+00  0.0000E+00  7.2249E-01  0.0000E+00
 18  0.0000E+00  3.6635E-03  3.8606E-04  8.4875E-04  0.0000E+00  2.7754E-04  6.8011E-04  0.0000E+00  7.8413E-04
 19  0.0000E+00  1.4143E-03  2.0861E-04  5.0405E-04  3.2878E-05  1.7934E-04  2.3483E-04  3.6628E-06  1.0535E-04
 20  0.0000E+00  1.9738E-03  3.4994E-04  5.7677E-04  7.6522E-05  2.8264E-04  6.7826E-04  0.0000E+00  1.0531E-04
 21  0.0000E+00  1.6183E-03  4.5969E-05  4.0749E-04  9.6250E-06  8.2557E-05  5.6911E-04  0.0000E+00  2.5934E-04
 22  1.4797E-04  3.7987E-03  0.0000E+00  2.0732E-05  2.0429E-03  9.9033E-04  1.8611E-04  1.0429E-03  0.0000E+00
 23  0.0000E+00  8.9815E-03  0.0000E+00  0.0000E+00  1.9066E-03  1.6520E-05  1.2115E-03  1.5026E-03  1.9259E-03
 24  0.0000E+00  5.3571E-03  0.0000E+00  3.1217E-04  1.8314E-03  1.6932E-03  0.0000E+00  0.0000E+00  5.5532E-04
 25  0.0000E+00  6.3305E-03  9.8838E-04  0.0000E+00  4.3283E-04  2.0280E-03  0.0000E+00  0.0000E+00  2.6068E-04
 26  0.0000E+00  1.1182E-02  2.2943E-03  5.1722E-03  1.2747E-04  1.6661E-04  6.8474E-03  0.0000E+00  1.8823E-04
 27  0.0000E+00  3.5068E-02  7.3253E-03  0.0000E+00  0.0000E+00  3.6106E-05  0.0000E+00  9.1650E-03  4.0666E-04
 28  0.0000E+00  7.6689E-02  7.3506E-03  9.6938E-03  2.8104E-03  4.6041E-03  5.3956E-02  0.0000E+00  0.0000E+00
 29  0.0000E+00  1.1119E-01  7.2554E-03  1.9631E-03  5.9918E-02  1.2442E-02  0.0000E+00  1.5836E-02  2.8099E-02
 30  0.0000E+00  3.5002E-01  5.5498E-03  2.0629E-02  2.0751E-01  6.2105E-03  8.4178E-02  5.7058E-02  3.9840E-03
 31  0.0000E+00  4.5153E-01  1.4100E-01  5.6415E-02  0.0000E+00  1.4075E-01  0.0000E+00  2.3462E-01  0.0000E+00
 32  0.0000E+00  7.6222E-01  9.8067E-02  0.0000E+00  4.4401E-01  1.3618E-01  3.3636E-02  5.8394E-02  3.0175E-02
 33  0.0000E+00  1.5662E+00  9.3798E-02  4.7551E-02  6.3848E-02  4.6004E-01  4.1428E-01  0.0000E+00  4.1865E-02
 34  0.0000E+00  2.6562E+00  2.6035E+00  2.3048E+00  2.1201E+00  2.6882E+00  2.3644E+00  2.8345E+00  2.3129E+00
 35  0.0000E+00  2.7292E-03  0.0000E+00  5.9724E-04  1.4019E-03  3.7732E-04  6.9945E-04  0.0000E+00  5.1444E-05
 36  0.0000E+00  1.2314E-03  2.3828E-04  1.6984E-04  6.3423E-05  1.9014E-04  0.0000E+00  0.0000E+00  8.6586E-05
 37  3.0527E-04  1.0311E-03  0.0000E+00  0.0000E+00  0.0000E+00  0.0000E+00  0.0000E+00  1.1385E-03  1.0600E-04
 38  0.0000E+00  3.4739E-03  3.9641E-04  3.4345E-04  0.0000E+00  3.1925E-04  7.2569E-04  1.7309E-04  3.0650E-04
 39  0.0000E+00  4.0914E-03  5.2884E-04  4.5913E-04  8.7003E-04  1.9220E-04  9.3556E-04  2.5902E-04  8.0216E-04
 40  0.0000E+00  8.0195E-03  9.0268E-04  4.3730E-04  1.6477E-03  6.1341E-03  2.5929E-03  0.0000E+00  0.0000E+00
 41  0.0000E+00  1.1145E-02  9.7741E-04  8.7239E-03  1.4795E-03  5.2429E-04  2.1313E-03  0.0000E+00  0.0000E+00
 42  0.0000E+00  2.3238E-02  1.8860E-03  4.7552E-03  1.0856E-02  1.8264E-03  2.9005E-03  1.2917E-03  0.0000E+00
 43  0.0000E+00  3.1050E-02  9.8630E-05  3.4404E-03  0.0000E+00  6.4577E-03  2.4877E-04  1.1807E-02  1.3656E-04
 44  0.0000E+00  5.9500E-02  5.4651E-03  3.5664E-03  2.4445E-03  0.0000E+00  3.7705E-02  0.0000E+00  0.0000E+00
 45  0.0000E+00  1.0203E-01  1.4742E-02  9.2335E-02  2.0223E-02  6.8863E-03  2.4014E-02  0.0000E+00  3.2739E-02
 46  1.1199E+00  1.5947E-01  5.1167E-02  3.0194E-03  5.5585E-02  2.1873E-02  2.1396E-02  7.9014E-02  7.9507E-02
 47  0.0000E+00  2.8719E-01  9.5525E-02  1.8791E-01  1.6682E-02  6.9755E-02  1.0248E-01  0.0000E+00  0.0000E+00
 48  8.6392E+00  5.0197E+00  6.0366E+00  5.7243E+00  6.3244E+00  5.8439E+00  5.8084E+00  6.5738E+00  4.4988E+00
 49  0.0000E+00  2.8850E+01  3.4065E+01  3.5169E+01  3.3717E+01  3.1335E+01  3.4229E+01  3.2615E+01  3.3873E+01
 50  7.1231E+00  2.9898E+01  3.2515E+01  3.1620E+01  3.1918E+01  3.1782E+01  3.3516E+01  3.2354E+01  3.5322E+01
 51  0.0000E+00  1.6711E-03  2.3300E-04  0.0000E+00  2.3844E-04  2.8586E-04  2.3810E-04  8.1053E-05  2.6768E-04
 52  0.0000E+00  9.9936E-04  0.0000E+00  0.0000E+00  1.5464E-04  0.0000E+00  0.0000E+00  1.3572E-04  1.7348E-04
 53  0.0000E+00  1.5716E-03  2.0394E-04  0.0000E+00  3.2059E-04  0.0000E+00  4.1895E-04  0.0000E+00  0.0000E+00
 54  0.0000E+00  2.5111E-03  3.0434E-05  1.7767E-04  5.1041E-04  8.4663E-04  1.5534E-03  0.0000E+00  0.0000E+00
 55  0.0000E+00  4.1674E-03  4.3739E-04  3.6481E-04  2.6759E-04  0.0000E+00  1.5137E-03  3.5449E-04  0.0000E+00
 56  0.0000E+00  1.0982E-02  3.0870E-03  0.0000E+00  1.4826E-03  1.1634E-03  4.1754E-03  0.0000E+00  9.2078E-04
 57  0.0000E+00  8.9261E-03  7.8053E-04  0.0000E+00  6.2350E-03  0.0000E+00  0.0000E+00  2.1686E-03  0.0000E+00
 58  0.0000E+00  1.0526E-02  3.1203E-04  0.0000E+00  4.5406E-03  2.5857E-03  1.6432E-03  0.0000E+00  0.0000E+00
 59  0.0000E+00  4.4099E-02  5.9663E-03  0.0000E+00  3.3300E-02  2.2414E-03  0.0000E+00  4.6367E-03  6.3959E-04
 60  0.0000E+00  5.5380E-02  7.4856E-03  0.0000E+00  4.9900E-03  1.6360E-02  3.2081E-02  0.0000E+00  1.4961E-02
 61  2.7014E-01  1.6575E-01  8.2781E-02  1.4835E-01  1.4042E-01  1.3988E-01  9.4863E-02  1.2104E-01  1.0963E-01
 62  2.1595E+00  3.0300E-01  0.0000E+00  5.5681E-03  9.9232E-02  0.0000E+00  1.1726E-01  9.0456E-02  1.7354E-02
 63  7.1299E-01  7.4878E+00  9.3093E+00  8.2787E+00  8.5314E+00  8.7322E+00  7.9521E+00  8.4546E+00  9.4019E+00
 64  7.1487E-01  2.7851E+00  3.0795E+00  3.8140E+00  4.1824E+00  3.2897E+00  2.8454E+00  3.0436E+00  3.3949E+00
 65  1.1819E+01  6.4811E+00  4.7089E+00  6.0375E+00  4.8413E+00  5.6553E+00  4.2694E+00  5.4755E+00  5.1061E+00
 66  6.6594E+01  8.0205E+00  6.4989E+00  6.2628E+00  6.6837E+00  9.3719E+00  7.4996E+00  6.9726E+00  5.5932E+00

# AV, chi2 & Mass for <> & i_chain = 1 ...  7 solutions
AV      -0.2885     -0.3427     -0.3515     -0.3603     -0.2686     -0.3409     -0.2798     -0.3589     -0.3883
chi2 1.2976E-05  3.1857E-05  1.3256E-05  1.3249E-05  1.3265E-05  1.3268E-05  1.3272E-05  1.3240E-05  1.3252E-05
Mass 3.9387E-13  1.7801E-13  2.8577E-13  2.8803E-13  3.0209E-13  2.9498E-13  3.0625E-13  2.8647E-13  2.8421E-13
-419.17                                  [v0_min (km/s) before EX0s...]
 420.75                                  [vd_min (km/s) before EX0s...]


## Synthetic spectrum (Best Model) ##l_obs f_obs f_syn wei
 3478    [Nl_obs]
 3741.00    0.71706   0.52618    0.000
 3742.00    0.88855   0.52829    0.000
 3743.00    0.90295   0.53210    0.000
 3744.00    0.77647   0.53920    0.000
 3745.00    0.56790   0.54784    0.029
 3746.00    0.45754   0.55888    0.028
 3747.00    0.39706   0.57034    0.026
 3748.00    0.26212   0.58175    0.026
 3749.00    0.09443   0.59279    0.026
 3750.00    0.43322   0.60203    0.026
 3751.00    0.96322   0.60974    0.027
 3752.00    1.02180   0.61471    0.027
 3753.00    0.92930   0.61838    0.026
 3754.00    0.83960   0.62018    0.025
 3755.00    0.75065   0.62122    0.025
 3756.00    0.85841   0.62166    0.025
 3757.00    1.00934   0.62248    0.025
 3758.00    0.87807   0.62467    0.025
 3759.00    0.69754   0.62805    0.026
 3760.00    0.26882   0.63306    0.036
 3761.00   -0.19288   0.63925    0.000
 3762.00   -0.11006   0.64731    0.000
 3763.00    0.02393   0.65648    0.024
 3764.00    0.50224   0.66785    0.024
 3765.00    1.00042   0.67990    0.025
 3766.00    1.09978   0.69326    0.027
 3767.00    1.18788   0.70737    0.031
 3768.00    1.05821   0.72204    0.029
 3769.00    0.92403   0.73603    0.027
 3770.00    0.68011   0.74961    0.025
 3771.00    0.46547   0.76190    0.023
 3772.00    0.63450   0.77241    0.024
 3773.00    0.79115   0.78040    0.025
 3774.00    0.83905   0.78556    0.024
 3775.00    0.86148   0.78777    0.023
 3776.00    0.71871   0.78650    0.024
 3777.00    0.59296   0.78189    0.024
 3778.00    0.55333   0.77376    0.023
 3779.00    0.50897   0.76287    0.023
 3780.00    0.44528   0.74914    0.023
 3781.00    0.37478   0.73321    0.023
 3782.00    0.28119   0.71643    0.023
 3783.00    0.26191   0.69856    0.023
 3784.00    0.45513   0.68163    0.024
 3785.00    0.58769   0.66436    0.024
 3786.00    0.57203   0.64979    0.024
 3787.00    0.44806   0.63686    0.025
 3788.00    0.09579   0.62687    0.025
 3789.00   -0.08054   0.61985    0.000
 3790.00    0.06539   0.61601    0.024
 3791.00    0.19713   0.61575    0.023
 3792.00    0.30614   0.61832    0.024
 3793.00    0.34880   0.62465    0.023
 3794.00    0.29825   0.63348    0.023
 3795.00    0.35120   0.64507    0.023
 3796.00    0.53207   0.65799    0.023
 3797.00    0.64737   0.67126    0.024
 3798.00    0.69124   0.68485    0.025
 3799.00    0.52968   0.69686    0.025
 3800.00    0.17070   0.70744    0.024
 3801.00    0.04644   0.71478    0.024
 3802.00    0.12106   0.71954    0.024
 3803.00    0.30010   0.72068    0.025
 3804.00    0.55705   0.71848    0.026
 3805.00    0.76607   0.71338    0.026
 3806.00    0.94366   0.70514    0.026
 3807.00    0.82589   0.69550    0.025
 3808.00    0.53863   0.68373    0.023
 3809.00    0.44072   0.67092    0.023
 3810.00    0.43745   0.65669    0.023
 3811.00    0.46696   0.64217    0.025
 3812.00    0.51064   0.62728    0.027
 3813.00    0.81435   0.61285    0.026
 3814.00    1.21449   0.59906    0.025
 3815.00    1.14056   0.58555    0.024
 3816.00    0.91760   0.57320    0.023
 3817.00    0.55946   0.56081    0.023
 3818.00    0.16586   0.54867    0.022
 3819.00    0.10401   0.53665    0.022
 3820.00    0.11323   0.52549    0.021
 3821.00    0.33200   0.51503    0.022
 3822.00    0.58632   0.50521    0.023
 3823.00    0.68979   0.49569    0.024
 3824.00    0.77389   0.48720    0.025
 3825.00    0.45519   0.48010    0.023
 3826.00    0.10033   0.47471    0.022
 3827.00    0.07911   0.47122    0.022
 3828.00    0.07581   0.47042    0.022
 3829.00    0.30589   0.47166    0.024
 3830.00    0.53938   0.47607    0.025
 3831.00    0.66517   0.48253    0.025
 3832.00    0.78031   0.49240    0.025
 3833.00    0.65858   0.50473    0.025
 3834.00    0.54902   0.51955    0.024
 3835.00    0.59076   0.53599    0.024
 3836.00    0.66952   0.55320    0.025
 3837.00    1.06115   0.57095    0.032
 3838.00    1.38491   0.58810    0.041
 3839.00    1.28175   0.60462    0.032
 3840.00    1.18708   0.61918    0.027
 3841.00    1.13431   0.63235    0.026
 3842.00    1.11490   0.64251    0.025
 3843.00    1.22911   0.65055    0.027
 3844.00    1.21763   0.65572    0.028
 3845.00    0.78832   0.65873    0.027
 3846.00    0.45632   0.65986    0.026
 3847.00    0.39761   0.65965    0.000
 3848.00    0.27603   0.65825    0.000
 3849.00    0.00344   0.65646    0.000
 3850.00   -0.20336   0.65510    0.000
 3851.00   -0.27371   0.65381    0.000
 3852.00   -0.26838   0.65320    0.000
 3853.00   -0.12652   0.65305    0.000
 3854.00    0.07482   0.65413    0.000
 3855.00    0.36995   0.65574    0.000
 3856.00    0.52203   0.65822    0.000
 3857.00    0.47606   0.66109    0.000
 3858.00    0.46344   0.66318    0.000
 3859.00    0.49147   0.66572    0.000
 3860.00    0.59034   0.66735    0.000
 3861.00    0.76529   0.66889    0.000
 3862.00    0.82016   0.66933    0.000
 3863.00    0.76125   0.66886    0.000
 3864.00    0.67567   0.66730    0.000
 3865.00    0.56780   0.66504    0.000
 3866.00    0.72309   0.66241    0.000
 3867.00    1.07194   0.65971    0.000
 3868.00    1.30340   0.65724    0.000
 3869.00    1.45904   0.65382    0.000
 3870.00    1.20858   0.65042    0.000
 3871.00    0.72862   0.64677    0.000
 3872.00    0.62293   0.64379    0.000
 3873.00    0.70135   0.63971    0.000
 3874.00    0.64965   0.63557    0.000
 3875.00    0.54261   0.63118    0.000
 3876.00    0.36133   0.62725    0.000
 3877.00    0.15300   0.62359    0.000
 3878.00    0.33672   0.62201    0.000
 3879.00    0.64131   0.62256    0.000
 3880.00    0.55381   0.62466    0.000
 3881.00    0.36567   0.62854    0.023
 3882.00    0.47823   0.63490    0.023
 3883.00    0.65366   0.64304    0.024
 3884.00    0.52545   0.65311    0.024
 3885.00    0.34717   0.66473    0.024
 3886.00    0.37659   0.67711    0.024
 3887.00    0.43173   0.69059    0.024
 3888.00    0.29216   0.70331    0.024
 3889.00    0.13593   0.71748    0.024
 3890.00    0.13980   0.72922    0.024
 3891.00    0.15166   0.74038    0.024
 3892.00    0.00204   0.75021    0.024
 3893.00   -0.14454   0.75800    0.000
 3894.00    0.07504   0.76568    0.024
 3895.00    0.30145   0.77248    0.023
 3896.00    0.66761   0.78049    0.024
 3897.00    1.01275   0.78762    0.024
 3898.00    1.10931   0.79548    0.023
 3899.00    1.18601   0.80378    0.023
 3900.00    1.10086   0.81248    0.023
 3901.00    1.05056   0.82150    0.022
 3902.00    1.21305   0.82932    0.022
 3903.00    1.32114   0.83776    0.022
 3904.00    1.16743   0.84366    0.020
 3905.00    1.01008   0.84871    0.019
 3906.00    0.83848   0.85166    0.019
 3907.00    0.71233   0.85192    0.020
 3908.00    0.73439   0.84922    0.020
 3909.00    0.70966   0.84287    0.020
 3910.00    0.55597   0.83398    0.021
 3911.00    0.50414   0.82148    0.021
 3912.00    0.69288   0.80756    0.021
 3913.00    0.83098   0.78979    0.022
 3914.00    0.86575   0.77127    0.022
 3915.00    0.71366   0.74940    0.023
 3916.00    0.22966   0.72592    0.023
 3917.00    0.00719   0.70111    0.023
 3918.00    0.19109   0.67379    0.023
 3919.00    0.25643   0.64634    0.023
 3920.00    0.15997   0.61726    0.023
 3921.00   -0.00324   0.58925    0.000
 3922.00   -0.24666   0.56133    0.000
 3923.00   -0.16890   0.53552    0.000
 3924.00    0.24900   0.51247    0.024
 3925.00    0.52759   0.49265    0.024
 3926.00    0.67603   0.47842    0.025
 3927.00    0.64975   0.46901    0.025
 3928.00    0.47958   0.46624    0.025
 3929.00    0.34507   0.46935    0.025
 3930.00    0.23641   0.47849    0.025
 3931.00    0.40312   0.49267    0.025
 3932.00    0.74507   0.51148    0.026
 3933.00    0.64184   0.53428    0.026
 3934.00    0.29084   0.55959    0.025
 3935.00    0.32213   0.58774    0.025
 3936.00    0.53847   0.61699    0.025
 3937.00    0.83519   0.64570    0.025
 3938.00    1.16552   0.67333    0.025
 3939.00    0.74962   0.70028    0.025
 3940.00    0.06680   0.72531    0.024
 3941.00    0.29285   0.74831    0.024
 3942.00    0.79363   0.76785    0.025
 3943.00    1.07505   0.78461    0.025
 3944.00    1.30139   0.79973    0.026
 3945.00    1.07307   0.81063    0.025
 3946.00    0.75205   0.81617    0.025
 3947.00    0.82870   0.81766    0.025
 3948.00    0.96903   0.81524    0.025
 3949.00    1.32849   0.80814    0.026
 3950.00    1.71410   0.79562    0.026
 3951.00    1.26324   0.77697    0.026
 3952.00    0.74426   0.75445    0.025
 3953.00    0.66827   0.72940    0.024
 3954.00    0.61265   0.70069    0.024
 3955.00    0.64044   0.66924    0.024
 3956.00    0.66261   0.63669    0.024
 3957.00    0.33522   0.60461    0.024
 3958.00    0.02848   0.57443    0.024
 3959.00    0.11268   0.54774    0.024
 3960.00    0.20528   0.52554    0.000
 3961.00    0.39249   0.50985    0.000
 3962.00    0.58643   0.50164    0.000
 3963.00    0.83328   0.50084    0.000
 3964.00    1.01115   0.50793    0.000
 3965.00    0.77969   0.52281    0.000
 3966.00    0.50754   0.54427    0.000
 3967.00    0.04437   0.57203    0.000
 3968.00   -0.25427   0.60548    0.000
 3969.00    0.07758   0.64256    0.000
 3970.00    0.35131   0.68246    0.000
 3971.00    0.43924   0.72215    0.000
 3972.00    0.59064   0.76127    0.000
 3973.00    0.91393   0.79911    0.000
 3974.00    1.13893   0.83441    0.000
 3975.00    1.13567   0.86767    0.000
 3976.00    1.04786   0.89718    0.000
 3977.00    0.79023   0.92381    0.000
 3978.00    0.57182   0.94831    0.000
 3979.00    0.42200   0.96842    0.000
 3980.00    0.45259   0.98636    0.000
 3981.00    0.75939   1.00166    0.027
 3982.00    1.16310   1.01516    0.027
 3983.00    1.69716   1.02767    0.027
 3984.00    1.79968   1.03764    0.027
 3985.00    1.39116   1.04724    0.027
 3986.00    1.16266   1.05392    0.026
 3987.00    1.12216   1.06080    0.026
 3988.00    1.21203   1.06583    0.026
 3989.00    1.42196   1.07106    0.026
 3990.00    1.44580   1.07683    0.026
 3991.00    1.31854   1.08125    0.026
 3992.00    1.13617   1.08666    0.026
 3993.00    0.91441   1.09047    0.025
 3994.00    0.99165   1.09411    0.025
 3995.00    1.25636   1.09614    0.025
 3996.00    1.25238   1.09904    0.025
 3997.00    1.10115   1.10199    0.025
 3998.00    1.16150   1.10657    0.025
 3999.00    1.32263   1.11222    0.025
 4000.00    1.39484   1.11713    0.025
 4001.00    1.43050   1.12320    0.025
 4002.00    1.35412   1.12893    0.025
 4003.00    1.23838   1.13595    0.025
 4004.00    1.24237   1.14189    0.025
 4005.00    1.28183   1.15003    0.025
 4006.00    1.25213   1.15863    0.025
 4007.00    1.20544   1.16640    0.024
 4008.00    1.23334   1.17453    0.024
 4009.00    1.27608   1.18087    0.024
 4010.00    1.14532   1.18657    0.024
 4011.00    0.98761   1.19130    0.023
 4012.00    0.91095   1.19456    0.023
 4013.00    0.84362   1.19582    0.023
 4014.00    0.74257   1.19550    0.023
 4015.00    0.63892   1.19457    0.023
 4016.00    0.42060   1.19125    0.023
 4017.00    0.19745   1.18699    0.023
 4018.00    0.71500   1.18304    0.024
 4019.00    1.23695   1.17698    0.024
 4020.00    1.65534   1.16922    0.025
 4021.00    2.03733   1.16073    0.025
 4022.00    1.77741   1.15091    0.025
 4023.00    1.50849   1.14115    0.025
 4024.00    1.14272   1.13425    0.024
 4025.00    0.83431   1.12851    0.024
 4026.00    0.96128   1.12535    0.024
 4027.00    1.04870   1.12375    0.024
 4028.00    0.90792   1.12356    0.024
 4029.00    0.78455   1.12396    0.024
 4030.00    0.74093   1.12470    0.024
 4031.00    0.71667   1.12647    0.024
 4032.00    0.76505   1.12766    0.024
 4033.00    0.80159   1.12898    0.024
 4034.00    0.80104   1.13025    0.024
 4035.00    0.86182   1.12940    0.024
 4036.00    1.08577   1.12636    0.024
 4037.00    1.30572   1.12238    0.024
 4038.00    1.51653   1.11855    0.025
 4039.00    1.53691   1.11810    0.025
 4040.00    1.18079   1.11741    0.025
 4041.00    0.95889   1.11715    0.025
 4042.00    0.96822   1.11768    0.025
 4043.00    1.14612   1.11777    0.025
 4044.00    1.57829   1.11754    0.026
 4045.00    1.53035   1.11728    0.026
 4046.00    0.84598   1.11833    0.026
 4047.00    0.71301   1.11746    0.026
 4048.00    1.22380   1.11658    0.027
 4049.00    1.32007   1.11332    0.026
 4050.00    0.98959   1.10843    0.025
 4051.00    1.00000   1.10381    0.025
 4052.00    1.31996   1.09890    0.026
 4053.00    1.45794   1.09322    0.026
 4054.00    1.45026   1.08571    0.026
 4055.00    1.22605   1.07906    0.026
 4056.00    0.84936   1.07359    0.025
 4057.00    0.82957   1.07258    0.025
 4058.00    1.03025   1.07197    0.026
 4059.00    1.19117   1.07092    0.026
 4060.00    1.33064   1.07206    0.026
 4061.00    1.17548   1.07353    0.026
 4062.00    0.88225   1.07375    0.025
 4063.00    0.98696   1.07244    0.025
 4064.00    1.25245   1.07454    0.025
 4065.00    1.04066   1.08023    0.025
 4066.00    0.66432   1.08430    0.024
 4067.00    0.75155   1.08738    0.024
 4068.00    0.97340   1.08956    0.024
 4069.00    1.13272   1.09162    0.024
 4070.00    1.27702   1.09626    0.025
 4071.00    1.43354   1.10374    0.025
 4072.00    1.59243   1.11425    0.025
 4073.00    1.65567   1.12619    0.025
 4074.00    1.70449   1.13660    0.024
 4075.00    1.25819   1.14557    0.024
 4076.00    0.75714   1.15560    0.023
 4077.00    0.80307   1.16621    0.023
 4078.00    0.88906   1.17783    0.023
 4079.00    1.18411   1.18915    0.024
 4080.00    1.48718   1.19830    0.024
 4081.00    1.11808   1.20367    0.024
 4082.00    0.75896   1.20410    0.024
 4083.00    0.91607   1.20270    0.024
 4084.00    1.07420   1.19707    0.024
 4085.00    1.24922   1.18943    0.024
 4086.00    1.40528   1.18012    0.024
 4087.00    1.36618   1.16526    0.024
 4088.00    1.30977   1.14913    0.024
 4089.00    1.12632   1.13159    0.024
 4090.00    0.94265   1.11409    0.023
 4091.00    0.75771   1.09735    0.024
 4092.00    0.68322   1.08086    0.000
 4093.00    1.10301   1.06623    0.000
 4094.00    1.37711   1.05466    0.000
 4095.00    1.11619   1.04833    0.000
 4096.00    0.88143   1.04542    0.000
 4097.00    0.72709   1.04620    0.000
 4098.00    0.60715   1.05167    0.000
 4099.00    0.57709   1.05796    0.000
 4100.00    0.68953   1.06620    0.000
 4101.00    1.12200   1.07618    0.000
 4102.00    1.34991   1.08756    0.000
 4103.00    1.17980   1.09917    0.000
 4104.00    0.97772   1.11025    0.000
 4105.00    0.72139   1.12273    0.000
 4106.00    0.75162   1.13243    0.000
 4107.00    1.20783   1.14080    0.000
 4108.00    1.41830   1.14776    0.000
 4109.00    1.30766   1.15315    0.000
 4110.00    1.29384   1.15666    0.000
 4111.00    1.39144   1.15814    0.000
 4112.00    1.36032   1.16101    0.000
 4113.00    1.19851   1.16126    0.025
 4114.00    1.35116   1.16096    0.025
 4115.00    1.78535   1.15937    0.025
 4116.00    1.77786   1.15730    0.025
 4117.00    1.42191   1.15426    0.025
 4118.00    1.21409   1.14970    0.025
 4119.00    1.10906   1.14586    0.025
 4120.00    1.02893   1.14108    0.025
 4121.00    0.96395   1.13729    0.025
 4122.00    0.95015   1.13277    0.025
 4123.00    0.96353   1.12973    0.025
 4124.00    1.01192   1.12537    0.025
 4125.00    1.07644   1.12334    0.025
 4126.00    1.14230   1.12154    0.025
 4127.00    1.20868   1.12078    0.025
 4128.00    1.17213   1.12234    0.024
 4129.00    1.10075   1.12132    0.024
 4130.00    1.01053   1.12330    0.024
 4131.00    0.91495   1.12278    0.024
 4132.00    0.90507   1.12344    0.024
 4133.00    0.91531   1.12375    0.023
 4134.00    0.94417   1.12096    0.023
 4135.00    0.97656   1.11829    0.023
 4136.00    1.05955   1.11381    0.024
 4137.00    1.14993   1.11137    0.024
 4138.00    0.98292   1.10919    0.024
 4139.00    0.78854   1.10678    0.024
 4140.00    1.00036   1.10532    0.024
 4141.00    1.24028   1.10141    0.024
 4142.00    1.14310   1.09857    0.023
 4143.00    1.03430   1.09798    0.023
 4144.00    1.12132   1.09838    0.023
 4145.00    1.19526   1.10162    0.024
 4146.00    0.82464   1.10332    0.023
 4147.00    0.49415   1.10733    0.023
 4148.00    0.78437   1.11031    0.023
 4149.00    1.04805   1.11431    0.023
 4150.00    1.05012   1.12167    0.023
 4151.00    1.04707   1.12706    0.023
 4152.00    1.00769   1.13456    0.023
 4153.00    0.98865   1.13977    0.023
 4154.00    1.08062   1.14541    0.023
 4155.00    1.15983   1.15016    0.023
 4156.00    1.18332   1.15271    0.023
 4157.00    1.13857   1.15523    0.022
 4158.00    0.84841   1.15388    0.022
 4159.00    0.68881   1.15000    0.022
 4160.00    0.92318   1.14538    0.022
 4161.00    1.12682   1.14014    0.022
 4162.00    1.25154   1.13384    0.022
 4163.00    1.34694   1.12665    0.023
 4164.00    1.37755   1.11726    0.023
 4165.00    1.49574   1.10858    0.023
 4166.00    1.78167   1.10019    0.023
 4167.00    1.82228   1.09393    0.023
 4168.00    1.45287   1.09095    0.023
 4169.00    1.26670   1.08753    0.023
 4170.00    1.34896   1.08653    0.022
 4171.00    1.27964   1.08562    0.022
 4172.00    1.01511   1.08723    0.022
 4173.00    0.86173   1.09093    0.023
 4174.00    0.83446   1.09383    0.023
 4175.00    0.96731   1.09945    0.023
 4176.00    1.26040   1.10419    0.023
 4177.00    1.38798   1.11075    0.024
 4178.00    1.36946   1.11581    0.024
 4179.00    1.37881   1.12007    0.024
 4180.00    1.40984   1.12562    0.023
 4181.00    1.26764   1.12695    0.023
 4182.00    1.00698   1.12971    0.023
 4183.00    0.83400   1.13111    0.023
 4184.00    0.71358   1.13226    0.023
 4185.00    0.84954   1.13133    0.023
 4186.00    1.11959   1.12764    0.023
 4187.00    1.13633   1.12675    0.023
 4188.00    1.03815   1.12238    0.023
 4189.00    0.89753   1.11731    0.023
 4190.00    0.74034   1.11296    0.023
 4191.00    0.84082   1.11016    0.023
 4192.00    1.02688   1.10936    0.023
 4193.00    1.01671   1.10830    0.023
 4194.00    0.95185   1.11006    0.024
 4195.00    1.25400   1.11297    0.024
 4196.00    1.64036   1.11617    0.024
 4197.00    1.43977   1.12221    0.024
 4198.00    1.13132   1.13090    0.024
 4199.00    1.16125   1.14064    0.023
 4200.00    1.23902   1.15023    0.023
 4201.00    1.09208   1.15807    0.023
 4202.00    0.92222   1.16490    0.023
 4203.00    1.04222   1.17184    0.023
 4204.00    1.18111   1.17900    0.023
 4205.00    1.16143   1.18582    0.023
 4206.00    1.13708   1.19081    0.023
 4207.00    1.25108   1.19218    0.023
 4208.00    1.36128   1.19256    0.023
 4209.00    1.36016   1.19004    0.023
 4210.00    1.37674   1.18746    0.023
 4211.00    1.65101   1.18655    0.024
 4212.00    1.87115   1.18075    0.024
 4213.00    1.57943   1.17165    0.023
 4214.00    1.32885   1.15957    0.023
 4215.00    1.36107   1.15047    0.023
 4216.00    1.37180   1.14135    0.023
 4217.00    1.26834   1.13058    0.023
 4218.00    1.14498   1.12160    0.022
 4219.00    0.93659   1.11120    0.022
 4220.00    0.78614   1.10312    0.022
 4221.00    0.83984   1.09888    0.022
 4222.00    0.84745   1.10116    0.022
 4223.00    0.71855   1.10650    0.022
 4224.00    0.67697   1.11133    0.022
 4225.00    0.85575   1.11778    0.022
 4226.00    1.01652   1.12587    0.022
 4227.00    1.13812   1.13531    0.021
 4228.00    1.24240   1.14883    0.021
 4229.00    1.31401   1.16221    0.022
 4230.00    1.33539   1.17267    0.022
 4231.00    1.27407   1.18559    0.021
 4232.00    1.16527   1.19534    0.021
 4233.00    0.98790   1.20511    0.020
 4234.00    1.04428   1.21401    0.020
 4235.00    1.39744   1.22112    0.020
 4236.00    1.49106   1.22784    0.020
 4237.00    1.29428   1.22844    0.020
 4238.00    1.09360   1.23169    0.020
 4239.00    0.88906   1.23253    0.020
 4240.00    0.94003   1.22847    0.020
 4241.00    1.21335   1.22343    0.020
 4242.00    1.34951   1.21545    0.020
 4243.00    1.38051   1.21140    0.020
 4244.00    1.33377   1.20554    0.020
 4245.00    1.23464   1.19949    0.021
 4246.00    1.24095   1.19795    0.021
 4247.00    1.30952   1.19260    0.022
 4248.00    1.17867   1.18796    0.022
 4249.00    0.94515   1.18685    0.022
 4250.00    0.99823   1.19063    0.022
 4251.00    1.17918   1.19872    0.022
 4252.00    1.16308   1.20104    0.022
 4253.00    1.07143   1.20234    0.021
 4254.00    1.03263   1.20464    0.021
 4255.00    1.01106   1.20865    0.020
 4256.00    1.07966   1.21551    0.021
 4257.00    1.17288   1.21841    0.021
 4258.00    1.26731   1.21730    0.021
 4259.00    1.36200   1.21294    0.021
 4260.00    1.24858   1.20838    0.021
 4261.00    1.09793   1.20143    0.021
 4262.00    0.95016   1.19453    0.021
 4263.00    0.80279   1.18802    0.021
 4264.00    1.05370   1.17924    0.021
 4265.00    1.34352   1.17134    0.021
 4266.00    1.46256   1.16425    0.021
 4267.00    1.57115   1.16353    0.021
 4268.00    1.15366   1.16272    0.021
 4269.00    0.72320   1.16002    0.020
 4270.00    0.53373   1.16466    0.020
 4271.00    0.36334   1.16905    0.020
 4272.00    0.69718   1.17369    0.020
 4273.00    1.01838   1.17774    0.021
 4274.00    1.16587   1.17581    0.021
 4275.00    1.30257   1.17879    0.022
 4276.00    1.34120   1.17911    0.022
 4277.00    1.32904   1.17640    0.022
 4278.00    0.97855   1.17353    0.022
 4279.00    0.73246   1.16412    0.021
 4280.00    1.02689   1.15766    0.022
 4281.00    1.22681   1.15008    0.022
 4282.00    1.03219   1.14225   -2.000
 4283.00    0.84614   1.12967   -2.000
 4284.00    0.68964   1.11533   -2.000
 4285.00    0.62100   1.10741   -2.000
 4286.00    0.80776   1.09702   -2.000
 4287.00    0.93486   1.08743   -2.000
 4288.00    0.91400   1.07058   -2.000
 4289.00    1.02502   1.05456   -2.000
 4290.00    1.41795   1.04451   -2.000
 4291.00    1.51014   1.02960   -2.000
 4292.00    1.04396   1.01647   -2.000
 4293.00    0.71855   1.00099   -2.000
 4294.00    0.62143   0.98640   -2.000
 4295.00    0.76434   0.97893   -2.000
 4296.00    1.24872   0.96998   -2.000
 4297.00    1.41126   0.96367   -2.000
 4298.00    1.17102   0.96443    0.023
 4299.00    1.05657   0.96665    0.022
 4300.00    1.08089   0.97532    0.022
 4301.00    1.05288   0.98681    0.022
 4302.00    0.97394   1.00110    0.022
 4303.00    0.85908   1.02350    0.022
 4304.00    0.71339   1.04871    0.022
 4305.00    0.84743   1.07969    0.022
 4306.00    1.19284   1.11007    0.022
 4307.00    1.24448   1.13802    0.022
 4308.00    1.10103   1.16617    0.022
 4309.00    0.92969   1.19300    0.022
 4310.00    0.74212   1.22163    0.022
 4311.00    0.98998   1.24611    0.022
 4312.00    1.45851   1.26072    0.022
 4313.00    1.44310   1.27070    0.022
 4314.00    1.21532   1.27701    0.022
 4315.00    1.27116   1.28116    0.022
 4316.00    1.43383   1.28969    0.022
 4317.00    1.33911   1.29191    0.022
 4318.00    1.16210   1.29017    0.022
 4319.00    1.05908   1.28614    0.022
 4320.00    0.97582   1.28278    0.022
 4321.00    1.18567   1.28940    0.022
 4322.00    1.45967   1.29393    0.022
 4323.00    1.22114   1.29619    0.021
 4324.00    0.89345   1.29451    0.021
 4325.00    1.10428   1.29154    0.022
 4326.00    1.38633   1.29051    0.022
 4327.00    1.43787   1.28694    0.022
 4328.00    1.46787   1.28375    0.021
 4329.00    1.54989   1.27714    0.022
 4330.00    1.63489   1.26950    0.000
 4331.00    1.40471   1.26135    0.000
 4332.00    1.17004   1.25346    0.000
 4333.00    1.26375   1.24903    0.000
 4334.00    1.35310   1.24606    0.000
 4335.00    1.33788   1.24540    0.000
 4336.00    1.29736   1.24817    0.000
 4337.00    0.92757   1.25377    0.000
 4338.00    0.63658   1.26166    0.000
 4339.00    1.03403   1.27120    0.000
 4340.00    1.33636   1.27762    0.000
 4341.00    1.02431   1.28558    0.000
 4342.00    0.83053   1.29891    0.000
 4343.00    1.23344   1.31199    0.000
 4344.00    1.49846   1.32238    0.000
 4345.00    1.20064   1.32870    0.000
 4346.00    0.97660   1.33635    0.000
 4347.00    1.00220   1.34697    0.000
 4348.00    1.02661   1.35681    0.000
 4349.00    1.04764   1.36734    0.000
 4350.00    1.09307   1.37837    0.000
 4351.00    1.19797   1.38822    0.022
 4352.00    1.30787   1.39561    0.022
 4353.00    1.42828   1.40407    0.022
 4354.00    1.48637   1.41466    0.022
 4355.00    1.43050   1.42367    0.022
 4356.00    1.40472   1.42829    0.021
 4357.00    1.42705   1.42862    0.022
 4358.00    1.57209   1.43013    0.022
 4359.00    1.88918   1.43022    0.021
 4360.00    1.87967   1.42791    0.021
 4361.00    1.46719   1.42305    0.021
 4362.00    1.22657   1.41360    0.021
 4363.00    1.17286   1.40363    0.021
 4364.00    1.28080   1.39184    0.021
 4365.00    1.54381   1.38182    0.021
 4366.00    1.67184   1.37239    0.021
 4367.00    1.68570   1.35768    0.021
 4368.00    1.51527   1.34173    0.021
 4369.00    1.20758   1.32581    0.021
 4370.00    1.06435   1.31463    0.021
 4371.00    1.02874   1.30356    0.021
 4372.00    1.05509   1.28644    0.021
 4373.00    1.11694   1.27035    0.021
 4374.00    1.32627   1.25696    0.021
 4375.00    1.60915   1.25007    0.021
 4376.00    1.54036   1.24364    0.021
 4377.00    1.31980   1.23354    0.020
 4378.00    1.08709   1.22727    0.020
 4379.00    0.84988   1.22449    0.020
 4380.00    0.93715   1.23023    0.020
 4381.00    1.12617   1.23875    0.020
 4382.00    1.13395   1.24461    0.020
 4383.00    1.09432   1.25211    0.020
 4384.00    1.14862   1.25872    0.020
 4385.00    1.22299   1.27226    0.020
 4386.00    1.29891   1.28908    0.020
 4387.00    1.37510   1.29975    0.019
 4388.00    1.50289   1.30731    0.020
 4389.00    1.63728   1.30964    0.020
 4390.00    1.51822   1.31609    0.020
 4391.00    1.37653   1.32616    0.020
 4392.00    1.06904   1.32808    0.020
 4393.00    0.75272   1.32559    0.020
 4394.00    1.19384   1.31992    0.020
 4395.00    1.64493   1.31842    0.020
 4396.00    1.70159   1.32186    0.020
 4397.00    1.74948   1.32080    0.020
 4398.00    1.60465   1.31743    0.020
 4399.00    1.46179   1.31538    0.020
 4400.00    1.34321   1.31862    0.020
 4401.00    1.21879   1.32575    0.020
 4402.00    1.04538   1.33262    0.020
 4403.00    0.90356   1.33769    0.020
 4404.00    0.95971   1.34311    0.020
 4405.00    1.02601   1.35284    0.020
 4406.00    1.14226   1.36217    0.020
 4407.00    1.25321   1.37250    0.020
 4408.00    1.34301   1.38084    0.020
 4409.00    1.41704   1.38556    0.020
 4410.00    1.43881   1.39383    0.020
 4411.00    1.43139   1.39841    0.020
 4412.00    1.34221   1.40433    0.020
 4413.00    1.28948   1.41086    0.020
 4414.00    1.32416   1.41123    0.020
 4415.00    1.38769   1.41503    0.020
 4416.00    1.51094   1.41457    0.020
 4417.00    1.58866   1.41508    0.020
 4418.00    1.58441   1.41868    0.020
 4419.00    1.55927   1.41473    0.020
 4420.00    1.50125   1.41500    0.019
 4421.00    1.41591   1.41306    0.019
 4422.00    1.29281   1.41113    0.020
 4423.00    1.29588   1.41377    0.020
 4424.00    1.45240   1.40873    0.020
 4425.00    1.57050   1.40872    0.020
 4426.00    1.64738   1.41019    0.019
 4427.00    1.66408   1.41045    0.019
 4428.00    1.62386   1.41571    0.019
 4429.00    1.56857   1.41557    0.020
 4430.00    1.50071   1.41850    0.020
 4431.00    1.65124   1.42420    0.020
 4432.00    1.96208   1.42842    0.020
 4433.00    1.91517   1.43542    0.020
 4434.00    1.63759   1.44024    0.020
 4435.00    1.30287   1.44523    0.020
 4436.00    0.93591   1.44929    0.020
 4437.00    0.99402   1.45347    0.020
 4438.00    1.26079   1.45682    0.020
 4439.00    1.27678   1.45805    0.020
 4440.00    1.18635   1.45934    0.020
 4441.00    1.01350   1.45491    0.020
 4442.00    0.81071   1.45179    0.020
 4443.00    1.04115   1.44672    0.020
 4444.00    1.40482   1.43713    0.020
 4445.00    1.32468   1.42972    0.020
 4446.00    1.13092   1.41788    0.020
 4447.00    1.29207   1.40787    0.020
 4448.00    1.52720   1.39813    0.020
 4449.00    1.52340   1.38654    0.020
 4450.00    1.48035   1.37825    0.020
 4451.00    1.39806   1.37065    0.020
 4452.00    1.31095   1.36737    0.020
 4453.00    1.38450   1.36490    0.020
 4454.00    1.47173   1.36579    0.019
 4455.00    1.35326   1.36859    0.019
 4456.00    1.22463   1.37240    0.019
 4457.00    1.29388   1.38296    0.019
 4458.00    1.36784   1.39209    0.019
 4459.00    1.53998   1.40450    0.019
 4460.00    1.69812   1.41711    0.019
 4461.00    1.57288   1.42799    0.000
 4462.00    1.44663   1.44486    0.000
 4463.00    1.30856   1.45891    0.000
 4464.00    1.16957   1.47276    0.000
 4465.00    1.02299   1.48573    0.000
 4466.00    0.91022   1.49537    0.000
 4467.00    1.00321   1.50827    0.000
 4468.00    1.13211   1.51828    0.000
 4469.00    1.43335   1.52557    0.000
 4470.00    1.66492   1.53129    0.000
 4471.00    1.62443   1.53400    0.000
 4472.00    1.59811   1.53900    0.000
 4473.00    1.61791   1.54173    0.000
 4474.00    1.65314   1.54174    0.000
 4475.00    1.73082   1.54099    0.000
 4476.00    1.75134   1.53883    0.000
 4477.00    1.63712   1.53967    0.000
 4478.00    1.54497   1.53900    0.000
 4479.00    1.49774   1.53629    0.000
 4480.00    1.47377   1.53323    0.000
 4481.00    1.49101   1.53085    0.000
 4482.00    1.47766   1.53105    0.019
 4483.00    1.41683   1.53030    0.019
 4484.00    1.49783   1.53012    0.019
 4485.00    1.77196   1.52911    0.019
 4486.00    1.83018   1.53129    0.019
 4487.00    1.62948   1.53563    0.019
 4488.00    1.48012   1.53926    0.019
 4489.00    1.38504   1.54810    0.019
 4490.00    1.41589   1.55495    0.019
 4491.00    1.56418   1.56474    0.019
 4492.00    1.59188   1.57637    0.019
 4493.00    1.52044   1.58540    0.019
 4494.00    1.47985   1.60056    0.019
 4495.00    1.46157   1.61133    0.019
 4496.00    1.39398   1.62148    0.019
 4497.00    1.29505   1.63338    0.019
 4498.00    1.32078   1.63917    0.019
 4499.00    1.41576   1.64758    0.019
 4500.00    1.48155   1.65195    0.019
 4501.00    1.53325   1.65295    0.019
 4502.00    1.62645   1.65676    0.019
 4503.00    1.73696   1.65308    0.019
 4504.00    1.78092   1.64886    0.019
 4505.00    1.80112   1.64594    0.019
 4506.00    1.92991   1.63844    0.019
 4507.00    2.09144   1.63455    0.019
 4508.00    1.88626   1.62514    0.019
 4509.00    1.58924   1.61268    0.019
 4510.00    1.64606   1.60760    0.019
 4511.00    1.77482   1.59622    0.019
 4512.00    1.74731   1.58559    0.019
 4513.00    1.69487   1.57423    0.018
 4514.00    1.70143   1.55684    0.019
 4515.00    1.71501   1.54838    0.019
 4516.00    1.48812   1.53467    0.019
 4517.00    1.24178   1.51763    0.019
 4518.00    1.19053   1.50758    0.019
 4519.00    1.14816   1.49158    0.018
 4520.00    1.37568   1.48083    0.019
 4521.00    1.60378   1.47138    0.019
 4522.00    1.69245   1.45893    0.019
 4523.00    1.77647   1.45957    0.019
 4524.00    1.77314   1.45638    0.019
 4525.00    1.75139   1.45221    0.019
 4526.00    1.52315   1.45498    0.019
 4527.00    1.34190   1.45579    0.019
 4528.00    1.52827   1.46796    0.019
 4529.00    1.67980   1.47757    0.019
 4530.00    1.62541   1.47958    0.019
 4531.00    1.56380   1.48870    0.019
 4532.00    1.46836   1.49610    0.019
 4533.00    1.39371   1.50683    0.019
 4534.00    1.39853   1.51634    0.019
 4535.00    1.40089   1.51533    0.019
 4536.00    1.39542   1.51967    0.019
 4537.00    1.41344   1.52658    0.019
 4538.00    1.49495   1.52832    0.019
 4539.00    1.52506   1.53096    0.019
 4540.00    1.43607   1.52792    0.019
 4541.00    1.50996   1.52726    0.019
 4542.00    1.91036   1.53507    0.019
 4543.00    2.05957   1.53561    0.019
 4544.00    1.77025   1.53633    0.019
 4545.00    1.57916   1.53974    0.019
 4546.00    1.53818   1.54129    0.018
 4547.00    1.56446   1.55073    0.018
 4548.00    1.68103   1.55862    0.018
 4549.00    1.71480   1.56169    0.018
 4550.00    1.65071   1.56978    0.000
 4551.00    1.62417   1.57552    0.000
 4552.00    1.63678   1.58239    0.000
 4553.00    1.71531   1.59374    0.000
 4554.00    1.85444   1.59662    0.000
 4555.00    1.79664   1.60022    0.000
 4556.00    1.57922   1.60692    0.000
 4557.00    1.53022   1.60774    0.000
 4558.00    1.60133   1.61436    0.000
 4559.00    1.64799   1.61814    0.000
 4560.00    1.67936   1.61627    0.000
 4561.00    1.54759   1.62064    0.000
 4562.00    1.32659   1.61749    0.000
 4563.00    1.43040   1.61582    0.000
 4564.00    1.68861   1.62151    0.000
 4565.00    1.76252   1.61707    0.000
 4566.00    1.76085   1.61339    0.000
 4567.00    1.80134   1.61065    0.000
 4568.00    1.85661   1.60567    0.000
 4569.00    1.89083   1.60536    0.000
 4570.00    1.91882   1.59863    0.000
 4571.00    1.77360   1.58999    0.000
 4572.00    1.58596   1.58687    0.000
 4573.00    1.48051   1.58445    0.000
 4574.00    1.39135   1.58062    0.000
 4575.00    1.33935   1.57517    0.000
 4576.00    1.29310   1.57144    0.000
 4577.00    1.44909   1.56868    0.000
 4578.00    1.62822   1.56844    0.000
 4579.00    1.44429   1.56893    0.000
 4580.00    1.23249   1.56749    0.000
 4581.00    1.41173   1.56762    0.000
 4582.00    1.60724   1.56647    0.000
 4583.00    1.56557   1.56422    0.000
 4584.00    1.52174   1.56592    0.000
 4585.00    1.47391   1.56684    0.000
 4586.00    1.43404   1.56391    0.000
 4587.00    1.53324   1.56440    0.000
 4588.00    1.62436   1.56365    0.000
 4589.00    1.62912   1.56304    0.000
 4590.00    1.62353   1.56783    0.000
 4591.00    1.53962   1.56526    0.000
 4592.00    1.47780   1.56738    0.000
 4593.00    1.54294   1.57507    0.000
 4594.00    1.59583   1.57719    0.000
 4595.00    1.59276   1.58630    0.000
 4596.00    1.57937   1.59075    0.000
 4597.00    1.52735   1.59596    0.000
 4598.00    1.48926   1.60999    0.000
 4599.00    1.49475   1.61721    0.000
 4600.00    1.47419   1.62838    0.000
 4601.00    1.38448   1.63793    0.000
 4602.00    1.33008   1.64219    0.000
 4603.00    1.35612   1.65501    0.000
 4604.00    1.41796   1.66175    0.000
 4605.00    1.55043   1.66742    0.000
 4606.00    1.62417   1.67766    0.000
 4607.00    1.59691   1.67868    0.000
 4608.00    1.59433   1.68443    0.000
 4609.00    1.62890   1.69007    0.000
 4610.00    1.62583   1.68758    0.000
 4611.00    1.57297   1.69242    0.000
 4612.00    1.49178   1.69479    0.000
 4613.00    1.37758   1.69294    0.000
 4614.00    1.41898   1.69567    0.000
 4615.00    1.62029   1.69278    0.000
 4616.00    1.78136   1.68983    0.000
 4617.00    1.90596   1.69024    0.000
 4618.00    1.89913   1.68622    0.000
 4619.00    1.78730   1.68412    0.000
 4620.00    1.72334   1.67956    0.000
 4621.00    1.69302   1.67179    0.000
 4622.00    1.66869   1.66950    0.000
 4623.00    1.64806   1.66315    0.000
 4624.00    1.57855   1.65435    0.000
 4625.00    1.48272   1.64693    0.000
 4626.00    1.52783   1.63719    0.000
 4627.00    1.63886   1.63222    0.000
 4628.00    1.73267   1.62275    0.000
 4629.00    1.81954   1.60943    0.000
 4630.00    1.85216   1.60261    0.000
 4631.00    1.86612   1.59228    0.000
 4632.00    1.83680   1.58452    0.000
 4633.00    1.79494   1.57820    0.000
 4634.00    1.82980   1.56623    0.000
 4635.00    1.88303   1.56135    0.000
 4636.00    1.75347   1.55663    0.000
 4637.00    1.58860   1.54834    0.000
 4638.00    1.47645   1.54715    0.000
 4639.00    1.37221   1.54427    0.000
 4640.00    1.38128   1.54277    0.000
 4641.00    1.40283   1.54780    0.000
 4642.00    1.51819   1.54667    0.000
 4643.00    1.64037   1.54902    0.000
 4644.00    1.56735   1.55681    0.000
 4645.00    1.48696   1.55899    0.000
 4646.00    1.65443   1.56546    0.000
 4647.00    1.81463   1.57166    0.000
 4648.00    1.65887   1.57523    0.000
 4649.00    1.51337   1.58271    0.000
 4650.00    1.53562   1.58337    0.000
 4651.00    1.55461   1.58322    0.000
 4652.00    1.54025   1.58550    0.000
 4653.00    1.51405   1.58294    0.000
 4654.00    1.40127   1.58037    0.000
 4655.00    1.34141   1.57617    0.000
 4656.00    1.57742   1.57159    0.000
 4657.00    1.77792   1.56648    0.000
 4658.00    1.82001   1.55741    0.000
 4659.00    1.84188   1.55205    0.000
 4660.00    1.78970   1.54915    0.000
 4661.00    1.77140   1.54623    0.000
 4662.00    1.85707   1.54442    0.000
 4663.00    1.88668   1.54032    0.000
 4664.00    1.77014   1.54107    0.000
 4665.00    1.69029   1.54473    0.000
 4666.00    1.69271   1.54555    0.000
 4667.00    1.66982   1.55009    0.000
 4668.00    1.59776   1.55385    0.000
 4669.00    1.56483   1.55570    0.000
 4670.00    1.59820   1.55885    0.000
 4671.00    1.61906   1.56090    0.000
 4672.00    1.62138   1.56480    0.000
 4673.00    1.59798   1.56739    0.000
 4674.00    1.54104   1.56842    0.000
 4675.00    1.47149   1.57034    0.000
 4676.00    1.38747   1.57087    0.000
 4677.00    1.41331   1.57220    0.000
 4678.00    1.55048   1.57215    0.000
 4679.00    1.63268   1.57268    0.000
 4680.00    1.66575   1.57567    0.000
 4681.00    1.65985   1.57441    0.000
 4682.00    1.62326   1.57356    0.000
 4683.00    1.60085   1.57431    0.000
 4684.00    1.58827   1.57260    0.000
 4685.00    1.61165   1.57255    0.000
 4686.00    1.65686   1.56995    0.000
 4687.00    1.67809   1.56609    0.000
 4688.00    1.68659   1.56598    0.000
 4689.00    1.67727   1.56152    0.000
 4690.00    1.65973   1.55581    0.000
 4691.00    1.55884   1.55316    0.000
 4692.00    1.42493   1.54987    0.000
 4693.00    1.44506   1.54739    0.000
 4694.00    1.51721   1.54169    0.000
 4695.00    1.48402   1.53670    0.000
 4696.00    1.42093   1.53869    0.000
 4697.00    1.44532   1.53716    0.000
 4698.00    1.49018   1.53495    0.000
 4699.00    1.49936   1.53836    0.000
 4700.00    1.50182   1.54132    0.000
 4701.00    1.45333   1.54707    0.000
 4702.00    1.39742   1.55187    0.000
 4703.00    1.46509   1.55488    0.000
 4704.00    1.54583   1.56671    0.000
 4705.00    1.75133   1.57474    0.000
 4706.00    1.96539   1.58055    0.000
 4707.00    1.81901   1.59436    0.000
 4708.00    1.66036   1.60344    0.000
 4709.00    1.64751   1.61213    0.000
 4710.00    1.63421   1.61974    0.000
 4711.00    1.59933   1.62343    0.000
 4712.00    1.56925   1.63399    0.000
 4713.00    1.61276   1.63921    0.000
 4714.00    1.65393   1.63882    0.000
 4715.00    1.67215   1.64157    0.000
 4716.00    1.70008   1.63981    0.000
 4717.00    1.79669   1.63801    0.000
 4718.00    1.86450   1.63425    0.000
 4719.00    1.77558   1.62643    0.000
 4720.00    1.66057   1.62506    0.000
 4721.00    1.43182   1.62196    0.000
 4722.00    1.28052   1.61517    0.000
 4723.00    1.40707   1.61336    0.000
 4724.00    1.53276   1.60772    0.000
 4725.00    1.65588   1.60429    0.000
 4726.00    1.74397   1.60984    0.000
 4727.00    1.74230   1.60915    0.000
 4728.00    1.73894   1.61062    0.000
 4729.00    1.73185   1.61723    0.000
 4730.00    1.72980   1.61917    0.000
 4731.00    1.73737   1.62799    0.000
 4732.00    1.71125   1.63296    0.000
 4733.00    1.62890   1.63196    0.000
 4734.00    1.55391   1.64426    0.000
 4735.00    1.48968   1.65234    0.000
 4736.00    1.49719   1.65178    0.000
 4737.00    1.59694   1.65695    0.000
 4738.00    1.60378   1.66075    0.000
 4739.00    1.50536   1.66406    0.000
 4740.00    1.52513   1.66554    0.000
 4741.00    1.66297   1.66162    0.000
 4742.00    1.70557   1.66200    0.000
 4743.00    1.66424   1.66321    0.000
 4744.00    1.73245   1.65735    0.000
 4745.00    1.88568   1.65214    0.000
 4746.00    1.88835   1.64921    0.000
 4747.00    1.78825   1.64358    0.000
 4748.00    1.74892   1.63797    0.000
 4749.00    1.74596   1.63125    0.000
 4750.00    1.62703   1.62242    0.000
 4751.00    1.44757   1.61767    0.000
 4752.00    1.51530   1.61234    0.000
 4753.00    1.69491   1.60460    0.000
 4754.00    1.80530   1.59993    0.000
 4755.00    1.88874   1.59673    0.000
 4756.00    1.94038   1.59417    0.000
 4757.00    1.98149   1.59314    0.000
 4758.00    1.92742   1.59149    0.000
 4759.00    1.84689   1.59162    0.000
 4760.00    1.71703   1.59516    0.000
 4761.00    1.57588   1.59753    0.017
 4762.00    1.53496   1.60226    0.017
 4763.00    1.51239   1.60979    0.017
 4764.00    1.54506   1.61367    0.017
 4765.00    1.58552   1.62119    0.017
 4766.00    1.54229   1.62942    0.017
 4767.00    1.49056   1.63177    0.016
 4768.00    1.58759   1.63540    0.017
 4769.00    1.69423   1.63993    0.017
 4770.00    1.68670   1.64490    0.017
 4771.00    1.67586   1.64521    0.017
 4772.00    1.73566   1.64319    0.017
 4773.00    1.79005   1.64735    0.017
 4774.00    1.68772   1.64539    0.017
 4775.00    1.59342   1.64190    0.016
 4776.00    1.61521   1.64246    0.017
 4777.00    1.63805   1.63985    0.017
 4778.00    1.67072   1.64149    0.017
 4779.00    1.67800   1.63986    0.018
 4780.00    1.51141   1.63837    0.039
 4781.00    1.41945   1.64637   -1.000
 4782.00    1.72285   1.64618   -1.000
 4783.00    1.99674   1.64720   -1.000
 4784.00    2.14497   1.65573   -1.000
 4785.00    2.24095   1.65683   -1.000
 4786.00    2.15330   1.66055   -1.000
 4787.00    2.04558   1.66674   -1.000
 4788.00    1.87860   1.66836   -1.000
 4789.00    1.72619   1.67299    0.111
 4790.00    1.61044   1.67677    0.025
 4791.00    1.58288   1.67859    0.016
 4792.00    1.74659   1.67935    0.017
 4793.00    1.86012   1.67733    0.017
 4794.00    1.87921   1.67850    0.017
 4795.00    1.87966   1.67804    0.016
 4796.00    1.84948   1.67494    0.017
 4797.00    1.79358   1.67601    0.017
 4798.00    1.70061   1.67623    0.016
 4799.00    1.62861   1.67631    0.017
 4800.00    1.58318   1.67567    0.017
 4801.00    1.52970   1.67289    0.017
 4802.00    1.46722   1.67617    0.016
 4803.00    1.57774   1.67792    0.016
 4804.00    1.85868   1.67710    0.016
 4805.00    1.88225   1.68062    0.016
 4806.00    1.68224   1.68346    0.016
 4807.00    1.65032   1.68630    0.016
 4808.00    1.74705   1.68635    0.016
 4809.00    1.79495   1.68614    0.016
 4810.00    1.81002   1.69022    0.016
 4811.00    1.76036   1.68800    0.016
 4812.00    1.67254   1.68654    0.016
 4813.00    1.64035   1.68751    0.016
 4814.00    1.63675   1.68320    0.016
 4815.00    1.74001   1.68321    0.016
 4816.00    1.89084   1.67851    0.016
 4817.00    1.87654   1.67087    0.016
 4818.00    1.79906   1.67277    0.016
 4819.00    1.71982   1.66635    0.016
 4820.00    1.64002   1.65813    0.017
 4821.00    1.63207   1.65929    0.016
 4822.00    1.64370   1.65573    0.016
 4823.00    1.74855   1.65251    0.016
 4824.00    1.87422   1.64928    0.016
 4825.00    1.76053   1.64302    0.016
 4826.00    1.60418   1.64487    0.016
 4827.00    1.53484   1.64362    0.016
 4828.00    1.47735   1.63531    0.016
 4829.00    1.55277   1.63584    0.016
 4830.00    1.64109   1.63790    0.016
 4831.00    1.61044   1.63348    0.016
 4832.00    1.57257   1.63068    0.016
 4833.00    1.61037   1.62835    0.016
 4834.00    1.64984   1.62620    0.015
 4835.00    1.63119   1.62537    0.016
 4836.00    1.61150   1.61797    0.016
 4837.00    1.56470   1.61341    0.016
 4838.00    1.51904   1.61457    0.015
 4839.00    1.48893   1.60510    0.016
 4840.00    1.47560   1.59489    0.016
 4841.00    1.61394   1.59067    0.016
 4842.00    1.72633   1.58082    0.016
 4843.00    1.66648   1.56937    0.015
 4844.00    1.62823   1.55670    0.015
 4845.00    1.70140   1.54064    0.015
 4846.00    1.74201   1.52792    0.016
 4847.00    1.64711   1.51481    0.016
 4848.00    1.57798   1.49735    0.000
 4849.00    1.59755   1.48271    0.000
 4850.00    1.60266   1.47199    0.000
 4851.00    1.56579   1.45706    0.000
 4852.00    1.54777   1.44432    0.000
 4853.00    1.57639   1.43846    0.000
 4854.00    1.60044   1.43059    0.000
 4855.00    1.61473   1.42605    0.000
 4856.00    1.63465   1.42438    0.000
 4857.00    1.66503   1.41988    0.000
 4858.00    1.69079   1.42528    0.000
 4859.00    1.70909   1.43427    0.000
 4860.00    1.71223   1.43581    0.000
 4861.00    1.69384   1.44371    0.000
 4862.00    1.67340   1.45606    0.000
 4863.00    1.65038   1.46291    0.000
 4864.00    1.58048   1.47125    0.000
 4865.00    1.45896   1.48271    0.000
 4866.00    1.36145   1.49279    0.000
 4867.00    1.28725   1.50122    0.000
 4868.00    1.30114   1.50847    0.000
 4869.00    1.39048   1.51946    0.000
 4870.00    1.36590   1.52922    0.000
 4871.00    1.25538   1.53116    0.000
 4872.00    1.23343   1.53832    0.000
 4873.00    1.27019   1.54623    0.000
 4874.00    1.44085   1.54553    0.000
 4875.00    1.68923   1.54927    0.015
 4876.00    1.75613   1.55340    0.015
 4877.00    1.73124   1.55435    0.015
 4878.00    1.65271   1.55673    0.015
 4879.00    1.55070   1.55938    0.015
 4880.00    1.57234   1.56629    0.015
 4881.00    1.64046   1.56938    0.015
 4882.00    1.59702   1.57300    0.015
 4883.00    1.51798   1.58525    0.015
 4884.00    1.53571   1.58962    0.015
 4885.00    1.57924   1.59789    0.015
 4886.00    1.67728   1.61328    0.015
 4887.00    1.78723   1.61751    0.015
 4888.00    1.70475   1.62892    0.015
 4889.00    1.58892   1.64237    0.015
 4890.00    1.58466   1.64598    0.015
 4891.00    1.59511   1.65720    0.015
 4892.00    1.58915   1.66303    0.015
 4893.00    1.58166   1.66183    0.015
 4894.00    1.59254   1.66987    0.016
 4895.00    1.60446   1.67017    0.016
 4896.00    1.54523   1.66492    0.016
 4897.00    1.48569   1.66723    0.016
 4898.00    1.56855   1.66486    0.016
 4899.00    1.64889   1.65927    0.016
 4900.00    1.66934   1.65434    0.016
 4901.00    1.69235   1.64782    0.016
 4902.00    1.74835   1.64278    0.016
 4903.00    1.78481   1.63373    0.016
 4904.00    1.65131   1.62440    0.016
 4905.00    1.54830   1.61930    0.016
 4906.00    1.64148   1.60949    0.016
 4907.00    1.73038   1.60044    0.016
 4908.00    1.79773   1.59655    0.016
 4909.00    1.82756   1.58886    0.016
 4910.00    1.70469   1.58219    0.016
 4911.00    1.60899   1.57961    0.016
 4912.00    1.60497   1.57483    0.016
 4913.00    1.58707   1.57323    0.016
 4914.00    1.52965   1.57476    0.016
 4915.00    1.49298   1.57482    0.016
 4916.00    1.50679   1.58004    0.016
 4917.00    1.55861   1.58564    0.016
 4918.00    1.69023   1.58885    0.016
 4919.00    1.72928   1.60017    0.016
 4920.00    1.59942   1.60606    0.016
 4921.00    1.55519   1.60676    0.016
 4922.00    1.64753   1.62009    0.016
 4923.00    1.68960   1.62470    0.016
 4924.00    1.66131   1.62277    0.016
 4925.00    1.67804   1.63437    0.016
 4926.00    1.75023   1.63515    0.016
 4927.00    1.75095   1.63145    0.016
 4928.00    1.67408   1.64148    0.016
 4929.00    1.68150   1.64198    0.015
 4930.00    1.76963   1.64071    0.016
 4931.00    1.76784   1.64856    0.016
 4932.00    1.69012   1.64906    0.015
 4933.00    1.57113   1.65371    0.015
 4934.00    1.42146   1.66333    0.015
 4935.00    1.39214   1.66345    0.015
 4936.00    1.44142   1.66905    0.015
 4937.00    1.55579   1.67998    0.015
 4938.00    1.70736   1.68086    0.015
 4939.00    1.72381   1.68125    0.015
 4940.00    1.67298   1.68781    0.000
 4941.00    1.65843   1.68945    0.000
 4942.00    1.65951   1.68580    0.000
 4943.00    1.71098   1.68552    0.000
 4944.00    1.78105   1.68365    0.000
 4945.00    1.77135   1.67772    0.000
 4946.00    1.73670   1.67349    0.000
 4947.00    1.80375   1.66526    0.000
 4948.00    1.89734   1.65916    0.000
 4949.00    1.87537   1.65760    0.000
 4950.00    1.82879   1.64448    0.000
 4951.00    1.72721   1.63741    0.000
 4952.00    1.61635   1.64080    0.000
 4953.00    1.49917   1.63325    0.000
 4954.00    1.38118   1.62828    0.000
 4955.00    1.47024   1.62871    0.000
 4956.00    1.57766   1.62746    0.000
 4957.00    1.51760   1.62792    0.000
 4958.00    1.44870   1.62380    0.000
 4959.00    1.47637   1.62439    0.000
 4960.00    1.50696   1.62773    0.000
 4961.00    1.62160   1.62268    0.000
 4962.00    1.73108   1.62348    0.000
 4963.00    1.72821   1.62437    0.000
 4964.00    1.72255   1.61937    0.000
 4965.00    1.68260   1.61858    0.000
 4966.00    1.64932   1.61431    0.000
 4967.00    1.67186   1.60948    0.000
 4968.00    1.69735   1.60567    0.000
 4969.00    1.74135   1.59618    0.000
 4970.00    1.77394   1.59048    0.000
 4971.00    1.75057   1.58507    0.000
 4972.00    1.74314   1.57369    0.000
 4973.00    1.79918   1.56800    0.000
 4974.00    1.81320   1.56592    0.000
 4975.00    1.68822   1.55580    0.000
 4976.00    1.57717   1.54995    0.000
 4977.00    1.50507   1.55373    0.000
 4978.00    1.47031   1.54866    0.000
 4979.00    1.52485   1.54554    0.000
 4980.00    1.55672   1.55292    0.000
 4981.00    1.54177   1.55004    0.000
 4982.00    1.54988   1.55056    0.000
 4983.00    1.59945   1.55686    0.000
 4984.00    1.66561   1.55106    0.000
 4985.00    1.75785   1.55478    0.000
 4986.00    1.76500   1.55810    0.000
 4987.00    1.65479   1.54805    0.000
 4988.00    1.53315   1.55117    0.000
 4989.00    1.39763   1.54939    0.000
 4990.00    1.39580   1.53719    0.000
 4991.00    1.53709   1.53739    0.000
 4992.00    1.66107   1.53032    0.000
 4993.00    1.76871   1.51749    0.000
 4994.00    1.78123   1.51516    0.000
 4995.00    1.71457   1.50704    0.000
 4996.00    1.67016   1.49574    0.000
 4997.00    1.64206   1.49208    0.000
 4998.00    1.60102   1.48542    0.000
 4999.00    1.55166   1.47446    0.000
 5000.00    1.48855   1.47052    0.000
 5001.00    1.41772   1.46907    0.000
 5002.00    1.42127   1.46178    0.000
 5003.00    1.46126   1.45815    0.000
 5004.00    1.52649   1.45720    0.000
 5005.00    1.60239   1.45256    0.000
 5006.00    1.75072   1.45234    0.000
 5007.00    1.92530   1.45198    0.000
 5008.00    1.80406   1.45129    0.000
 5009.00    1.59207   1.45618    0.000
 5010.00    1.62607   1.45876    0.000
 5011.00    1.72288   1.46039    0.000
 5012.00    1.75676   1.46571    0.000
 5013.00    1.77756   1.47334    0.000
 5014.00    1.70274   1.47920    0.000
 5015.00    1.61227   1.48260    0.000
 5016.00    1.61934   1.49320    0.000
 5017.00    1.63838   1.50069    0.000
 5018.00    1.57244   1.50324    0.000
 5019.00    1.49932   1.51532    0.000
 5020.00    1.68238   1.51913    0.000
 5021.00    1.87795   1.51991    0.000
 5022.00    1.72173   1.53060    0.000
 5023.00    1.56506   1.53062    0.000
 5024.00    1.71359   1.53134    0.000
 5025.00    1.84353   1.53547    0.000
 5026.00    1.60079   1.53032    0.000
 5027.00    1.39034   1.53336    0.000
 5028.00    1.55713   1.53144    0.000
 5029.00    1.70373   1.52232    0.015
 5030.00    1.68734   1.52762    0.015
 5031.00    1.68642   1.52362    0.015
 5032.00    1.77928   1.51737    0.015
 5033.00    1.83765   1.52480    0.015
 5034.00    1.73109   1.51983    0.015
 5035.00    1.62512   1.51878    0.015
 5036.00    1.52151   1.53001    0.015
 5037.00    1.46395   1.52920    0.015
 5038.00    1.55580   1.53120    0.014
 5039.00    1.62596   1.54121    0.014
 5040.00    1.63657   1.54517    0.014
 5041.00    1.64787   1.54983    0.014
 5042.00    1.66077   1.55726    0.014
 5043.00    1.68684   1.56374    0.014
 5044.00    1.73968   1.57090    0.014
 5045.00    1.73032   1.57754    0.014
 5046.00    1.61088   1.58299    0.014
 5047.00    1.58236   1.58931    0.014
 5048.00    1.69460   1.59539    0.014
 5049.00    1.73398   1.59763    0.014
 5050.00    1.67433   1.60113    0.014
 5051.00    1.62378   1.60498    0.014
 5052.00    1.58414   1.60296    0.014
 5053.00    1.57429   1.60379    0.014
 5054.00    1.59588   1.60349    0.014
 5055.00    1.61764   1.59613    0.014
 5056.00    1.63958   1.59497    0.014
 5057.00    1.62389   1.59215    0.014
 5058.00    1.57733   1.58117    0.014
 5059.00    1.60384   1.57683    0.014
 5060.00    1.68314   1.57402    0.014
 5061.00    1.73123   1.56439    0.014
 5062.00    1.75954   1.55609    0.014
 5063.00    1.70448   1.55174    0.014
 5064.00    1.60322   1.54645    0.014
 5065.00    1.59934   1.53811    0.014
 5066.00    1.64243   1.53090    0.014
 5067.00    1.65939   1.52841    0.014
 5068.00    1.66547   1.52459    0.014
 5069.00    1.69457   1.51644    0.014
 5070.00    1.73186   1.51346    0.014
 5071.00    1.64510   1.51495    0.014
 5072.00    1.52103   1.51145    0.014
 5073.00    1.51996   1.50923    0.014
 5074.00    1.54962   1.51319    0.014
 5075.00    1.45426   1.51541    0.014
 5076.00    1.33357   1.51686    0.014
 5077.00    1.46030   1.52168    0.014
 5078.00    1.62635   1.52624    0.014
 5079.00    1.64705   1.53081    0.014
 5080.00    1.65055   1.53583    0.014
 5081.00    1.66214   1.53973    0.014
 5082.00    1.67437   1.54423    0.014
 5083.00    1.53073   1.54771    0.014
 5084.00    1.38008   1.54981    0.014
 5085.00    1.42373   1.55140    0.014
 5086.00    1.46948   1.55058    0.014
 5087.00    1.50525   1.55077    0.014
 5088.00    1.53669   1.54952    0.014
 5089.00    1.48745   1.54432    0.014
 5090.00    1.45060   1.54366    0.014
 5091.00    1.55178   1.54154    0.014
 5092.00    1.64168   1.53596    0.014
 5093.00    1.64370   1.53544    0.014
 5094.00    1.63345   1.53092    0.014
 5095.00    1.55091   1.52718    0.014
 5096.00    1.50569   1.52994    0.014
 5097.00    1.63459   1.52407    0.014
 5098.00    1.69696   1.52328    0.014
 5099.00    1.50579   1.52970    0.014
 5100.00    1.40172   1.52374    0.014
 5101.00    1.57471   1.52623    0.014
 5102.00    1.68045   1.53456    0.014
 5103.00    1.60488   1.52944    0.014
 5104.00    1.56085   1.53369    0.014
 5105.00    1.58976   1.54035    0.014
 5106.00    1.58404   1.53596    0.014
 5107.00    1.50906   1.53961    0.014
 5108.00    1.45117   1.54197    0.014
 5109.00    1.42307   1.53790    0.014
 5110.00    1.43426   1.53829    0.014
 5111.00    1.50539   1.53474    0.014
 5112.00    1.58555   1.53098    0.014
 5113.00    1.67783   1.52844    0.014
 5114.00    1.67911   1.52032    0.014
 5115.00    1.57300   1.51690    0.014
 5116.00    1.54739   1.51391    0.015
 5117.00    1.60553   1.50459    0.015
 5118.00    1.62233   1.50190    0.014
 5119.00    1.60121   1.50084    0.014
 5120.00    1.62620   1.49251    0.014
 5121.00    1.68850   1.49085    0.014
 5122.00    1.69100   1.49399    0.014
 5123.00    1.65093   1.48668    0.014
 5124.00    1.53211   1.48487    0.014
 5125.00    1.36410   1.49192    0.014
 5126.00    1.23981   1.48369    0.014
 5127.00    1.13940   1.48144    0.014
 5128.00    1.19518   1.49134    0.014
 5129.00    1.32506   1.48024    0.014
 5130.00    1.44235   1.47697    0.014
 5131.00    1.55449   1.48808    0.014
 5132.00    1.60569   1.47541    0.014
 5133.00    1.63560   1.47175    0.013
 5134.00    1.53801   1.48117    0.013
 5135.00    1.40284   1.46897    0.014
 5136.00    1.36818   1.46776    0.014
 5137.00    1.35806   1.47469    0.014
 5138.00    1.37435   1.46427    0.014
 5139.00    1.39586   1.46641    0.014
 5140.00    1.48301   1.47101    0.014
 5141.00    1.58029   1.46363    0.014
 5142.00    1.43256   1.46866    0.014
 5143.00    1.25693   1.47050    0.014
 5144.00    1.34085   1.46603    0.014
 5145.00    1.44456   1.47180    0.013
 5146.00    1.45960   1.46872    0.013
 5147.00    1.47100   1.46444    0.013
 5148.00    1.53133   1.46782    0.014
 5149.00    1.58982   1.45814    0.014
 5150.00    1.55402   1.45044    0.014
 5151.00    1.52274   1.44804    0.014
 5152.00    1.56959   1.43169    0.014
 5153.00    1.62400   1.41862    0.014
 5154.00    1.75876   1.40921    0.014
 5155.00    1.85111   1.38866    0.014
 5156.00    1.62418   1.37191    0.014
 5157.00    1.44290   1.35892    0.014
 5158.00    1.52302   1.33975    0.014
 5159.00    1.57638   1.32303    0.014
 5160.00    1.50786   1.31001    0.014
 5161.00    1.45125   1.29741    0.014
 5162.00    1.43904   1.28734    0.014
 5163.00    1.39995   1.27922    0.014
 5164.00    1.27699   1.27386    0.014
 5165.00    1.17546   1.27190    0.014
 5166.00    1.13068   1.27084    0.014
 5167.00    1.10393   1.27085    0.014
 5168.00    1.11821   1.27516    0.014
 5169.00    1.16963   1.28051    0.014
 5170.00    1.29416   1.28345    0.014
 5171.00    1.39503   1.29180    0.014
 5172.00    1.45528   1.30033    0.014
 5173.00    1.49947   1.30337    0.014
 5174.00    1.51954   1.31508    0.014
 5175.00    1.53523   1.32511    0.014
 5176.00    1.54513   1.32635    0.014
 5177.00    1.52931   1.34070    0.014
 5178.00    1.48357   1.35259    0.014
 5179.00    1.44760   1.35306    0.014
 5180.00    1.42167   1.36886    0.014
 5181.00    1.42111   1.38168    0.013
 5182.00    1.44351   1.38188    0.013
 5183.00    1.40139   1.39717    0.013
 5184.00    1.30781   1.40963    0.013
 5185.00    1.30200   1.40934    0.013
 5186.00    1.35777   1.42078    0.013
 5187.00    1.38423   1.43121    0.013
 5188.00    1.39266   1.43044    0.013
 5189.00    1.37795   1.43560    0.013
 5190.00    1.35079   1.44256    0.000
 5191.00    1.43171   1.44166    0.000
 5192.00    1.56307   1.44064    0.000
 5193.00    1.59213   1.44436    0.000
 5194.00    1.58003   1.44410    0.000
 5195.00    1.63067   1.43925    0.000
 5196.00    1.70283   1.44150    0.000
 5197.00    1.61773   1.44320    0.000
 5198.00    1.48720   1.43830    0.000
 5199.00    1.43373   1.44183    0.000
 5200.00    1.39868   1.44699    0.000
 5201.00    1.44467   1.44499    0.000
 5202.00    1.50626   1.45104    0.000
 5203.00    1.45086   1.45953    0.000
 5204.00    1.37798   1.46100    0.000
 5205.00    1.44639   1.46844    0.000
 5206.00    1.53026   1.47856    0.000
 5207.00    1.47970   1.48167    0.000
 5208.00    1.41943   1.48766    0.000
 5209.00    1.39828   1.49727    0.000
 5210.00    1.37859   1.49941    0.000
 5211.00    1.40668   1.50134    0.013
 5212.00    1.43881   1.50933    0.013
 5213.00    1.61038   1.50930    0.013
 5214.00    1.76674   1.50692    0.013
 5215.00    1.67664   1.51412    0.013
 5216.00    1.59862   1.51300    0.014
 5217.00    1.64352   1.50840    0.014
 5218.00    1.67112   1.51677    0.013
 5219.00    1.57285   1.51680    0.014
 5220.00    1.50578   1.51323    0.014
 5221.00    1.61264   1.52406    0.014
 5222.00    1.66771   1.52680    0.014
 5223.00    1.49243   1.52656    0.014
 5224.00    1.36112   1.53941    0.014
 5225.00    1.39042   1.54452    0.014
 5226.00    1.41442   1.54784    0.014
 5227.00    1.42220   1.56031    0.014
 5228.00    1.42411   1.56573    0.014
 5229.00    1.41078   1.57103    0.014
 5230.00    1.43664   1.58029    0.014
 5231.00    1.55016   1.58350    0.014
 5232.00    1.58831   1.58864    0.014
 5233.00    1.48036   1.59300    0.014
 5234.00    1.47281   1.59239    0.014
 5235.00    1.63499   1.59593    0.014
 5236.00    1.75337   1.59548    0.014
 5237.00    1.80686   1.59126    0.014
 5238.00    1.75730   1.59293    0.014
 5239.00    1.57358   1.58922    0.014
 5240.00    1.50191   1.58290    0.014
 5241.00    1.55876   1.58290    0.013
 5242.00    1.57591   1.57751    0.013
 5243.00    1.55291   1.57056    0.014
 5244.00    1.54273   1.56843    0.014
 5245.00    1.54400   1.56191    0.014
 5246.00    1.52247   1.55462    0.014
 5247.00    1.48300   1.54890    0.014
 5248.00    1.49427   1.54074    0.014
 5249.00    1.54062   1.53252    0.014
 5250.00    1.52382   1.52172    0.014
 5251.00    1.46874   1.51175    0.014
 5252.00    1.46235   1.50290    0.013
 5253.00    1.48172   1.48737    0.013
 5254.00    1.52960   1.47710    0.013
 5255.00    1.59057   1.47013    0.013
 5256.00    1.61789   1.45302    0.013
 5257.00    1.63190   1.44559    0.013
 5258.00    1.61985   1.44445    0.013
 5259.00    1.59902   1.43052    0.013
 5260.00    1.56317   1.42914    0.013
 5261.00    1.52308   1.43677    0.013
 5262.00    1.54207   1.42983    0.013
 5263.00    1.57486   1.43578    0.013
 5264.00    1.57632   1.45196    0.013
 5265.00    1.57191   1.45288    0.013
 5266.00    1.52565   1.46491    0.014
 5267.00    1.47334   1.48627    0.014
 5268.00    1.41302   1.49303    0.014
 5269.00    1.35187   1.50834    0.013
 5270.00    1.39191   1.53046    0.014
 5271.00    1.43886   1.53976    0.014
 5272.00    1.36261   1.55536    0.014
 5273.00    1.28224   1.57471    0.013
 5274.00    1.36712   1.58373    0.013
 5275.00    1.45368   1.59732    0.014
 5276.00    1.58813   1.61195    0.013
 5277.00    1.70480   1.61884    0.013
 5278.00    1.55083   1.62878    0.013
 5279.00    1.42620   1.63798    0.013
 5280.00    1.58788   1.64192    0.014
 5281.00    1.72515   1.64731    0.014
 5282.00    1.69050   1.65124    0.014
 5283.00    1.66575   1.65255    0.013
 5284.00    1.69467   1.65381    0.014
 5285.00    1.72098   1.65366    0.014
 5286.00    1.73596   1.65391    0.014
 5287.00    1.76412   1.65313    0.014
 5288.00    1.83938   1.65121    0.014
 5289.00    1.88312   1.65276    0.014
 5290.00    1.83214   1.65280    0.014
 5291.00    1.78150   1.65155    0.014
 5292.00    1.73169   1.65607    0.014
 5293.00    1.67551   1.65887    0.014
 5294.00    1.60534   1.65945    0.014
 5295.00    1.55228   1.66665    0.014
 5296.00    1.53186   1.67198    0.014
 5297.00    1.51324   1.67359    0.014
 5298.00    1.49765   1.68128    0.014
 5299.00    1.47962   1.68694    0.014
 5300.00    1.45806   1.68740    0.014
 5301.00    1.47656   1.69273    0.013
 5302.00    1.54648   1.69592    0.013
 5303.00    1.63948   1.69319    0.013
 5304.00    1.75856   1.69412    0.014
 5305.00    1.73328   1.69283    0.013
 5306.00    1.56402   1.68609    0.013
 5307.00    1.54671   1.68222    0.013
 5308.00    1.66306   1.67592    0.013
 5309.00    1.69534   1.66578    0.013
 5310.00    1.66248   1.65844    0.013
 5311.00    1.61718   1.64812    0.013
 5312.00    1.56341   1.63637    0.013
 5313.00    1.56752   1.62822    0.013
 5314.00    1.60618   1.61626    0.013
 5315.00    1.62851   1.60528    0.013
 5316.00    1.64232   1.59945    0.013
 5317.00    1.63750   1.58896    0.013
 5318.00    1.62425   1.58103    0.013
 5319.00    1.57831   1.57995    0.013
 5320.00    1.51965   1.57349    0.012
 5321.00    1.48399   1.56978    0.012
 5322.00    1.45592   1.57403    0.012
 5323.00    1.50078   1.57233    0.013
 5324.00    1.56587   1.57239    0.013
 5325.00    1.57863   1.58071    0.013
 5326.00    1.57946   1.58250    0.012
 5327.00    1.57422   1.58449    0.013
 5328.00    1.56786   1.59481    0.013
 5329.00    1.58489   1.59811    0.013
 5330.00    1.60520   1.60018    0.013
 5331.00    1.63782   1.61093    0.013
 5332.00    1.67168   1.61471    0.013
 5333.00    1.71355   1.61616    0.013
 5334.00    1.75593   1.62696    0.013
 5335.00    1.70823   1.63158    0.013
 5336.00    1.65793   1.63297    0.012
 5337.00    1.63686   1.64410    0.013
 5338.00    1.61606   1.65042    0.013
 5339.00    1.60280   1.65254    0.013
 5340.00    1.59421   1.66384    0.013
 5341.00    1.65247   1.67201    0.013
 5342.00    1.69928   1.67474    0.013
 5343.00    1.63898   1.68494    0.013
 5344.00    1.59303   1.69367    0.013
 5345.00    1.64489   1.69560    0.013
 5346.00    1.67827   1.70265    0.013
 5347.00    1.61401   1.70972    0.013
 5348.00    1.56377   1.70878    0.013
 5349.00    1.57310   1.71095    0.013
 5350.00    1.58006   1.71448    0.013
 5351.00    1.57870   1.70931    0.013
 5352.00    1.58987   1.70626    0.013
 5353.00    1.63795   1.70613    0.013
 5354.00    1.69540   1.69713    0.013
 5355.00    1.77636   1.69039    0.013
 5356.00    1.80925   1.68855    0.013
 5357.00    1.73812   1.67798    0.013
 5358.00    1.68515   1.67025    0.013
 5359.00    1.66628   1.66966    0.013
 5360.00    1.62543   1.66056    0.013
 5361.00    1.54852   1.65436    0.013
 5362.00    1.53722   1.65735    0.013
 5363.00    1.62029   1.65188    0.013
 5364.00    1.66541   1.64817    0.013
 5365.00    1.66253   1.65499    0.013
 5366.00    1.62294   1.65342    0.012
 5367.00    1.54244   1.65132    0.012
 5368.00    1.53563   1.66008   -2.000
 5369.00    1.60130   1.66088   -2.000
 5370.00    1.66617   1.65837   -2.000
 5371.00    1.73034   1.66606   -2.000
 5372.00    1.75825   1.66706   -2.000
 5373.00    1.75846   1.66241   -2.000
 5374.00    1.68672   1.66623   -2.000
 5375.00    1.56667   1.66581   -2.000
 5376.00    1.53783   1.65865   -2.000
 5377.00    1.56263   1.65714   -2.000
 5378.00    1.53239   1.65457   -2.000
 5379.00    1.47391   1.64608   -2.000
 5380.00    1.52614   1.63937   -2.000
 5381.00    1.62755   1.63459   -2.000
 5382.00    1.71463   1.62686   -2.000
 5383.00    1.79624   1.61657    0.012
 5384.00    1.76369   1.60975    0.012
 5385.00    1.69411   1.60465    0.012
 5386.00    1.67939   1.59332    0.012
 5387.00    1.67957   1.58485    0.012
 5388.00    1.66665   1.58314    0.012
 5389.00    1.65080   1.57352    0.012
 5390.00    1.63915   1.56425    0.012
 5391.00    1.62824   1.56562    0.012
 5392.00    1.62496   1.55981    0.012
 5393.00    1.62272   1.55130    0.012
 5394.00    1.53257   1.55506    0.012
 5395.00    1.43393   1.55415    0.012
 5396.00    1.42874   1.54844    0.012
 5397.00    1.42917   1.55414    0.012
 5398.00    1.45358   1.55803    0.012
 5399.00    1.47910   1.55676    0.012
 5400.00    1.58345   1.56414    0.012
 5401.00    1.68182   1.57150    0.012
 5402.00    1.62584   1.57497    0.012
 5403.00    1.57072   1.58341    0.013
 5404.00    1.52720   1.59183    0.012
 5405.00    1.49071   1.59876    0.012
 5406.00    1.51754   1.60692    0.012
 5407.00    1.53925   1.61347    0.012
 5408.00    1.52719   1.62149    0.012
 5409.00    1.51317   1.62784    0.012
 5410.00    1.48910   1.63022    0.012
 5411.00    1.49493   1.63715    0.012
 5412.00    1.62485   1.64074    0.012
 5413.00    1.71077   1.63805    0.012
 5414.00    1.64558   1.64284    0.012
 5415.00    1.59519   1.64397    0.012
 5416.00    1.58761   1.63708    0.012
 5417.00    1.58639   1.63993    0.012
 5418.00    1.60084   1.64010    0.012
 5419.00    1.61222   1.63128    0.012
 5420.00    1.61702   1.63323    0.012
 5421.00    1.62024   1.63439    0.012
 5422.00    1.62051   1.62638    0.012
 5423.00    1.60962   1.62833    0.012
 5424.00    1.58067   1.63171    0.012
 5425.00    1.56723   1.62669    0.012
 5426.00    1.57575   1.62888    0.012
 5427.00    1.61199   1.63394    0.012
 5428.00    1.68279   1.63262    0.012
 5429.00    1.73077   1.63452    0.012
 5430.00    1.75367   1.63916    0.012
 5431.00    1.72990   1.64055    0.012
 5432.00    1.66088   1.64142    0.012
 5433.00    1.61534   1.64333    0.012
 5434.00    1.58989   1.64544    0.012
 5435.00    1.60451   1.64486    0.012
 5436.00    1.64930   1.64306    0.012
 5437.00    1.64069   1.64431    0.011
 5438.00    1.59675   1.64264    0.011
 5439.00    1.60491   1.63798    0.011
 5440.00    1.64325   1.63781    0.012
 5441.00    1.72408   1.63605    0.012
 5442.00    1.82637   1.63059    0.012
 5443.00    1.78238   1.62926    0.012
 5444.00    1.67446   1.62823    0.012
 5445.00    1.68255   1.62406    0.012
 5446.00    1.73413   1.62204    0.012
 5447.00    1.68110   1.62179    0.012
 5448.00    1.59478   1.62020    0.012
 5449.00    1.57542   1.61796    0.012
 5450.00    1.57387   1.61742    0.012
 5451.00    1.58476   1.61845    0.012
 5452.00    1.59835   1.61673    0.012
 5453.00    1.62308   1.61414    0.012
 5454.00    1.64973   1.61637    0.012
 5455.00    1.65532   1.61621    0.012
 5456.00    1.65815   1.61064    0.012
 5457.00    1.62762   1.61150    0.012
 5458.00    1.59400   1.61357    0.012
 5459.00    1.56623   1.60584    0.012
 5460.00    1.53879   1.60326    0.012
 5461.00    1.55039   1.60705    0.012
 5462.00    1.56304   1.59965    0.012
 5463.00    1.59356   1.59326    0.012
 5464.00    1.62379   1.59742    0.012
 5465.00    1.64706   1.59352    0.012
 5466.00    1.66691   1.58542    0.012
 5467.00    1.64282   1.58783    0.011
 5468.00    1.61852   1.58893    0.011
 5469.00    1.59240   1.58310    0.011
 5470.00    1.57510   1.58275    0.011
 5471.00    1.61432   1.58791    0.011
 5472.00    1.64504   1.58758    0.011
 5473.00    1.63314   1.58486    0.011
 5474.00    1.61818   1.59080    0.011
 5475.00    1.59080   1.59688    0.011
 5476.00    1.59244   1.59373    0.011
 5477.00    1.69181   1.59681    0.011
 5478.00    1.77011   1.60709   -2.000
 5479.00    1.78855   1.60590   -2.000
 5480.00    1.80992   1.60431   -2.000
 5481.00    1.83837   1.61473   -2.000
 5482.00    1.87522   1.61682   -2.000
 5483.00    1.92966   1.61107   -2.000
 5484.00    1.95066   1.61810   -2.000
 5485.00    1.91073   1.62317   -2.000
 5486.00    1.83243   1.61498   -2.000
 5487.00    1.69304   1.61697   -2.000
 5488.00    1.58630   1.62405   -2.000
 5489.00    1.52517   1.61531   -2.000
 5490.00    1.49072   1.61222   -2.000
 5491.00    1.48907   1.61989   -2.000
 5492.00    1.46070   1.61246   -2.000
 5493.00    1.40335   1.60598   -2.000
 5494.00    1.47469   1.61275   -2.000
 5495.00    1.66905   1.60728   -2.000
 5496.00    1.75498   1.59969   -2.000
 5497.00    1.74952   1.60534   -2.000
 5498.00    1.75065   1.60271   -2.000
 5499.00    1.75668   1.59602   -2.000
 5500.00    1.73607   1.60051   -2.000
 5501.00    1.69812   1.60112   -2.000
 5502.00    1.69052   1.59672    0.012
 5503.00    1.70025   1.60034    0.011
 5504.00    1.67597   1.60367    0.011
 5505.00    1.63479   1.60178    0.011
 5506.00    1.63927   1.60489    0.011
 5507.00    1.66337   1.61005    0.011
 5508.00    1.65081   1.60974    0.011
 5509.00    1.62475   1.61230    0.011
 5510.00    1.55800   1.61795    0.011
 5511.00    1.47855   1.61756    0.011
 5512.00    1.55619   1.61918    0.011
 5513.00    1.67472   1.62484    0.011
 5514.00    1.66034   1.62355    0.011
 5515.00    1.61774   1.62338    0.011
 5516.00    1.59903   1.62894    0.011
 5517.00    1.58433   1.62743    0.011
 5518.00    1.67292   1.62502    0.011
 5519.00    1.77459   1.63043    0.011
 5520.00    1.79237   1.63009    0.011
 5521.00    1.80275   1.62615    0.011
 5522.00    1.67546   1.63151    0.011
 5523.00    1.54097   1.63365    0.011
 5524.00    1.47285   1.62984    0.011
 5525.00    1.40723   1.63479    0.011
 5526.00    1.43681   1.63900    0.011
 5527.00    1.46943   1.63713    0.011
 5528.00    1.56743   1.64178    0.011
 5529.00    1.66053   1.64621    0.011
 5530.00    1.69375   1.64641    0.011
 5531.00    1.72745   1.65150    0.011
 5532.00    1.76509   1.65514    0.011
 5533.00    1.78376   1.65627    0.011
 5534.00    1.68439   1.66178    0.011
 5535.00    1.60393   1.66455    0.011
 5536.00    1.61589   1.66520    0.011
 5537.00    1.62004   1.66987    0.011
 5538.00    1.59318   1.67193    0.011
 5539.00    1.57266   1.67135    0.013
 5540.00    1.57300   1.67370    0.030
 5541.00    1.59161   1.67520   -1.000
 5542.00    1.66115   1.67377   -1.000
 5543.00    1.70311   1.67309   -1.000
 5544.00    1.67923   1.67362   -1.000
 5545.00    1.66705   1.67142   -1.000
 5546.00    1.67900   1.66756   -1.000
 5547.00    1.69540   1.66736   -1.000
 5548.00    1.71975   1.66478   -1.000
 5549.00    1.73517   1.65763   -1.000
 5550.00    1.73657   1.65705   -1.000
 5551.00    1.68939   1.65576    0.051
 5552.00    1.57532   1.64581    0.015
 5553.00    1.50844   1.64415    0.011
 5554.00    1.49873   1.64629    0.011
 5555.00    1.45756   1.63511    0.011
 5556.00    1.38277   1.63086    0.011
 5557.00    1.39392   1.63810    0.011
 5558.00    1.48608   1.62816    0.011
 5559.00    1.54178   1.61957    0.011
 5560.00    1.56721   1.63116    0.011
 5561.00    1.56565   1.62549    0.011
 5562.00    1.54437   1.61251    0.011
 5563.00    1.55380   1.62501    0.011
 5564.00    1.58296   1.62468    0.011
 5565.00    1.61405   1.60913    0.011
 5566.00    1.64622   1.61874    0.011
 5567.00    1.69435   1.62221    0.011
 5568.00    1.75029   1.60624    0.011
 5569.00    1.77262   1.61048    0.011
 5570.00    1.78077   1.61517    0.011
 5571.00    1.71313   1.60074    0.010
 5572.00    1.61808   1.59898    0.010
 5573.00    1.61112   1.60245    0.011
 5574.00    1.63113   1.59097    0.011
 5575.00    1.70242   1.58492    0.011
 5576.00    1.78678   1.58671    0.011
 5577.00    1.78364   1.57859    0.011
 5578.00    1.76239   1.57116    0.011
 5579.00    1.68720   1.57334    0.011
 5580.00    1.60321   1.56851    0.011
 5581.00    1.55254   1.56138    0.011
 5582.00    1.50592   1.56581    0.011
 5583.00    1.53884   1.56414    0.011
 5584.00    1.57844   1.55778    0.011
 5585.00    1.53315   1.56517    0.011
 5586.00    1.48375   1.56813    0.011
 5587.00    1.49734   1.56287    0.011
 5588.00    1.51189   1.57004    0.011
 5589.00    1.52717   1.57706    0.011
 5590.00    1.53798   1.57551    0.011
 5591.00    1.45993   1.58107    0.011
 5592.00    1.39686   1.58928    0.011
 5593.00    1.50763   1.59211    0.011
 5594.00    1.60732   1.59626    0.011
 5595.00    1.61789   1.60336    0.011
 5596.00    1.61830   1.60851    0.011
 5597.00    1.55736   1.61060    0.011
 5598.00    1.51161   1.61395    0.011
 5599.00    1.53830   1.61966    0.011
 5600.00    1.55053   1.62112    0.011
 5601.00    1.50662   1.61919    0.011
 5602.00    1.48180   1.62359    0.011
 5603.00    1.51879   1.62572    0.011
 5604.00    1.55487   1.61745    0.011
 5605.00    1.58845   1.61758    0.011
 5606.00    1.60496   1.62285    0.011
 5607.00    1.58143   1.61452    0.011
 5608.00    1.56838   1.61054    0.010
 5609.00    1.57658   1.61578    0.010
 5610.00    1.56116   1.60923    0.010
 5611.00    1.50401   1.60414    0.010
 5612.00    1.45629   1.61038    0.010
 5613.00    1.42313   1.60592    0.010
 5614.00    1.40536   1.59941    0.010
 5615.00    1.40847   1.60715    0.010
 5616.00    1.42477   1.60748    0.010
 5617.00    1.45683   1.60068    0.010
 5618.00    1.50385   1.60745    0.010
 5619.00    1.56663   1.61153    0.010
 5620.00    1.60402   1.60549    0.010
 5621.00    1.61782   1.60956    0.011
 5622.00    1.57633   1.61531    0.011
 5623.00    1.48954   1.61026    0.011
 5624.00    1.50270   1.61096    0.011
 5625.00    1.58793   1.61701    0.011
 5626.00    1.63259   1.61344    0.011
 5627.00    1.65158   1.61072    0.011
 5628.00    1.68285   1.61616    0.011
 5629.00    1.72091   1.61517    0.011
 5630.00    1.71126   1.60995    0.011
 5631.00    1.67864   1.61321    0.011
 5632.00    1.63043   1.61486    0.011
 5633.00    1.57573   1.60993    0.011
 5634.00    1.53536   1.61053    0.011
 5635.00    1.50008   1.61302    0.010
 5636.00    1.54214   1.61054    0.010
 5637.00    1.60740   1.60900    0.011
 5638.00    1.59732   1.60986    0.011
 5639.00    1.56848   1.61014    0.011
 5640.00    1.56915   1.60757    0.011
 5641.00    1.57578   1.60511    0.011
 5642.00    1.56908   1.60774    0.010
 5643.00    1.56027   1.60581    0.010
 5644.00    1.58051   1.59848    0.010
 5645.00    1.60417   1.60199    0.010
 5646.00    1.60563   1.60414    0.010
 5647.00    1.60532   1.59286    0.010
 5648.00    1.59510   1.59332    0.010
 5649.00    1.58445   1.60169    0.010
 5650.00    1.63200   1.59277    0.010
 5651.00    1.68018   1.58816    0.010
 5652.00    1.72618   1.59907    0.010
 5653.00    1.76665   1.59779    0.010
 5654.00    1.70534   1.59176    0.010
 5655.00    1.64384   1.60075    0.010
 5656.00    1.58018   1.60566    0.010
 5657.00    1.52214   1.60178    0.010
 5658.00    1.50766   1.60820    0.010
 5659.00    1.49202   1.61634    0.010
 5660.00    1.46951   1.61511    0.010
 5661.00    1.45492   1.61851    0.010
 5662.00    1.47719   1.62773    0.010
 5663.00    1.50171   1.62939    0.010
 5664.00    1.53478   1.62916    0.010
 5665.00    1.55577   1.63604    0.010
 5666.00    1.53844   1.64034    0.011
 5667.00    1.52079   1.63785    0.011
 5668.00    1.50229   1.63934    0.010
 5669.00    1.48306   1.64436    0.010
 5670.00    1.46216   1.64298    0.010
 5671.00    1.45476   1.63941    0.010
 5672.00    1.47433   1.64192    0.010
 5673.00    1.51246   1.64301    0.010
 5674.00    1.58287   1.63803    0.011
 5675.00    1.62334   1.63731    0.011
 5676.00    1.61822   1.63939    0.011
 5677.00    1.61522   1.63565    0.011
 5678.00    1.61505   1.63378    0.011
 5679.00    1.61491   1.63572    0.011
 5680.00    1.61483   1.63238    0.011
 5681.00    1.61729   1.62995    0.011
 5682.00    1.62241   1.63255    0.010
 5683.00    1.61060   1.62985    0.010
 5684.00    1.58328   1.62516    0.010
 5685.00    1.56791   1.62654    0.010
 5686.00    1.56218   1.62540    0.010
 5687.00    1.58098   1.61776    0.010
 5688.00    1.61722   1.61587    0.010
 5689.00    1.63686   1.61721    0.010
 5690.00    1.64617   1.60867    0.010
 5691.00    1.64355   1.60222    0.010
 5692.00    1.63443   1.60438    0.010
 5693.00    1.67706   1.59916    0.010
 5694.00    1.74418   1.59014    0.010
 5695.00    1.74824   1.59052    0.010
 5696.00    1.72654   1.59154    0.011
 5697.00    1.66837   1.58437    0.010
 5698.00    1.59749   1.58164    0.010
 5699.00    1.59996   1.58800    0.010
 5700.00    1.62400   1.58561    0.011
 5701.00    1.66071   1.58165    0.011
 5702.00    1.70049   1.59269    0.011
 5703.00    1.67826   1.59640    0.011
 5704.00    1.64381   1.59299    0.011
 5705.00    1.60611   1.60591    0.011
 5706.00    1.56791   1.61462    0.011
 5707.00    1.58762   1.61317    0.011
 5708.00    1.61389   1.62486    0.010
 5709.00    1.61739   1.63540    0.010
 5710.00    1.61917   1.63525    0.010
 5711.00    1.64752   1.64452    0.011
 5712.00    1.67694   1.65528    0.011
 5713.00    1.66297   1.65521    0.010
 5714.00    1.64912   1.66111    0.010
 5715.00    1.65432   1.67107    0.010
 5716.00    1.66021   1.66986    0.010
 5717.00    1.67779   1.67168    0.010
 5718.00    1.69453   1.68052    0.010
 5719.00    1.70244   1.67879    0.010
 5720.00    1.70842   1.67626    0.010
 5721.00    1.69993   1.68399    0.010
 5722.00    1.68634   1.68517    0.010
 5723.00    1.64362   1.67924    0.010
 5724.00    1.60510   1.68232    0.010
 5725.00    1.58567   1.68632    0.010
 5726.00    1.58096   1.68192    0.010
 5727.00    1.63101   1.68141    0.010
 5728.00    1.67241   1.68472    0.010
 5729.00    1.68684   1.68201    0.010
 5730.00    1.68316   1.67991    0.010
 5731.00    1.63162   1.68183    0.010
 5732.00    1.59826   1.68042    0.010
 5733.00    1.60620   1.67736    0.010
 5734.00    1.62590   1.67768    0.010
 5735.00    1.66874   1.67749    0.010
 5736.00    1.69027   1.67419    0.010
 5737.00    1.67527   1.67292    0.010
 5738.00    1.65961   1.67387    0.010
 5739.00    1.64294   1.67088    0.010
 5740.00    1.61512   1.66685    0.000
 5741.00    1.57259   1.66722    0.000
 5742.00    1.55239   1.66648    0.000
 5743.00    1.55812   1.66366    0.000
 5744.00    1.58972   1.66334    0.000
 5745.00    1.64783   1.66214    0.000
 5746.00    1.71180   1.65984    0.000
 5747.00    1.78108   1.66088    0.000
 5748.00    1.79799   1.66118    0.000
 5749.00    1.77321   1.66004    0.000
 5750.00    1.71295   1.66188    0.000
 5751.00    1.62784   1.66205    0.000
 5752.00    1.61446   1.66119    0.000
 5753.00    1.64513   1.66381    0.000
 5754.00    1.68243   1.66376    0.000
 5755.00    1.72328   1.66248    0.000
 5756.00    1.74649   1.66634    0.000
 5757.00    1.76148   1.66725    0.000
 5758.00    1.72556   1.66483    0.000
 5759.00    1.66922   1.66681    0.000
 5760.00    1.62853   1.66671    0.000
 5761.00    1.59321   1.66309    0.000
 5762.00    1.61272   1.66342    0.000
 5763.00    1.64804   1.66133    0.000
 5764.00    1.72739   1.65500    0.000
 5765.00    1.81723   1.65460    0.000
 5766.00    1.83432   1.65181    0.000
 5767.00    1.83745   1.64259    0.000
 5768.00    1.77793   1.64168    0.000
 5769.00    1.70907   1.64015    0.000
 5770.00    1.69611   1.62957    0.000
 5771.00    1.68925   1.62793    0.000
 5772.00    1.67917   1.62902    0.000
 5773.00    1.66886   1.61875    0.000
 5774.00    1.68019   1.61560    0.000
 5775.00    1.69232   1.62175    0.000
 5776.00    1.70677   1.61671    0.000
 5777.00    1.72065   1.61115    0.000
 5778.00    1.71379   1.62038    0.000
 5779.00    1.70577   1.62310    0.000
 5780.00    1.67900   1.61736    0.000
 5781.00    1.65380   1.62735    0.000
 5782.00    1.64437   1.63564    0.000
 5783.00    1.63726   1.63066    0.000
 5784.00    1.64688   1.63922    0.000
 5785.00    1.66333   1.65084    0.000
 5786.00    1.71776   1.64769    0.000
 5787.00    1.75888   1.65233    0.000
 5788.00    1.74100   1.66520    0.000
 5789.00    1.70693   1.66541    0.000
 5790.00    1.61385   1.66458    0.000
 5791.00    1.55217   1.67541   -2.000
 5792.00    1.58639   1.67975   -2.000
 5793.00    1.62075   1.67611   -2.000
 5794.00    1.65547   1.68239   -2.000
 5795.00    1.68593   1.68817   -2.000
 5796.00    1.70691   1.68457   -2.000
 5797.00    1.72979   1.68635   -2.000
 5798.00    1.75632   1.69072   -2.000
 5799.00    1.74512   1.68954   -2.000
 5800.00    1.67025   1.69004   -2.000
 5801.00    1.61272   1.69231   -2.000
 5802.00    1.58084   1.69298   -2.000
 5803.00    1.57943   1.69391   -2.000
 5804.00    1.61762   1.69474   -2.000
 5805.00    1.67081   1.69558   -2.000
 5806.00    1.74119   1.69757   -2.000
 5807.00    1.78274   1.69895   -2.000
 5808.00    1.79521   1.69886   -2.000
 5809.00    1.79703   1.70073   -2.000
 5810.00    1.78937   1.70372   -2.000
 5811.00    1.77503   1.70415    0.000
 5812.00    1.75545   1.70552    0.000
 5813.00    1.75962   1.70846    0.000
 5814.00    1.78020   1.70959    0.000
 5815.00    1.78178   1.71087    0.000
 5816.00    1.77186   1.71198    0.000
 5817.00    1.77348   1.71228    0.000
 5818.00    1.78119   1.71438    0.000
 5819.00    1.81893   1.71514    0.000
 5820.00    1.87042   1.71326    0.000
 5821.00    1.88912   1.71484    0.000
 5822.00    1.89488   1.71686    0.000
 5823.00    1.88663   1.71361    0.000
 5824.00    1.87366   1.71311    0.000
 5825.00    1.80809   1.71631    0.000
 5826.00    1.72767   1.71285    0.000
 5827.00    1.72809   1.70877    0.000
 5828.00    1.74732   1.71161    0.000
 5829.00    1.76053   1.70993    0.000
 5830.00    1.77261   1.70331    0.000
 5831.00    1.75496   1.70346    0.000
 5832.00    1.73302   1.70355    0.000
 5833.00    1.73457   1.69714    0.000
 5834.00    1.73858   1.69347    0.000
 5835.00    1.73354   1.69190    0.000
 5836.00    1.72787   1.68648    0.000
 5837.00    1.74143   1.68175    0.000
 5838.00    1.75563   1.67805    0.000
 5839.00    1.73847   1.67125    0.000
 5840.00    1.72103   1.66606    0.000
 5841.00    1.69542   1.66243    0.000
 5842.00    1.67051   1.65540    0.000
 5843.00    1.65622   1.65099    0.000
 5844.00    1.64296   1.64817    0.000
 5845.00    1.63964   1.64099    0.000
 5846.00    1.63561   1.63747    0.000
 5847.00    1.62670   1.63767    0.000
 5848.00    1.62042   1.63190    0.000
 5849.00    1.62832   1.62700    0.000
 5850.00    1.64569   1.63012    0.000
 5851.00    1.70408   1.62938    0.000
 5852.00    1.75362   1.62411    0.000
 5853.00    1.77156   1.62745    0.000
 5854.00    1.77277   1.63056    0.000
 5855.00    1.72385   1.62657    0.000
 5856.00    1.68496   1.62954    0.000
 5857.00    1.67166   1.63469    0.000
 5858.00    1.65549   1.63050    0.000
 5859.00    1.63304   1.62965    0.000
 5860.00    1.62784   1.63613    0.000
 5861.00    1.65550   1.63368    0.000
 5862.00    1.67779   1.62682    0.000
 5863.00    1.69116   1.62965    0.000
 5864.00    1.70488   1.62907    0.000
 5865.00    1.71910   1.61842    0.000
 5866.00    1.74017   1.61482    0.000
 5867.00    1.77001   1.61316    0.000
 5868.00    1.78795   1.59915    0.000
 5869.00    1.79245   1.58825    0.000
 5870.00    1.78026   1.58454    0.000
 5871.00    1.75143   1.56811    0.000
 5872.00    1.73270   1.54889    0.000
 5873.00    1.72283   1.54283    0.000
 5874.00    1.70663   1.52749    0.000
 5875.00    1.68552   1.50236    0.000
 5876.00    1.67946   1.49474    0.000
 5877.00    1.68364   1.48449    0.000
 5878.00    1.65422   1.45838    0.000
 5879.00    1.60477   1.44996    0.000
 5880.00    1.56712   1.44679    0.000
 5881.00    1.53561   1.42229    0.000
 5882.00    1.53514   1.41281    0.000
 5883.00    1.54865   1.42320    0.000
 5884.00    1.51235   1.40947    0.000
 5885.00    1.45673   1.39616    0.000
 5886.00    1.41923   1.41577    0.000
 5887.00    1.38770   1.42109    0.000
 5888.00    1.36080   1.41057    0.000
 5889.00    1.33519   1.43078    0.000
 5890.00    1.35098   1.44838    0.000
 5891.00    1.37619   1.44111    0.000
 5892.00    1.42511   1.45699    0.000
 5893.00    1.47833   1.48618    0.000
 5894.00    1.48294   1.48928    0.000
 5895.00    1.48076   1.49486    0.000
 5896.00    1.50449   1.52060    0.000
 5897.00    1.53083   1.53313    0.000
 5898.00    1.53840   1.53506    0.000
 5899.00    1.54477   1.55127    0.000
 5900.00    1.50176   1.56499    0.000
 5901.00    1.45757   1.56557    0.010
 5902.00    1.50878   1.57407    0.009
 5903.00    1.55964   1.58727    0.009
 5904.00    1.60048   1.58996    0.009
 5905.00    1.63839   1.59193    0.010
 5906.00    1.63463   1.59930    0.010
 5907.00    1.63166   1.60321    0.009
 5908.00    1.63616   1.60365    0.010
 5909.00    1.64131   1.60640    0.010
 5910.00    1.65092   1.60970    0.010
 5911.00    1.65511   1.61065    0.010
 5912.00    1.63081   1.61227    0.010
 5913.00    1.60557   1.61491    0.010
 5914.00    1.57632   1.61589    0.010
 5915.00    1.54945   1.61607    0.010
 5916.00    1.53091   1.61708    0.010
 5917.00    1.51593   1.61900    0.010
 5918.00    1.51140   1.62021    0.010
 5919.00    1.51528   1.61872    0.010
 5920.00    1.54027   1.61912    0.010
 5921.00    1.57524   1.62292    0.010
 5922.00    1.63178   1.62182    0.010
 5923.00    1.67058   1.61983    0.010
 5924.00    1.67613   1.62370    0.010
 5925.00    1.66433   1.62413    0.010
 5926.00    1.62409   1.62022    0.010
 5927.00    1.59524   1.62233    0.010
 5928.00    1.58273   1.62644    0.009
 5929.00    1.57827   1.62315    0.009
 5930.00    1.58400   1.62063    0.009
 5931.00    1.59351   1.62563    0.009
 5932.00    1.60724   1.62656    0.009
 5933.00    1.62228   1.62197    0.009
 5934.00    1.63861   1.62234    0.009
 5935.00    1.65329   1.62545    0.009
 5936.00    1.66653   1.62444    0.009
 5937.00    1.67021   1.62152    0.009
 5938.00    1.66661   1.62190    0.009
 5939.00    1.62836   1.62506    0.009
 5940.00    1.56689   1.62415    0.009
 5941.00    1.55145   1.62105    0.009
 5942.00    1.56304   1.62390    0.009
 5943.00    1.60174   1.62622    0.009
 5944.00    1.65431   1.62190    0.010
 5945.00    1.65955   1.62261    0.010
 5946.00    1.64381   1.62980    0.010
 5947.00    1.62336   1.62885    0.010
 5948.00    1.60112   1.62475    0.010
 5949.00    1.60885   1.63142    0.010
 5950.00    1.62627   1.63592    0.010
 5951.00    1.61523   1.63156    0.010
 5952.00    1.59647   1.63443    0.010
 5953.00    1.59039   1.64055    0.010
 5954.00    1.58714   1.63868    0.010
 5955.00    1.60565   1.63931    0.010
 5956.00    1.62802   1.64556    0.010
 5957.00    1.63391   1.64539    0.010
 5958.00    1.63756   1.64273    0.009
 5959.00    1.63013   1.64670    0.009
 5960.00    1.62163   1.64757    0.009
 5961.00    1.63048   1.64305    0.009
 5962.00    1.64037   1.64386    0.009
 5963.00    1.63844   1.64538    0.009
 5964.00    1.63594   1.64204    0.009
 5965.00    1.59119   1.64035    0.009
 5966.00    1.54734   1.64055    0.009
 5967.00    1.52616   1.63843    0.009
 5968.00    1.50870   1.63540    0.009
 5969.00    1.54127   1.63266    0.009
 5970.00    1.57300   1.63105    0.009
 5971.00    1.59726   1.62996    0.009
 5972.00    1.61644   1.62677    0.009
 5973.00    1.60216   1.62438    0.009
 5974.00    1.59020   1.62593    0.009
 5975.00    1.59008   1.62586    0.009
 5976.00    1.59344   1.62153    0.010
 5977.00    1.61119   1.62185    0.010
 5978.00    1.62662   1.62492    0.010
 5979.00    1.63411   1.62071    0.009
 5980.00    1.64151   1.61847    0.009
 5981.00    1.64863   1.62354    0.010
 5982.00    1.64098   1.62353    0.010
 5983.00    1.59698   1.61911    0.010
 5984.00    1.55866   1.62072    0.010
 5985.00    1.53244   1.62397    0.010
 5986.00    1.52818   1.62030    0.010
 5987.00    1.56446   1.61697    0.010
 5988.00    1.59973   1.61971    0.010
 5989.00    1.63339   1.62027    0.009
 5990.00    1.66352   1.61599    0.009
 5991.00    1.68866   1.61400    0.009
 5992.00    1.70072   1.61479    0.009
 5993.00    1.69652   1.61178    0.009
 5994.00    1.69566   1.60771    0.009
 5995.00    1.69849   1.60839    0.009
 5996.00    1.68752   1.60898    0.009
 5997.00    1.66322   1.60413    0.009
 5998.00    1.62816   1.60022    0.009
 5999.00    1.58391   1.60295    0.009
 6000.00    1.57114   1.60258    0.009
 6001.00    1.58202   1.59671    0.009
 6002.00    1.61321   1.59627    0.009
 6003.00    1.65783   1.59908    0.009
 6004.00    1.66800   1.59640    0.009
 6005.00    1.65825   1.59377    0.009
 6006.00    1.63947   1.59889    0.009
 6007.00    1.61613   1.60114    0.009
 6008.00    1.61849   1.59532    0.009
 6009.00    1.63206   1.59679    0.009
 6010.00    1.63923   1.60568    0.010
 6011.00    1.64401   1.60524    0.010
 6012.00    1.63468   1.60169    0.010
 6013.00    1.62087   1.61024    0.010
 6014.00    1.59476   1.61719    0.010
 6015.00    1.56539   1.61374    0.010
 6016.00    1.54086   1.61723    0.010
 6017.00    1.51739   1.62788    0.010
 6018.00    1.55088   1.62992    0.010
 6019.00    1.59417   1.62877    0.009
 6020.00    1.57569   1.63742    0.009
 6021.00    1.54915   1.64502    0.009
 6022.00    1.51684   1.64395    0.009
 6023.00    1.48400   1.64751    0.009
 6024.00    1.54043   1.65569    0.009
 6025.00    1.60185   1.65815    0.009
 6026.00    1.62899   1.65838    0.009
 6027.00    1.65473   1.66264    0.009
 6028.00    1.61622   1.66761    0.009
 6029.00    1.57852   1.66870    0.009
 6030.00    1.55971   1.66895    0.009
 6031.00    1.54310   1.67232    0.009
 6032.00    1.55447   1.67529    0.009
 6033.00    1.56568   1.67482    0.009
 6034.00    1.57551   1.67416    0.009
 6035.00    1.58568   1.67683    0.009
 6036.00    1.59799   1.67782    0.009
 6037.00    1.61476   1.67447    0.009
 6038.00    1.65382   1.67527    0.009
 6039.00    1.68452   1.67795    0.009
 6040.00    1.68136   1.67495    0.009
 6041.00    1.68237   1.67184    0.009
 6042.00    1.69743   1.67358    0.010
 6043.00    1.70198   1.67235    0.010
 6044.00    1.67676   1.66752    0.010
 6045.00    1.66522   1.66817    0.009
 6046.00    1.68678   1.66876    0.009
 6047.00    1.71609   1.66491    0.009
 6048.00    1.76157   1.66382    0.010
 6049.00    1.77392   1.66503    0.010
 6050.00    1.72604   1.66207    0.009
 6051.00    1.67440   1.66003    0.009
 6052.00    1.61681   1.66265    0.009
 6053.00    1.57977   1.66059    0.009
 6054.00    1.57140   1.65850    0.009
 6055.00    1.58236   1.66309    0.009
 6056.00    1.61704   1.66384    0.009
 6057.00    1.64128   1.66025    0.009
 6058.00    1.65424   1.66259    0.009
 6059.00    1.66152   1.66554    0.009
 6060.00    1.66338   1.66096    0.009
 6061.00    1.65188   1.66092    0.009
 6062.00    1.62915   1.66659    0.009
 6063.00    1.62210   1.66353    0.009
 6064.00    1.62666   1.65948    0.009
 6065.00    1.62813   1.66345    0.009
 6066.00    1.62759   1.66177    0.009
 6067.00    1.61386   1.65423    0.009
 6068.00    1.59262   1.65565    0.009
 6069.00    1.59831   1.65770    0.009
 6070.00    1.61737   1.64922    0.009
 6071.00    1.62655   1.64496    0.009
 6072.00    1.63151   1.64925    0.009
 6073.00    1.62887   1.64458    0.009
 6074.00    1.62345   1.63552    0.009
 6075.00    1.62911   1.63760    0.009
 6076.00    1.63823   1.63960    0.009
 6077.00    1.61816   1.63120    0.009
 6078.00    1.59051   1.62702    0.009
 6079.00    1.59035   1.63154    0.009
 6080.00    1.59600   1.62910    0.009
 6081.00    1.62383   1.62199    0.009
 6082.00    1.65537   1.62421    0.009
 6083.00    1.64318   1.62723    0.009
 6084.00    1.62547   1.62134    0.009
 6085.00    1.60396   1.61902    0.009
 6086.00    1.58211   1.62313    0.009
 6087.00    1.59237   1.62163    0.009
 6088.00    1.60430   1.61830    0.009
 6089.00    1.61951   1.62156    0.009
 6090.00    1.63472   1.62118    0.009
 6091.00    1.64597   1.61593    0.009
 6092.00    1.65851   1.61887    0.009
 6093.00    1.69848   1.62244    0.009
 6094.00    1.73467   1.61990    0.009
 6095.00    1.72499   1.62032    0.009
 6096.00    1.71278   1.62284    0.009
 6097.00    1.67951   1.62066    0.009
 6098.00    1.64942   1.61964    0.009
 6099.00    1.63909   1.62327    0.009
 6100.00    1.62401   1.62250    0.009
 6101.00    1.58585   1.62150    0.009
 6102.00    1.55248   1.62488    0.009
 6103.00    1.53813   1.62279    0.009
 6104.00    1.53318   1.61913    0.009
 6105.00    1.55912   1.62262    0.010
 6106.00    1.58219   1.62316    0.010
 6107.00    1.59728   1.61664    0.010
 6108.00    1.60831   1.61699    0.010
 6109.00    1.60969   1.61995    0.010
 6110.00    1.61213   1.61158    0.009
 6111.00    1.61676   1.60770    0.009
 6112.00    1.62107   1.61462    0.009
 6113.00    1.62484   1.61182    0.009
 6114.00    1.62241   1.60309    0.009
 6115.00    1.61030   1.60451    0.009
 6116.00    1.58069   1.60591    0.009
 6117.00    1.52702   1.59725    0.009
 6118.00    1.48621   1.59382    0.009
 6119.00    1.46094   1.59916    0.009
 6120.00    1.46035   1.59767    0.009
 6121.00    1.48608   1.59256    0.009
 6122.00    1.52454   1.59210    0.009
 6123.00    1.57498   1.59237    0.009
 6124.00    1.60228   1.58922    0.009
 6125.00    1.61040   1.58465    0.009
 6126.00    1.61292   1.58569    0.009
 6127.00    1.61135   1.59059    0.009
 6128.00    1.61138   1.59072    0.009
 6129.00    1.61243   1.58595    0.009
 6130.00    1.60701   1.58618    0.009
 6131.00    1.59796   1.59057    0.009
 6132.00    1.59091   1.58739    0.009
 6133.00    1.58483   1.58512    0.009
 6134.00    1.57320   1.59226    0.009
 6135.00    1.55923   1.59339    0.009
 6136.00    1.53418   1.58629    0.009
 6137.00    1.50514   1.58685    0.009
 6138.00    1.50789   1.59118    0.010
 6139.00    1.52035   1.58574    0.012
 6140.00    1.54527   1.58131    0.012
 6141.00    1.57336   1.58541    0.012
 6142.00    1.54085   1.58016    0.012
 6143.00    1.49583   1.56826    0.011
 6144.00    1.49469   1.56765    0.011
 6145.00    1.50069   1.56807    0.010
 6146.00    1.53752   1.55702    0.009
 6147.00    1.57810   1.54931    0.009
 6148.00    1.60025   1.55180    0.009
 6149.00    1.62087   1.54392    0.009
 6150.00    1.61809   1.52739    0.009
 6151.00    1.61420   1.52534    0.009
 6152.00    1.60175   1.52981    0.009
 6153.00    1.58918   1.52056    0.009
 6154.00    1.57719   1.50991    0.009
 6155.00    1.56546   1.51621    0.009
 6156.00    1.55899   1.51862    0.009
 6157.00    1.55183   1.50395    0.009
 6158.00    1.53664   1.50090    0.009
 6159.00    1.52319   1.51560    0.009
 6160.00    1.52369   1.51596    0.009
 6161.00    1.52426   1.50427    0.009
 6162.00    1.52528   1.51365    0.009
 6163.00    1.52430   1.52810    0.009
 6164.00    1.51380   1.51906    0.009
 6165.00    1.50461   1.51399    0.009
 6166.00    1.50048   1.53168    0.009
 6167.00    1.50256   1.53811    0.009
 6168.00    1.52471   1.52645    0.009
 6169.00    1.55175   1.53221    0.009
 6170.00    1.59214   1.54780    0.009
 6171.00    1.61818   1.54260    0.009
 6172.00    1.61059   1.53404    0.009
 6173.00    1.59941   1.54467    0.009
 6174.00    1.58093   1.55143    0.009
 6175.00    1.56844   1.54125    0.009
 6176.00    1.56652   1.53980    0.009
 6177.00    1.56532   1.55023    0.009
 6178.00    1.56525   1.54921    0.009
 6179.00    1.56220   1.53937    0.009
 6180.00    1.55513   1.54156    0.009
 6181.00    1.56180   1.54900    0.009
 6182.00    1.58488   1.54453    0.009
 6183.00    1.58609   1.53959    0.009
 6184.00    1.56433   1.54557    0.009
 6185.00    1.56422   1.54990    0.009
 6186.00    1.58420   1.54458    0.009
 6187.00    1.61582   1.54251    0.009
 6188.00    1.65698   1.54851    0.009
 6189.00    1.66330   1.55022    0.009
 6190.00    1.64455   1.54691    0.009
 6191.00    1.62479   1.54794    0.009
 6192.00    1.60440   1.55205    0.009
 6193.00    1.55341   1.55132    0.009
 6194.00    1.48551   1.54719    0.009
 6195.00    1.38024   1.54699    0.009
 6196.00    1.25701   1.54847   -2.000
 6197.00    1.28005   1.54550   -2.000
 6198.00    1.36374   1.54138   -2.000
 6199.00    1.56773   1.54095   -2.000
 6200.00    1.81437   1.53920   -2.000
 6201.00    1.87790   1.53270   -2.000
 6202.00    1.88664   1.52854   -2.000
 6203.00    1.83244   1.52725   -2.000
 6204.00    1.76261   1.52182   -2.000
 6205.00    1.68811   1.51620   -2.000
 6206.00    1.61266   1.51537   -2.000
 6207.00    1.59410   1.51163   -2.000
 6208.00    1.58452   1.50427    0.009
 6209.00    1.58239   1.50265    0.009
 6210.00    1.58114   1.50225    0.009
 6211.00    1.57285   1.49574    0.009
 6212.00    1.56400   1.49234    0.009
 6213.00    1.51214   1.49500    0.009
 6214.00    1.45839   1.49139    0.009
 6215.00    1.45241   1.48561    0.009
 6216.00    1.44819   1.48830    0.009
 6217.00    1.50329   1.48904    0.009
 6218.00    1.55594   1.48336    0.009
 6219.00    1.56380   1.48292    0.009
 6220.00    1.57150   1.48616    0.009
 6221.00    1.57749   1.48218    0.009
 6222.00    1.58394   1.47987    0.009
 6223.00    1.59401   1.48377    0.009
 6224.00    1.59767   1.48167    0.009
 6225.00    1.56392   1.47829    0.009
 6226.00    1.53822   1.48057    0.009
 6227.00    1.54985   1.47949    0.009
 6228.00    1.55956   1.47446    0.009
 6229.00    1.56198   1.47664    0.009
 6230.00    1.55310   1.47846    0.009
 6231.00    1.50845   1.47187    0.009
 6232.00    1.47528   1.47166    0.009
 6233.00    1.47296   1.47525    0.009
 6234.00    1.47930   1.46941    0.009
 6235.00    1.50561   1.46439    0.009
 6236.00    1.51154   1.46897    0.009
 6237.00    1.47685   1.46885    0.009
 6238.00    1.44457   1.46126    0.009
 6239.00    1.41649   1.46232    0.009
 6240.00    1.41741   1.46589    0.009
 6241.00    1.46239   1.46085    0.009
 6242.00    1.49495   1.45662    0.009
 6243.00    1.51092   1.46066    0.009
 6244.00    1.50337   1.46355    0.009
 6245.00    1.46817   1.45941    0.009
 6246.00    1.45242   1.45880    0.009
 6247.00    1.45684   1.46419    0.009
 6248.00    1.47011   1.46642    0.009
 6249.00    1.49147   1.46296    0.009
 6250.00    1.50247   1.46567    0.009
 6251.00    1.50512   1.47533    0.009
 6252.00    1.50542   1.47653    0.009
 6253.00    1.50404   1.47364    0.009
 6254.00    1.51499   1.48083    0.009
 6255.00    1.53361   1.48994    0.009
 6256.00    1.51901   1.48815    0.009
 6257.00    1.48633   1.48898    0.009
 6258.00    1.47476   1.49994    0.009
 6259.00    1.47318   1.50443    0.009
 6260.00    1.50817   1.50171    0.010
 6261.00    1.55807   1.50647    0.011
 6262.00    1.60397   1.51475    0.011
 6263.00    1.64847   1.51530    0.011
 6264.00    1.63319   1.51507    0.011
 6265.00    1.60038   1.52085    0.011
 6266.00    1.52452   1.52478    0.010
 6267.00    1.43819   1.52445    0.010
 6268.00    1.41218   1.52626    0.009
 6269.00    1.39801   1.52971    0.009
 6270.00    1.38954   1.53108    0.009
 6271.00    1.38195   1.53162    0.009
 6272.00    1.38682   1.53379    0.009
 6273.00    1.39310   1.53536    0.009
 6274.00    1.43179   1.53539    0.009
 6275.00    1.47292   1.53621    0.009
 6276.00    1.49079   1.53724    0.009
 6277.00    1.50773   1.53708    0.009
 6278.00    1.49731   1.53667    0.009
 6279.00    1.48723   1.53776    0.009
 6280.00    1.49951   1.53762    0.000
 6281.00    1.51335   1.53508    0.000
 6282.00    1.55398   1.53406    0.000
 6283.00    1.59316   1.53513    0.000
 6284.00    1.61709   1.53410    0.000
 6285.00    1.63324   1.53071    0.000
 6286.00    1.59122   1.53010    0.000
 6287.00    1.55032   1.53088    0.000
 6288.00    1.51585   1.52794    0.000
 6289.00    1.49283   1.52467    0.000
 6290.00    1.52170   1.52629    0.000
 6291.00    1.54637   1.52738    0.000
 6292.00    1.55549   1.52315    0.000
 6293.00    1.55326   1.52166    0.000
 6294.00    1.51581   1.52466    0.000
 6295.00    1.48899   1.52299    0.000
 6296.00    1.49016   1.51923    0.000
 6297.00    1.50541   1.52227    0.000
 6298.00    1.55253   1.52462    0.000
 6299.00    1.58077   1.51941    0.000
 6300.00    1.57197   1.51922    0.000
 6301.00    1.56909   1.52472    0.000
 6302.00    1.57631   1.52134    0.000
 6303.00    1.58186   1.51655    0.000
 6304.00    1.58490   1.52293    0.000
 6305.00    1.56528   1.52631    0.000
 6306.00    1.51584   1.51869    0.000
 6307.00    1.47287   1.51902    0.000
 6308.00    1.43742   1.52798    0.000
 6309.00    1.41906   1.52550    0.000
 6310.00    1.41820   1.52016    0.000
 6311.00    1.42183   1.52700    0.000
 6312.00    1.42952   1.53234    0.000
 6313.00    1.43354   1.52720    0.000
 6314.00    1.43465   1.52685    0.000
 6315.00    1.42625   1.53443    0.000
 6316.00    1.41118   1.53494    0.000
 6317.00    1.41175   1.53290    0.000
 6318.00    1.42190   1.53678    0.000
 6319.00    1.43197   1.53850    0.000
 6320.00    1.44201   1.53566    0.000
 6321.00    1.43890   1.53690   -1.000
 6322.00    1.42969   1.54067   -1.000
 6323.00    1.47771   1.53837    0.024
 6324.00    1.54865   1.53762    0.010
 6325.00    1.59125   1.54161    0.009
 6326.00    1.62417   1.54022    0.009
 6327.00    1.61780   1.53450    0.009
 6328.00    1.60015   1.53552    0.009
 6329.00    1.55879   1.54075    0.009
 6330.00    1.51181   1.53741    0.008
 6331.00    1.50700   1.53239    0.008
 6332.00    1.51025   1.53603    0.008
 6333.00    1.52505   1.53906    0.008
 6334.00    1.54156   1.53278    0.008
 6335.00    1.52298   1.52856    0.008
 6336.00    1.50059   1.53454    0.009
 6337.00    1.49991   1.53616    0.008
 6338.00    1.50077   1.52759    0.008
 6339.00    1.54543   1.52424    0.009
 6340.00    1.59168   1.53073    0.009
 6341.00    1.58580   1.52998    0.009
 6342.00    1.57952   1.52006    0.009
 6343.00    1.56641   1.51932    0.009
 6344.00    1.55418   1.52547    0.009
 6345.00    1.55596   1.52057    0.009
 6346.00    1.55405   1.51079    0.009
 6347.00    1.51491   1.51393    0.009
 6348.00    1.48119   1.51980    0.009
 6349.00    1.48654   1.51325    0.009
 6350.00    1.49718   1.50736    0.009
 6351.00    1.53706   1.51351    0.009
 6352.00    1.56649   1.51775    0.009
 6353.00    1.54969   1.51231    0.009
 6354.00    1.53110   1.51150    0.008
 6355.00    1.50602   1.51933    0.008
 6356.00    1.48640   1.52325    0.008
 6357.00    1.48345   1.52141    0.008
 6358.00    1.48340   1.52404    0.008
 6359.00    1.49088   1.53202    0.008
 6360.00    1.49409   1.53623    0.009
 6361.00    1.48778   1.53588    0.009
 6362.00    1.49054   1.53884    0.009
 6363.00    1.51080   1.54663    0.009
 6364.00    1.53181   1.55090    0.009
 6365.00    1.55406   1.54969    0.009
 6366.00    1.56323   1.55241    0.009
 6367.00    1.55310   1.55977    0.009
 6368.00    1.54342   1.56128    0.009
 6369.00    1.53432   1.55800    0.009
 6370.00    1.52109   1.56117    0.009
 6371.00    1.50313   1.56716    0.009
 6372.00    1.50336   1.56447    0.009
 6373.00    1.52191   1.56021    0.009
 6374.00    1.53648   1.56497    0.009
 6375.00    1.54752   1.56877    0.009
 6376.00    1.55584   1.56253    0.009
 6377.00    1.56203   1.55832    0.008
 6378.00    1.57050   1.56420    0.008
 6379.00    1.58056   1.56520    0.009
 6380.00    1.56243   1.55615    0.008
 6381.00    1.52727   1.55568    0.008
 6382.00    1.50272   1.56449    0.008
 6383.00    1.48376   1.56047    0.008
 6384.00    1.49217   1.54725    0.008
 6385.00    1.51311   1.55153    0.008
 6386.00    1.51030   1.56229    0.008
 6387.00    1.49814   1.55374    0.009
 6388.00    1.47233   1.54509    0.009
 6389.00    1.44195   1.55628    0.009
 6390.00    1.44740   1.56032    0.009
 6391.00    1.46294   1.54383    0.009
 6392.00    1.48847   1.54257    0.009
 6393.00    1.51632   1.55968    0.009
 6394.00    1.52733   1.55744    0.009
 6395.00    1.53519   1.54237    0.009
 6396.00    1.51537   1.54863    0.009
 6397.00    1.49156   1.56074    0.009
 6398.00    1.49216   1.55046    0.009
 6399.00    1.49531   1.54186    0.009
 6400.00    1.50412   1.55482    0.009
 6401.00    1.51331   1.55998    0.009
 6402.00    1.49249   1.54697    0.009
 6403.00    1.47068   1.54630    0.008
 6404.00    1.45415   1.55730    0.008
 6405.00    1.43757   1.55470    0.009
 6406.00    1.41970   1.54769    0.008
 6407.00    1.40417   1.55388    0.008
 6408.00    1.42391   1.55861    0.008
 6409.00    1.44402   1.55338    0.008
 6410.00    1.46757   1.55249    0.009
 6411.00    1.48831   1.55636    0.009
 6412.00    1.48945   1.55580    0.009
 6413.00    1.49089   1.55567    0.009
 6414.00    1.49400   1.55979    0.009
 6415.00    1.49234   1.55942    0.009
 6416.00    1.47013   1.55775    0.009
 6417.00    1.44673   1.56096    0.009
 6418.00    1.41909   1.56188    0.009
 6419.00    1.39848   1.55971    0.009
 6420.00    1.39893   1.56338    0.009
 6421.00    1.40736   1.56692    0.009
 6422.00    1.43612   1.56081    0.009
 6423.00    1.47118   1.55926    0.009
 6424.00    1.52003   1.56778    0.009
 6425.00    1.56172   1.56926    0.009
 6426.00    1.58978   1.56230    0.009
 6427.00    1.59678   1.56531    0.009
 6428.00    1.56885   1.57313    0.009
 6429.00    1.53413   1.56627    0.009
 6430.00    1.48954   1.55829    0.009
 6431.00    1.47100   1.56732    0.009
 6432.00    1.48577   1.57395    0.009
 6433.00    1.50918   1.56496    0.009
 6434.00    1.54235   1.56175    0.009
 6435.00    1.57014   1.56921    0.009
 6436.00    1.59260   1.56754    0.009
 6437.00    1.61869   1.56035    0.009
 6438.00    1.64797   1.56459    0.009
 6439.00    1.65617   1.56988    0.009
 6440.00    1.64809   1.56271    0.009
 6441.00    1.63377   1.55710    0.009
 6442.00    1.61521   1.56184    0.009
 6443.00    1.59936   1.56376    0.009
 6444.00    1.58513   1.56229    0.009
 6445.00    1.55828   1.56392    0.009
 6446.00    1.52489   1.56306    0.009
 6447.00    1.52525   1.55968    0.009
 6448.00    1.54078   1.56208    0.009
 6449.00    1.55669   1.56548    0.009
 6450.00    1.57274   1.56356    0.009
 6451.00    1.55281   1.56414    0.009
 6452.00    1.52104   1.56820    0.009
 6453.00    1.52404   1.56632    0.008
 6454.00    1.53663   1.56226    0.008
 6455.00    1.55220   1.56678    0.008
 6456.00    1.56843   1.57184    0.008
 6457.00    1.56755   1.56970    0.008
 6458.00    1.56356   1.56648    0.009
 6459.00    1.53208   1.56881    0.009
 6460.00    1.49678   1.57177    0.009
 6461.00    1.49649   1.56953    0.009
 6462.00    1.49969   1.56532    0.009
 6463.00    1.51939   1.56594    0.009
 6464.00    1.54013   1.57008    0.009
 6465.00    1.51798   1.56660    0.009
 6466.00    1.49461   1.55929    0.009
 6467.00    1.47263   1.56011    0.009
 6468.00    1.45308   1.56390    0.009
 6469.00    1.50112   1.55669    0.009
 6470.00    1.54851   1.54769    0.009
 6471.00    1.58649   1.55022    0.009
 6472.00    1.62049   1.55108    0.009
 6473.00    1.61763   1.53944    0.009
 6474.00    1.61421   1.53018    0.009
 6475.00    1.60693   1.53303    0.009
 6476.00    1.59948   1.53144    0.008
 6477.00    1.59106   1.51945    0.008
 6478.00    1.57771   1.51300    0.008
 6479.00    1.54359   1.51457    0.008
 6480.00    1.51410   1.51008    0.008
 6481.00    1.50077   1.49895    0.008
 6482.00    1.48938   1.49541    0.008
 6483.00    1.48368   1.49837    0.008
 6484.00    1.48994   1.49456    0.008
 6485.00    1.52614   1.48588    0.008
 6486.00    1.55832   1.48520    0.009
 6487.00    1.58185   1.48985    0.009
 6488.00    1.57711   1.48845    0.009
 6489.00    1.51948   1.48620    0.009
 6490.00    1.46690   1.48997    0.009
 6491.00    1.42256   1.49464    0.009
 6492.00    1.38638   1.49461    0.009
 6493.00    1.36192   1.49699    0.009
 6494.00    1.35441   1.50414    0.009
 6495.00    1.36830   1.50774    0.009
 6496.00    1.37558   1.50926    0.009
 6497.00    1.37551   1.51533    0.008
 6498.00    1.38540   1.52149    0.008
 6499.00    1.40505   1.52242    0.009
 6500.00    1.43181   1.52635    0.008
 6501.00    1.46471   1.53397    0.008
 6502.00    1.48532   1.53603    0.008
 6503.00    1.49657   1.53500    0.008
 6504.00    1.51706   1.54089    0.008
 6505.00    1.54373   1.54683    0.008
 6506.00    1.57119   1.54400    0.008
 6507.00    1.59912   1.54355    0.008
 6508.00    1.60665   1.55085    0.009
 6509.00    1.60378   1.55282    0.009
 6510.00    1.57883   1.54772    0.009
 6511.00    1.54411   1.55032    0.009
 6512.00    1.51915   1.55711    0.009
 6513.00    1.49789   1.55482    0.009
 6514.00    1.49674   1.54998    0.009
 6515.00    1.50208   1.55478    0.009
 6516.00    1.50317   1.55964    0.009
 6517.00    1.50311   1.55500    0.009
 6518.00    1.51661   1.55217    0.009
 6519.00    1.53311   1.55700    0.009
 6520.00    1.55434   1.55850    0.009
 6521.00    1.57641   1.55390    0.008
 6522.00    1.55540   1.55370    0.008
 6523.00    1.52860   1.55694    0.008
 6524.00    1.51387   1.55488    0.008
 6525.00    1.50031   1.55014    0.008
 6526.00    1.54267   1.55051    0.008
 6527.00    1.58835   1.55193    0.008
 6528.00    1.59313   1.54810    0.000
 6529.00    1.59679   1.54309    0.000
 6530.00    1.58765   1.54143    0.000
 6531.00    1.58017   1.53968    0.000
 6532.00    1.61465   1.53518    0.000
 6533.00    1.64642   1.52990    0.000
 6534.00    1.64195   1.52484    0.000
 6535.00    1.63439   1.51972    0.000
 6536.00    1.59938   1.51555    0.000
 6537.00    1.56974   1.50996    0.000
 6538.00    1.57534   1.49981    0.000
 6539.00    1.58072   1.49133    0.000
 6540.00    1.58492   1.48977    0.000
 6541.00    1.59018   1.48391    0.000
 6542.00    1.59982   1.46829    0.000
 6543.00    1.62093   1.45984    0.000
 6544.00    1.68124   1.46197    0.000
 6545.00    1.72348   1.45253    0.000
 6546.00    1.71363   1.43402    0.000
 6547.00    1.69957   1.43322    0.000
 6548.00    1.67517   1.43976    0.000
 6549.00    1.64813   1.42309    0.000
 6550.00    1.61549   1.40406    0.000
 6551.00    1.57313   1.41519    0.000
 6552.00    1.51287   1.42547    0.000
 6553.00    1.48051   1.40616    0.000
 6554.00    1.49310   1.39520    0.000
 6555.00    1.54007   1.41371    0.000
 6556.00    1.63561   1.41982    0.000
 6557.00    1.75311   1.40452    0.000
 6558.00    1.89790   1.40849    0.000
 6559.00    2.00086   1.42843    0.000
 6560.00    2.05799   1.42723    0.000
 6561.00    2.04914   1.41742    0.000
 6562.00    1.97654   1.43067    0.000
 6563.00    1.87498   1.44874    0.000
 6564.00    1.74873   1.44632    0.000
 6565.00    1.65579   1.44328    0.000
 6566.00    1.58784   1.45729    0.000
 6567.00    1.55005   1.46892    0.000
 6568.00    1.53215   1.46696    0.000
 6569.00    1.52002   1.46876    0.000
 6570.00    1.51122   1.48012    0.000
 6571.00    1.49619   1.48626    0.000
 6572.00    1.47802   1.48377    0.000
 6573.00    1.49037   1.48541    0.000
 6574.00    1.51599   1.49423    0.000
 6575.00    1.57101   1.49807    0.000
 6576.00    1.63699   1.49430    0.000
 6577.00    1.69502   1.49523    0.000
 6578.00    1.75052   1.50258    0.000
 6579.00    1.79884   1.50329    0.000
 6580.00    1.84526   1.49698    0.000
 6581.00    1.87054   1.49821    0.000
 6582.00    1.89123   1.50558    0.000
 6583.00    1.84327   1.50484    0.000
 6584.00    1.78353   1.49847    0.000
 6585.00    1.71831   1.49924    0.000
 6586.00    1.65239   1.50480    0.000
 6587.00    1.63267   1.50457    0.000
 6588.00    1.61716   1.50090    0.000
 6589.00    1.62598   1.50178    0.000
 6590.00    1.63614   1.50539    0.000
 6591.00    1.62230   1.50494    0.000
 6592.00    1.60781   1.50211    0.000
 6593.00    1.58153   1.50368    0.000
 6594.00    1.55626   1.50857    0.000
 6595.00    1.55416   1.50879    0.000
 6596.00    1.55231   1.50375    0.000
 6597.00    1.55345   1.50477    0.000
 6598.00    1.55468   1.51316    0.000
 6599.00    1.55674   1.51486    0.000
 6600.00    1.55949   1.50786    0.000
 6601.00    1.56666   1.50790    0.000
 6602.00    1.56578   1.51706    0.000
 6603.00    1.52477   1.51788    0.000
 6604.00    1.48583   1.51093    0.000
 6605.00    1.45528   1.51259    0.000
 6606.00    1.43075   1.51981    0.000
 6607.00    1.42636   1.51710    0.000
 6608.00    1.42675   1.51107    0.000
 6609.00    1.44064   1.51536    0.009
 6610.00    1.45777   1.52013    0.009
 6611.00    1.48274   1.51357    0.008
 6612.00    1.50947   1.50743    0.008
 6613.00    1.53989   1.51303    0.008
 6614.00    1.56464   1.51603    0.008
 6615.00    1.57912   1.50834    0.008
 6616.00    1.57150   1.50324    0.008
 6617.00    1.52883   1.50722    0.008
 6618.00    1.49286   1.50797    0.008
 6619.00    1.46622   1.50123    0.008
 6620.00    1.45643   1.49812    0.008
 6621.00    1.46728   1.50072    0.008
 6622.00    1.47828   1.49940    0.008
 6623.00    1.48945   1.49383    0.009
 6624.00    1.50246   1.49459    0.009
 6625.00    1.51723   1.49811    0.009
 6626.00    1.51592   1.49377    0.009
 6627.00    1.50110   1.48802    0.009
 6628.00    1.49076   1.49248    0.009
 6629.00    1.48374   1.49703    0.009
 6630.00    1.47038   1.49064    0.009
 6631.00    1.45290   1.48595    0.009
 6632.00    1.44439   1.49230    0.009
 6633.00    1.44099   1.49579    0.008
 6634.00    1.46494   1.48922    0.008
 6635.00    1.50244   1.48684    0.008
 6636.00    1.51644   1.49310    0.008
 6637.00    1.52039   1.49386    0.008
 6638.00    1.48952   1.48769    0.008
 6639.00    1.44587   1.48764    0.008
 6640.00    1.41783   1.49260    0.008
 6641.00    1.39464   1.49093    0.008
 6642.00    1.41034   1.48555    0.008
 6643.00    1.43612   1.48609    0.008
 6644.00    1.45825   1.48950    0.008
 6645.00    1.47962   1.48751    0.008
 6646.00    1.50750   1.48208    0.009
 6647.00    1.53648   1.48180    0.009
 6648.00    1.52254   1.48524    0.009
 6649.00    1.50322   1.48364    0.009
 6650.00    1.49260   1.47716    0.009
 6651.00    1.48273   1.47660    0.009
 6652.00    1.51120   1.48104    0.009
 6653.00    1.54164   1.47919    0.009
 6654.00    1.54723   1.47318    0.009
 6655.00    1.55209   1.47396    0.008
 6656.00    1.53720   1.47781    0.008
 6657.00    1.52146   1.47444    0.009
 6658.00    1.48814   1.47075    0.008
 6659.00    1.45674   1.47464    0.008
 6660.00    1.44853   1.47611    0.008
 6661.00    1.44278   1.46972    0.008
 6662.00    1.45740   1.46968    0.008
 6663.00    1.47101   1.47698    0.008
 6664.00    1.47828   1.47504    0.008
 6665.00    1.48027   1.46714    0.009
 6666.00    1.45658   1.47062    0.009
 6667.00    1.43727   1.47807    0.009
 6668.00    1.43527   1.47376    0.009
 6669.00    1.43710   1.46871    0.009
 6670.00    1.45151   1.47418    0.009
 6671.00    1.46550   1.47762    0.009
 6672.00    1.47832   1.47208    0.009
 6673.00    1.48386   1.47142    0.009
 6674.00    1.47212   1.47755    0.009
 6675.00    1.46980   1.47656    0.009
 6676.00    1.48685   1.47092    0.009
 6677.00    1.50472   1.47361    0.009
 6678.00    1.52408   1.47860    0.008
 6679.00    1.53041   1.47479    0.008
 6680.00    1.51638   1.47085    0.009
 6681.00    1.50606   1.47446    0.009
 6682.00    1.50083   1.47627    0.009
 6683.00    1.49746   1.47205    0.009
 6684.00    1.49632   1.47090    0.009
 6685.00    1.49704   1.47335    0.009
 6686.00    1.49973   1.47162    0.008
 6687.00    1.49002   1.46830    0.008
 6688.00    1.46866   1.46909    0.008
 6689.00    1.45060   1.46976    0.008
 6690.00    1.43526   1.46618    0.009
 6691.00    1.44134   1.46402    0.009
 6692.00    1.46302   1.46515    0.009
 6693.00    1.46641   1.46367    0.009
 6694.00    1.45809   1.46011    0.009
 6695.00    1.42324   1.45972    0.009
 6696.00    1.37353   1.45951    0.000
 6697.00    1.36191   1.45597    0.000
 6698.00    1.36884   1.45421    0.000
 6699.00    1.41394   1.45526    0.000
 6700.00    1.47509   1.45260    0.000
 6701.00    1.50215   1.44801    0.000
 6702.00    1.51693   1.44936    0.000
 6703.00    1.49949   1.45154    0.000
 6704.00    1.47225   1.44687    0.000
 6705.00    1.44766   1.44246    0.000
 6706.00    1.42375   1.44645    0.000
 6707.00    1.43464   1.44917    0.000
 6708.00    1.45269   1.44365    0.000
 6709.00    1.49291   1.44080    0.000
 6710.00    1.53672   1.44653    0.000
 6711.00    1.56752   1.44871    0.000
 6712.00    1.59675   1.44335    0.000
 6713.00    1.61434   1.44293    0.000
 6714.00    1.63095   1.44902    0.000
 6715.00    1.63219   1.44994    0.000
 6716.00    1.63270   1.44530    0.000
 6717.00    1.61463   1.44634    0.000
 6718.00    1.59584   1.45147    0.000
 6719.00    1.55074   1.45183    0.000
 6720.00    1.50567   1.44830    0.000
 6721.00    1.46097   1.44859    0.000
 6722.00    1.42104   1.45158    0.000
 6723.00    1.43583   1.45215    0.000
 6724.00    1.45299   1.45013    0.000
 6725.00    1.48905   1.44859    0.000
 6726.00    1.52883   1.44925    0.000
 6727.00    1.59095   1.45043    0.000
 6728.00    1.64706   1.44929    0.000
 6729.00    1.67472   1.44622    0.000
 6730.00    1.68477   1.44630    0.000
 6731.00    1.62679   1.44813    0.000
 6732.00    1.57251   1.44644    0.000
 6733.00    1.53013   1.44292    0.000
 6734.00    1.49143   1.44434    0.000
 6735.00    1.46276   1.44684    0.000
 6736.00    1.44303   1.44403    0.000
 6737.00    1.44421   1.44143    0.000
 6738.00    1.44155   1.44434    0.000
 6739.00    1.43113   1.44703    0.000
 6740.00    1.41276   1.44468    0.000
 6741.00    1.38042   1.44341    0.000
 6742.00    1.37375   1.44657    0.000
 6743.00    1.40659   1.44903    0.000
 6744.00    1.41814   1.44816    0.000
 6745.00    1.40089   1.44815    0.000
 6746.00    1.38519   1.45025    0.000
 6747.00    1.37133   1.45197    0.000
 6748.00    1.37495   1.45309    0.000
 6749.00    1.39692   1.45389    0.000
 6750.00    1.40505   1.45392    0.000
 6751.00    1.40037   1.45497    0.000
 6752.00    1.42922   1.45777    0.000
 6753.00    1.48544   1.45830    0.009
 6754.00    1.50199   1.45680    0.010
 6755.00    1.49005   1.45817    0.010
 6756.00    1.42584   1.46110    0.010
 6757.00    1.32869   1.46031    0.010
 6758.00    1.25897   1.45868    0.010
 6759.00    1.20438   1.46097    0.010
 6760.00    1.28016   1.46272    0.010
 6761.00    1.41841   1.46042    0.010
 6762.00    1.53347   1.45935    0.010
 6763.00    1.63895   1.46212    0.010
 6764.00    1.65886   1.46262    0.010
 6765.00    1.64851   1.45929    0.010
 6766.00    1.65288   1.45870    0.010
 6767.00    1.66164   1.46152    0.010
 6768.00    1.64598   1.46083    0.010
 6769.00    1.62426   1.45710    0.010
 6770.00    1.60779   1.45722    0.010
 6771.00    1.59237   1.45947    0.009
 6772.00    1.56068   1.45758    0.009
 6773.00    1.52643   1.45449    0.009
 6774.00    1.51595   1.45537    0.009
 6775.00    1.50824   1.45630    0.009
 6776.00    1.47161   1.45382    0.009
 6777.00    1.43270   1.45228    0.009
 6778.00    1.47331   1.45356    0.009
 6779.00    1.51738   1.45339    0.010
 6780.00    1.49804   1.45136    0.010
 6781.00    1.47746   1.45132    0.010
 6782.00    1.43049   1.45234    0.010
 6783.00    1.38476   1.45166    0.009
 6784.00    1.36176   1.45099    0.009
 6785.00    1.34346   1.45183    0.009
 6786.00    1.37667   1.45208    0.009
 6787.00    1.41244   1.45170    0.009
 6788.00    1.46799   1.45248    0.009
 6789.00    1.52396   1.45309    0.009
 6790.00    1.58232   1.45244    0.009
 6791.00    1.62709   1.45314    0.009
 6792.00    1.60901   1.45506    0.009
 6793.00    1.60190   1.45442    0.009
 6794.00    1.63626   1.45265    0.009
 6795.00    1.65029   1.45482    0.009
 6796.00    1.60010   1.45753    0.009
 6797.00    1.56392   1.45562    0.009
 6798.00    1.56523   1.45372    0.009
 6799.00    1.57528   1.45670    0.009
 6800.00    1.60540   1.45903    0.009
 6801.00    1.61838   1.45676    0.009
 6802.00    1.59725   1.45584    0.009
 6803.00    1.58274   1.45872    0.009
 6804.00    1.57969   1.45994    0.009
 6805.00    1.56787   1.45830    0.009
 6806.00    1.54278   1.45862    0.009
 6807.00    1.51287   1.46039    0.009
 6808.00    1.47654   1.46041    0.009
 6809.00    1.46939   1.46003    0.009
 6810.00    1.49649   1.46117    0.009
 6811.00    1.51563   1.46143    0.009
 6812.00    1.52653   1.46074    0.009
 6813.00    1.52149   1.46134    0.009
 6814.00    1.50189   1.46202    0.010
 6815.00    1.48010   1.46081    0.010
 6816.00    1.45656   1.46017    0.010
 6817.00    1.45251   1.46119    0.009
 6818.00    1.46225   1.46049    0.009
 6819.00    1.51007   1.45805    0.009
 6820.00    1.58154   1.45778    0.009
 6821.00    1.60233   1.45889    0.009
 6822.00    1.59562   1.45690    0.009
 6823.00    1.57603   1.45375    0.009
 6824.00    1.55037   1.45379    0.009
 6825.00    1.53955   1.45455    0.009
 6826.00    1.53478   1.45191    0.009
 6827.00    1.53335   1.44903    0.009
 6828.00    1.53310   1.44928    0.009
 6829.00    1.54752   1.44932    0.009
 6830.00    1.56624   1.44667    0.009
 6831.00    1.55608   1.44487    0.009
 6832.00    1.53893   1.44512    0.009
 6833.00    1.49022   1.44424    0.009
 6834.00    1.43534   1.44252    0.009
 6835.00    1.44033   1.44221    0.009
 6836.00    1.45445   1.44166    0.009
 6837.00    1.53039   1.43965    0.010
 6838.00    1.61326   1.43921    0.010
 6839.00    1.57299   1.44021    0.010
 6840.00    1.52352   1.43870    0.010
 6841.00    1.43479   1.43601    0.010
 6842.00    1.34450   1.43656    0.010
 6843.00    1.35255   1.43778    0.009
 6844.00    1.36353   1.43550    0.009
 6845.00    1.46386   1.43327    0.009
 6846.00    1.55708   1.43441    0.009
 6847.00    1.53017   1.43486    0.009
 6848.00    1.50438   1.43253    0.009
 6849.00    1.49043   1.43165    0.009
 6850.00    1.47495   1.43261    0.009
 6851.00    1.44810   1.43180    0.009
 6852.00    1.42882   1.43055    0.009
 6853.00    1.45248   1.43146    0.009
 6854.00    1.47385   1.43154    0.009
 6855.00    1.48494   1.42990    0.009
 6856.00    1.49281   1.43067    0.009
 6857.00    1.48882   1.43289    0.009
 6858.00    1.47834   1.43161    0.009
 6859.00    1.44781   1.43006    0.009
 6860.00    1.43893   1.43315    0.009
 6861.00    1.48705   1.43566    0.009
 6862.00    1.52372   1.43328    0.009
 6863.00    1.53453   1.43306    0.009
 6864.00    1.53688   1.43779    0.009
 6865.00    1.52268   1.43924    0.009
 6866.00    1.52026   1.43665    0.009
 6867.00    1.53793   1.43853    0.009
 6868.00    1.54009   1.44373    0.009
 6869.00    1.51905   1.44406    0.009
 6870.00    1.48467   1.44242    0.009
 6871.00    1.43276   1.44555    0.009
 6872.00    1.42319   1.44978    0.009
 6873.00    1.46262   1.45012    0.009
 6874.00    1.49306   1.45049    0.009
 6875.00    1.51432   1.45343    0.009
 6876.00    1.51264   1.45590    0.009
 6877.00    1.49030   1.45715    0.009
 6878.00    1.45809   1.45909    0.009
 6879.00    1.41806   1.46080    0.009
 6880.00    1.40369   1.46211    0.009
 6881.00    1.40724   1.46456    0.009
 6882.00    1.41280   1.46662    0.009
 6883.00    1.41958   1.46670    0.009
 6884.00    1.42848   1.46795    0.009
 6885.00    1.43851   1.47122    0.009
 6886.00    1.45157   1.47199    0.009
 6887.00    1.46605   1.47076    0.009
 6888.00    1.45997   1.47280    0.009
 6889.00    1.44567   1.47617    0.009
 6890.00    1.41635   1.47510    0.009
 6891.00    1.38191   1.47307    0.009
 6892.00    1.37329   1.47567    0.009
 6893.00    1.37209   1.47840    0.009
 6894.00    1.40386   1.47619    0.009
 6895.00    1.44345   1.47397    0.009
 6896.00    1.44989   1.47608    0.009
 6897.00    1.45002   1.47793    0.009
 6898.00    1.47482   1.47582    0.009
 6899.00    1.50328   1.47349    0.009
 6900.00    1.47811   1.47411    0.009
 6901.00    1.44716   1.47558    0.009
 6902.00    1.44485   1.47456    0.009
 6903.00    1.44457   1.47175    0.009
 6904.00    1.41220   1.47058    0.009
 6905.00    1.37867   1.47230    0.009
 6906.00    1.36712   1.47273    0.009
 6907.00    1.35612   1.46926    0.009
 6908.00    1.36173   1.46669    0.009
 6909.00    1.36771   1.46916    0.009
 6910.00    1.37962   1.47078    0.009
 6911.00    1.38956   1.46665    0.009
 6912.00    1.37972   1.46353    0.009
 6913.00    1.36939   1.46697    0.009
 6914.00    1.35553   1.46924    0.009
 6915.00    1.35449   1.46454    0.009
 6916.00    1.42414   1.46157    0.009
 6917.00    1.47280   1.46601    0.009
 6918.00    1.42890   1.46840    0.009
 6919.00    1.39011   1.46337    0.009
 6920.00    1.36990   1.46100    0.009
 6921.00    1.35692   1.46602    0.009
 6922.00    1.36594   1.46809    0.009
 6923.00    1.38022   1.46307    0.009
 6924.00    1.40813   1.46125    0.009
 6925.00    1.43260   1.46628    0.009
 6926.00    1.44943   1.46796    0.009
 6927.00    1.45762   1.46326    0.009
 6928.00    1.44918   1.46183    0.009
 6929.00    1.43630   1.46627    0.009
 6930.00    1.41594   1.46759    0.009
 6931.00    1.40186   1.46380    0.009
 6932.00    1.39702   1.46281    0.009
 6933.00    1.40748   1.46609    0.009
 6934.00    1.43776   1.46703    0.009
 6935.00    1.46794   1.46472    0.009
 6936.00    1.49801   1.46420    0.009
 6937.00    1.50539   1.46614    0.009
 6938.00    1.48992   1.46709    0.009
 6939.00    1.48359   1.46680    0.009
 6940.00    1.48536   1.46663    0.009
 6941.00    1.48474   1.46707    0.009
 6942.00    1.48223   1.46844    0.009
 6943.00    1.49962   1.47022    0.009
 6944.00    1.53067   1.47008    0.009
 6945.00    1.50934   1.46914    0.009
 6946.00    1.45643   1.47112    0.009
 6947.00    1.42542   1.47457    0.009
 6948.00    1.40593   1.47387    0.009
 6949.00    1.42664   1.47142    0.009
 6950.00    1.46569   1.47404    0.009
 6951.00    1.50215   1.47881    0.009
 6952.00    1.53759   1.47692    0.009
 6953.00    1.54392   1.47255    0.009
 6954.00    1.54052   1.47555    0.009
 6955.00    1.48796   1.48114    0.009
 6956.00    1.42158   1.47780    0.009
 6957.00    1.38888   1.47166    0.009
 6958.00    1.36396   1.47496    0.009
 6959.00    1.42155   1.48114    0.009
 6960.00    1.49445   1.47657    0.009
 6961.00    1.49632   1.46898    0.009
 6962.00    1.48803   1.47276    0.010
 6963.00    1.47232   1.47955    0.010
 6964.00    1.45584   1.47425    0.010
 6965.00    1.45420   1.46623    0.010
 6966.00    1.45354   1.47093    0.010
 6967.00    1.45733   1.47815    0.010
 6968.00    1.46125   1.47276    0.010
 6969.00    1.42020   1.46555    0.010
 6970.00    1.37959   1.47111    0.010
 6971.00    1.35214   1.47814    0.009
 6972.00    1.32796   1.47339    0.009
 6973.00    1.35243   1.46790    0.009
 6974.00    1.37873   1.47351    0.009
 6975.00    1.42266   1.47932    0.009
 6976.00    1.45799   1.47561    0.009
 6977.00    1.43352   1.47216    0.009
 6978.00    1.41383   1.47665    0.009
 6979.00    1.41976   1.48039    0.009
 6980.00    1.42937   1.47801    0.009
 6981.00    1.45486   1.47603    0.010
 6982.00    1.47285   1.47809    0.010
 6983.00    1.46422   1.47983    0.010
 6984.00    1.45267   1.47935    0.010
 6985.00    1.43247   1.47805    0.010
 6986.00    1.41890   1.47675    0.010
 6987.00    1.42217   1.47700    0.010
 6988.00    1.41331   1.47872    0.009
 6989.00    1.37791   1.47740    0.009
 6990.00    1.37219   1.47286    0.009
 6991.00    1.42277   1.47255    0.009
 6992.00    1.45099   1.47672    0.009
 6993.00    1.44220   1.47516    0.009
 6994.00    1.41471   1.46785    0.009
 6995.00    1.36011   1.46767    0.009
 6996.00    1.34740   1.47438    0.009
 6997.00    1.38818   1.47271    0.009
 6998.00    1.39952   1.46324    0.009
 6999.00    1.37776   1.46339    0.009
 7000.00    1.35744   1.47244    0.009
 7001.00    1.33855   1.47103    0.010
 7002.00    1.36210   1.46026    0.010
 7003.00    1.42279   1.46080    0.010
 7004.00    1.41381   1.47151    0.010
 7005.00    1.35114   1.47059    0.010
 7006.00    1.36351   1.45974    0.010
 7007.00    1.42674   1.46083    0.010
 7008.00    1.44311   1.47208    0.010
 7009.00    1.43166   1.47149    0.010
 7010.00    1.44959   1.46187    0.010
 7011.00    1.48274   1.46389    0.010
 7012.00    1.44106   1.47447    0.010
 7013.00    1.36577   1.47398    0.010
 7014.00    1.34072   1.46684    0.010
 7015.00    1.33505   1.46989    0.010
 7016.00    1.40388   1.47844    0.010
 7017.00    1.49715   1.47792    0.010
 7018.00    1.46518   1.47434    0.010
 7019.00    1.39875   1.47826    0.010
 7020.00    1.39491   1.48358    0.010
 7021.00    1.40522   1.48289    0.010
 7022.00    1.45576   1.48336    0.010
 7023.00    1.51358   1.48774    0.010
 7024.00    1.46498   1.48922    0.010
 7025.00    1.40164   1.48814    0.010
 7026.00    1.39476   1.49167    0.010
 7027.00    1.39349   1.49546    0.010
 7028.00    1.41130   1.49358    0.010
 7029.00    1.43031   1.49220    0.010
 7030.00    1.41942   1.49684    0.010
 7031.00    1.40775   1.49874    0.010
 7032.00    1.41172   1.49436    0.010
 7033.00    1.41552   1.49247    0.010
 7034.00    1.41451   1.49591    0.010
 7035.00    1.41361   1.49507    0.010
 7036.00    1.41438   1.48938    0.010
 7037.00    1.41382   1.48669    0.010
 7038.00    1.40091   1.48723    0.010
 7039.00    1.39830   1.48377    0.010
 7040.00    1.46499   1.47811    0.010
 7041.00    1.52076   1.47449    0.010
 7042.00    1.51945   1.47154    0.010
 7043.00    1.52492   1.46656    0.010
 7044.00    1.55898   1.46238    0.010
 7045.00    1.57724   1.45820    0.010
 7046.00    1.54056   1.45237    0.010
 7047.00    1.52081   1.44735    0.010
 7048.00    1.55065   1.44562    0.010
 7049.00    1.56545   1.44155    0.010
 7050.00    1.54271   1.43421   -2.000
 7051.00    1.51280   1.43043   -2.000
 7052.00    1.46746   1.43156   -2.000
 7053.00    1.44089   1.42828   -2.000
 7054.00    1.44936   1.42050   -2.000
 7055.00    1.46959   1.41816   -2.000
 7056.00    1.50899   1.42185   -2.000
 7057.00    1.51825   1.41970   -2.000
 7058.00    1.48438   1.41188   -2.000
 7059.00    1.46687   1.41036   -2.000
 7060.00    1.46993   1.41562   -2.000
 7061.00    1.49256   1.41427   -2.000
 7062.00    1.53689   1.40618   -2.000
 7063.00    1.58361   1.40444   -2.000
 7064.00    1.63267   1.40995   -2.000
 7065.00    1.65506   1.40871   -2.000
 7066.00    1.65446   1.40005   -2.000
 7067.00    1.64153   1.39728   -2.000
 7068.00    1.61923   1.40191   -2.000
 7069.00    1.63943   1.40026   -2.000
 7070.00    1.68801   1.39113   -2.000
 7071.00    1.66330   1.38720   -2.000
 7072.00    1.59573   1.39041   -2.000
 7073.00    1.62347   1.38839   -2.000
 7074.00    1.69981   1.37964   -2.000
 7075.00    1.70040   1.37516   -2.000
 7076.00    1.66755   1.37690   -2.000
 7077.00    1.64121   1.37492   -2.000
 7078.00    1.61735   1.36790   -2.000
 7079.00    1.59501   1.36404   -2.000
 7080.00    1.57316   1.36449   -2.000
 7081.00    1.53438   1.36280   -2.000
 7082.00    1.49104   1.35853   -2.000
 7083.00    1.49032   1.35651   -2.000
 7084.00    1.49899   1.35597   -2.000
 7085.00    1.49766   1.35421   -2.000
 7086.00    1.49456   1.35287   -2.000
 7087.00    1.49448   1.35352   -2.000
 7088.00    1.49481   1.35216   -2.000
 7089.00    1.46379   1.34952   -2.000
 7090.00    1.42980   1.35042   -2.000
 7091.00    1.46308   1.35382   -2.000
 7092.00    1.50031   1.35180   -2.000
 7093.00    1.50979   1.34758   -2.000
 7094.00    1.51831   1.34974   -2.000
 7095.00    1.49107   1.35527   -2.000
 7096.00    1.46598   1.35258   -2.000
 7097.00    1.49428   1.34672   -2.000
 7098.00    1.51658   1.34944   -2.000
 7099.00    1.45914   1.35595   -2.000
 7100.00    1.39857   1.35239   -2.000
 7101.00    1.31021   1.34546   -2.000
 7102.00    1.23727   1.34862   -2.000
 7103.00    1.26507   1.35499   -2.000
 7104.00    1.28774   1.35014   -2.000
 7105.00    1.28427   1.34281   -2.000
 7106.00    1.28384   1.34673   -2.000
 7107.00    1.29588   1.35244   -2.000
 7108.00    1.30662   1.34605   -2.000
 7109.00    1.31294   1.33861   -2.000
 7110.00    1.32767   1.34350   -2.000
 7111.00    1.36655   1.34890   -2.000
 7112.00    1.38446   1.34140   -2.000
 7113.00    1.35091   1.33364   -2.000
 7114.00    1.33900   1.33918   -2.000
 7115.00    1.37288   1.34524   -2.000
 7116.00    1.40428   1.33792   -2.000
 7117.00    1.43111   1.32948   -2.000
 7118.00    1.46235   1.33469   -2.000
 7119.00    1.50069   1.34237   -2.000
 7120.00    1.49213   1.33693   -2.000
 7121.00    1.41747   1.32764   -2.000
 7122.00    1.41976   1.33120   -2.000
 7123.00    1.51747   1.34084   -2.000
 7124.00    1.55451   1.33867   -2.000
 7125.00    1.52521   1.32870   -2.000
 7126.00    1.51594   1.32957   -2.000
 7127.00    1.52600   1.34068   -2.000
 7128.00    1.48523   1.34231   -2.000
 7129.00    1.40124   1.33209   -2.000
 7130.00    1.37945   1.32987   -2.000
 7131.00    1.40422   1.34159   -2.000
 7132.00    1.46305   1.34666   -2.000
 7133.00    1.54428   1.33670   -2.000
 7134.00    1.47747   1.33170   -2.000
 7135.00    1.32540   1.34322   -2.000
 7136.00    1.30391   1.35086   -2.000
 7137.00    1.34793   1.34165   -2.000
 7138.00    1.36948   1.33465   -2.000
 7139.00    1.38127   1.34527   -2.000
 7140.00    1.46817   1.35454   -2.000
 7141.00    1.58305   1.34662   -2.000
 7142.00    1.51858   1.33846   -2.000
 7143.00    1.39747   1.34747   -2.000
 7144.00    1.38861   1.35752   -2.000
 7145.00    1.40936   1.35159   -2.000
 7146.00    1.36788   1.34297   -2.000
 7147.00    1.31299   1.34950   -2.000
 7148.00    1.32662   1.35965   -2.000
 7149.00    1.35197   1.35647   -2.000
 7150.00    1.43094   1.34806   -2.000
 7151.00    1.51684   1.35140   -2.000
 7152.00    1.62421   1.36104   -2.000
 7153.00    1.73352   1.36095   -2.000
 7154.00    1.61558   1.35318   -2.000
 7155.00    1.48520   1.35325   -2.000
 7156.00    1.43626   1.36194   -2.000
 7157.00    1.38877   1.36452   -2.000
 7158.00    1.31711   1.35740   -2.000
 7159.00    1.25414   1.35472   -2.000
 7160.00    1.38842   1.36237   -2.000
 7161.00    1.52027   1.36666   -2.000
 7162.00    1.62153   1.35976   -2.000
 7163.00    1.70623   1.35500   -2.000
 7164.00    1.64961   1.36185   -2.000
 7165.00    1.57321   1.36708   -2.000
 7166.00    1.37152   1.35980   -2.000
 7167.00    1.23407   1.35329   -2.000
 7168.00    1.41559   1.35971   -2.000
 7169.00    1.56451   1.36582   -2.000
 7170.00    1.58216   1.35821   -2.000
 7171.00    1.58516   1.35010   -2.000
 7172.00    1.53917   1.35594   -2.000
 7173.00    1.47671   1.36322   -2.000
 7174.00    1.36779   1.35638   -2.000
 7175.00    1.29683   1.34709   -2.000
 7176.00    1.31742   1.35165   -2.000
 7177.00    1.38120   1.36011   -2.000
 7178.00    1.53493   1.35539   -2.000
 7179.00    1.58893   1.34584   -2.000
 7180.00    1.46236   1.34850   -2.000
 7181.00    1.36877   1.35745   -2.000
 7182.00    1.32736   1.35560   -2.000
 7183.00    1.31640   1.34684   -2.000
 7184.00    1.34773   1.34735   -2.000
 7185.00    1.34126   1.35586   -2.000
 7186.00    1.28855   1.35693   -2.000
 7187.00    1.30284   1.34995   -2.000
 7188.00    1.38935   1.34855   -2.000
 7189.00    1.41944   1.35540   -2.000
 7190.00    1.39590   1.35863   -2.000
 7191.00    1.37499   1.35439   -2.000
 7192.00    1.35627   1.35206   -2.000
 7193.00    1.36770   1.35635   -2.000
 7194.00    1.40140   1.36040   -2.000
 7195.00    1.41751   1.35940   -2.000
 7196.00    1.42221   1.35759   -2.000
 7197.00    1.35119   1.35941   -2.000
 7198.00    1.23722   1.36293   -2.000
 7199.00    1.27752   1.36475   -2.000
 7200.00    1.39401   1.36478   -2.000
 7201.00    1.52856   1.36516   -2.000
 7202.00    1.67082   1.36721   -2.000
 7203.00    1.63616   1.37069   -2.000
 7204.00    1.53677   1.37326   -2.000
 7205.00    1.33440   1.37357   -2.000
 7206.00    1.10012   1.37388   -2.000
 7207.00    1.14279   1.37769   -2.000
 7208.00    1.25694   1.38256   -2.000
 7209.00    1.26068   1.38373   -2.000
 7210.00    1.24119   1.38258   -2.000
 7211.00    1.26705   1.38582   -2.000
 7212.00    1.30045   1.39222   -2.000
 7213.00    1.34213   1.39431   -2.000
 7214.00    1.38485   1.39201   -2.000
 7215.00    1.42123   1.39418   -2.000
 7216.00    1.45706   1.40133   -2.000
 7217.00    1.32887   1.40430   -2.000
 7218.00    1.19235   1.40111   -2.000
