###################################################################
## OUTPUT of StarlightChains_v04.for    [Cid@UFSC - 01/Apr/2007] ##
###################################################################

## Some input info
KUG0210-078._23_37.txt                   [arq_obs]
Base.CB07.vall.4m                        [arq_base]
Masks.EmLines.NEW.gm                     [arq_masks]
StCv04.C11.config                        [arq_config]
   66                                    [N_base]
    0                                    [N_YAV_components = # of components with extra extinction!]
    0                                    [i_FitPowerLaw (1/0 = Yes/No)]
-9.99                                    [alpha_PowerLaw]
CCM                                      [red_law_option]
 1.458241                                [q_norm = A(l_norm)/A(V)]

## (Re)Sampling Parameters
 3741.00                                 [l_ini (A)]
 7218.00                                 [l_fin (A)]
    1.00                                 [dl    (A)]     (OBS: dl_cushion =    50.00 A)

## Normalization info
 4020.00                                 [l_norm (A) - for base]
 4010.00                                 [llow_norm (A) - window for f_obs]
 4060.00                                 [lupp_norm (A) - window for f_obs]
9.505259E-18                             [fobs_norm (in input units)]

## S/N
 3691.00                                 [llow_SN (A) - window for S/N]
 7268.00                                 [lupp_SN (A) - window for S/N]
   3.815                                 [S/N in S/N window]
   4.532                                 [S/N in norm. window]
   0.011                                 [S/N_err in S/N window]
   0.013                                 [S/N_err in norm. window]
  1.0000                                 [fscale_chi2]

## etc...
    -2007268                             [idum_orig]
  2411                                   [NOl_eff]
  1939                                   [Nl_eff]
   472    NSIGMA                         [Ntot_cliped & clip_method]
  1823640                                [Nglobal_steps]
   7                                     [N_chains]
  30                                     [NEX0s_base = N_base in EX0s-fits]
 0   0   1      472   2.0   9.258E+03    [Clip-Bug, RC-Crash & Burn-In warning-flags, n_censored_weights, wei_nsig_threshold & wei_limit]
    26     25.395     24.874      0.521  [idt_all, wdt_TotTime, wdt_UsrTime & wdt_SysTime (sec)]

## Synthesis Results - Best model ##

 1.77553E-05                             [chi2/Nl_eff]
    29.18572                             [adev (%)]

   111.57277                             [sum-of-x (%)]
 1.71758E-17                             [Flux_tot (units of input spectrum!)]
 1.91267E-13                             [Mini_tot (???)]
 1.03216E-13                             [Mcor_tot (???)]

 209.17                                  [v0_min  (km/s)]
   0.01                                  [vd_min  (km/s)]
 0.3590                                  [AV_min  (mag)]
 0.0000                                  [YAV_min (mag)]

# j     x_j(%)      Mini_j(%)     Mcor_j(%)     age_j(yr)     Z_j      (L/M)_j    YAV?  Mstars   component_j        a/Fe...       SSP_chi2r SSP_adev(%)   SSP_AV   SSP_x(%)
  1      0.0000     0.0000E+00    0.0000E+00    1.000000E+06  0.00400  1.094E-02    0   1.0000   age020_m42            0.0000     1.8373E-05    29.3383   2.8530   100.7445
  2      0.6707     1.3472E-03    2.4962E-03    3.160000E+06  0.00400  4.007E-02    0   0.9999   age045_m42            0.0000     1.8393E-05    29.5103   2.2048   104.4775
  3      0.0000     0.0000E+00    0.0000E+00    5.010000E+06  0.00400  2.539E-02    0   0.9488   age055_m42            0.0000     1.8318E-05    29.3824   2.4885   103.3554
  4      0.0000     0.0000E+00    0.0000E+00    6.610000E+06  0.00400  2.620E-02    0   0.9220   age061_m42            0.0000     1.8272E-05    29.4302   2.1294   104.8379
  5      0.0000     0.0000E+00    0.0000E+00    1.000000E+07  0.00400  1.322E-02    0   0.8862   age070_m42            0.0000     1.8293E-05    29.5285   1.8271   108.8633
  6      0.0000     0.0000E+00    0.0000E+00    1.445000E+07  0.00400  7.883E-03    0   0.8571   age078_m42            0.0000     1.8378E-05    29.5436   2.1427   106.4633
  7     10.7981     1.6551E-01    2.5070E-01    2.512000E+07  0.00400  5.251E-03    0   0.8174   age090_m42            0.0000     1.8336E-05    29.6072   1.7028   109.4332
  8      0.0000     0.0000E+00    0.0000E+00    4.000000E+07  0.00400  3.649E-03    0   0.7851   age104_m42            0.0000     1.8342E-05    29.6410   1.4886   109.7361
  9      5.9151     1.5368E-01    2.1725E-01    5.500000E+07  0.00400  3.098E-03    0   0.7629   age110_m42            0.0000     1.8296E-05    29.5463   1.6616   108.4076
 10      0.0000     0.0000E+00    0.0000E+00    1.015200E+08  0.00400  2.228E-03    0   0.7207   age116_m42            0.0000     1.8237E-05    29.5066   1.6969   107.7158
 11      0.0000     0.0000E+00    0.0000E+00    2.861200E+08  0.00400  1.093E-03    0   0.6648   age125_m42            0.0000     1.8285E-05    29.4430   1.1346   111.0487
 12      0.0000     0.0000E+00    0.0000E+00    5.088000E+08  0.00400  6.597E-04    0   0.6365   age130_m42            0.0000     1.8299E-05    29.4499   1.1442   110.7581
 13      0.0000     0.0000E+00    0.0000E+00    1.434000E+09  0.00400  2.132E-04    0   0.5798   age139_m42            0.0000     1.7742E-05    29.2144   0.1931   111.8656
 14      0.0000     0.0000E+00    0.0000E+00    4.250000E+09  0.00400  5.895E-05    0   0.5377   age158_m42            0.0000     1.7721E-05    29.0468  -0.2592   107.5286
 15      0.0000     0.0000E+00    0.0000E+00    7.500000E+09  0.00400  3.510E-05    0   0.5212   age171_m42            0.0000     1.7898E-05    28.9986  -0.4392   106.2955
 16     12.0445     4.8350E+01    4.5103E+01    1.300000E+10  0.00400  2.005E-05    0   0.5034   age193_m42            0.0000     1.8220E-05    28.9944  -0.5999   105.4286
 17      0.0000     0.0000E+00    0.0000E+00    1.800000E+10  0.00400  1.525E-05    0   0.4967   age213_m42            0.0000     1.8089E-05    28.9842  -0.6262   105.1496
 18      0.0000     0.0000E+00    0.0000E+00    1.000000E+06  0.00800  1.238E-02    0   1.0000   age020_m52            0.0000     1.8348E-05    29.3202   2.8493   100.9161
 19     15.0604     3.9432E-02    7.2822E-02    3.160000E+06  0.00800  3.074E-02    0   0.9966   age045_m52            0.0000     1.8309E-05    29.3018   2.7776   101.5738
 20      0.0000     0.0000E+00    0.0000E+00    5.010000E+06  0.00800  2.668E-02    0   0.9443   age055_m52            0.0000     1.8292E-05    29.3638   2.5611   102.8624
 21      0.0000     0.0000E+00    0.0000E+00    6.610000E+06  0.00800  2.136E-02    0   0.9177   age061_m52            0.0000     1.8025E-05    29.3967   1.3150   110.5123
 22      0.0000     0.0000E+00    0.0000E+00    1.000000E+07  0.00800  1.215E-02    0   0.8827   age070_m52            0.0000     1.8292E-05    29.5118   1.9970   109.2299
 23      0.0000     0.0000E+00    0.0000E+00    1.445000E+07  0.00800  8.717E-03    0   0.8552   age078_m52            0.0000     1.8296E-05    29.5182   2.1139   107.7010
 24      0.0000     0.0000E+00    0.0000E+00    2.512000E+07  0.00800  5.592E-03    0   0.8162   age090_m52            0.0000     1.8145E-05    29.4876   1.7745   110.3400
 25      0.0000     0.0000E+00    0.0000E+00    4.000000E+07  0.00800  3.896E-03    0   0.7841   age104_m52            0.0000     1.8167E-05    29.4442   1.7042   110.2254
 26      0.0000     0.0000E+00    0.0000E+00    1.015200E+08  0.00800  2.148E-03    0   0.7226   age116_m52            0.0000     1.8198E-05    29.4826   1.6608   108.9159
 27      0.0000     0.0000E+00    0.0000E+00    2.861200E+08  0.00800  9.925E-04    0   0.6683   age125_m52            0.0000     1.8114E-05    29.3394   1.2122   111.5644
 28      0.0000     0.0000E+00    0.0000E+00    9.047900E+08  0.00800  3.141E-04    0   0.6138   age135_m52            0.0000     1.7794E-05    29.1298   0.4722   112.9212
 29      3.4565     1.6184E+00    1.7553E+00    1.434000E+09  0.00800  1.719E-04    0   0.5853   age139_m52            0.0000     1.7715E-05    28.9857  -0.1288   111.6285
 30      0.0000     0.0000E+00    0.0000E+00    2.500000E+09  0.00800  7.872E-05    0   0.5600   age150_m52            0.0000     1.8071E-05    29.0626  -0.3854   107.6959
 31      0.0000     0.0000E+00    0.0000E+00    4.250000E+09  0.00800  4.336E-05    0   0.5426   age158_m52            0.0000     1.8112E-05    29.0714  -0.4028   106.7413
 32      0.0000     0.0000E+00    0.0000E+00    6.250000E+09  0.00800  3.159E-05    0   0.5319   age166_m52            0.0000     1.8354E-05    29.0122  -0.5925   105.9606
 33      0.0000     0.0000E+00    0.0000E+00    1.300000E+10  0.00800  1.361E-05    0   0.5073   age193_m52            0.0000     1.8569E-05    29.2722  -1.0000   102.5800
 34      0.0000     0.0000E+00    0.0000E+00    1.800000E+10  0.00800  9.886E-06    0   0.4990   age213_m52            0.0000     1.8955E-05    30.1931  -1.0000    97.9259
 35      0.0000     0.0000E+00    0.0000E+00    1.000000E+06  0.02000  1.544E-02    0   1.0000   age020_m62            0.0000     1.8379E-05    29.3254   2.8425   101.2716
 36      0.0000     0.0000E+00    0.0000E+00    3.160000E+06  0.02000  3.762E-02    0   0.9858   age045_m62            0.0000     1.8442E-05    29.3432   2.7849   102.0133
 37      0.0000     0.0000E+00    0.0000E+00    5.010000E+06  0.02000  3.296E-02    0   0.9342   age055_m62            0.0000     1.8292E-05    29.3481   2.4597   104.0614
 38      5.7969     4.0430E-02    6.6387E-02    8.710000E+06  0.02000  1.154E-02    0   0.8861   age067_m62            0.0000     1.8601E-05    29.6864   1.3945   117.0243
 39      0.0000     0.0000E+00    0.0000E+00    1.445000E+07  0.02000  7.663E-03    0   0.8472   age078_m62            0.0000     1.8367E-05    29.5613   1.6385   112.6263
 40      0.0000     0.0000E+00    0.0000E+00    2.512000E+07  0.02000  4.532E-03    0   0.8099   age090_m62            0.0000     1.8429E-05    29.5816   1.6357   112.2545
 41      0.0000     0.0000E+00    0.0000E+00    5.500000E+07  0.02000  2.733E-03    0   0.7595   age110_m62            0.0000     1.8239E-05    29.5524   1.6800   109.8698
 42      0.0000     0.0000E+00    0.0000E+00    1.609000E+08  0.02000  1.369E-03    0   0.6985   age120_m62            0.0000     1.8243E-05    29.4849   1.5557   110.7556
 43      0.0000     0.0000E+00    0.0000E+00    2.861200E+08  0.02000  9.013E-04    0   0.6714   age125_m62            0.0000     1.8297E-05    29.5200   1.3333   112.5055
 44      0.0000     0.0000E+00    0.0000E+00    5.088000E+08  0.02000  5.028E-04    0   0.6449   age130_m62            0.0000     1.8294E-05    29.4935   1.0067   112.5965
 45      0.0000     0.0000E+00    0.0000E+00    9.047900E+08  0.02000  2.428E-04    0   0.6179   age135_m62            0.0000     1.7837E-05    29.1541   0.4288   111.1850
 46      0.0000     0.0000E+00    0.0000E+00    1.434000E+09  0.02000  1.263E-04    0   0.5908   age139_m62            0.0000     1.8050E-05    29.2617  -0.0133   109.5354
 47      0.0000     0.0000E+00    0.0000E+00    2.500000E+09  0.02000  5.985E-05    0   0.5673   age150_m62            0.0000     1.8299E-05    29.0996  -0.3738   107.3868
 48      0.0000     0.0000E+00    0.0000E+00    4.250000E+09  0.02000  3.271E-05    0   0.5468   age158_m62            0.0000     1.8763E-05    29.0468  -0.6602   105.3388
 49      0.0000     0.0000E+00    0.0000E+00    1.000000E+10  0.02000  1.360E-05    0   0.5167   age181_m62            0.0000     1.9259E-05    29.0288  -0.9625   102.6354
 50      0.0000     0.0000E+00    0.0000E+00    1.800000E+10  0.02000  7.124E-06    0   0.5013   age213_m62            0.0000     1.9863E-05    30.4958  -1.0000    95.4239
 51      1.4212     4.4131E-03    8.1762E-03    1.000000E+06  0.05000  2.592E-02    0   0.9998   age020_m72            0.0000     1.8331E-05    29.3203   2.8293   101.5181
 52     12.0444     2.0008E-02    3.5509E-02    3.160000E+06  0.05000  4.845E-02    0   0.9577   age045_m72            0.0000     1.8392E-05    29.3304   2.6895   102.3993
 53      0.0000     0.0000E+00    0.0000E+00    5.010000E+06  0.05000  3.072E-02    0   0.9147   age055_m72            0.0000     1.8584E-05    29.5099   2.2240   107.7197
 54      0.0000     0.0000E+00    0.0000E+00    6.610000E+06  0.05000  1.455E-02    0   0.8877   age061_m72            0.0000     1.9494E-05    29.5006   1.4434   119.2707
 55      0.0000     0.0000E+00    0.0000E+00    1.000000E+07  0.05000  9.074E-03    0   0.8524   age070_m72            0.0000     1.9035E-05    29.4826   2.4241   106.9280
 56      0.2779     5.2621E-03    7.7052E-03    2.512000E+07  0.05000  4.250E-03    0   0.7902   age090_m72            0.0000     1.8682E-05    29.5166   2.1413   108.0771
 57      1.2287     3.2035E-02    4.5222E-02    4.000000E+07  0.05000  3.087E-03    0   0.7618   age104_m72            0.0000     1.8540E-05    29.4737   1.9216   109.6679
 58      0.0000     0.0000E+00    0.0000E+00    1.015200E+08  0.05000  1.700E-03    0   0.7096   age116_m72            0.0000     1.8259E-05    29.4861   1.6904   110.8900
 59      0.0000     0.0000E+00    0.0000E+00    2.861200E+08  0.05000  7.384E-04    0   0.6633   age125_m72            0.0000     1.8116E-05    29.3672   1.2305   112.3078
 60      0.0000     0.0000E+00    0.0000E+00    5.088000E+08  0.05000  3.819E-04    0   0.6372   age130_m72            0.0000     1.7743E-05    29.0980   0.7678   112.1304
 61      1.6592     7.9678E-01    9.0213E-01    9.047900E+08  0.05000  1.676E-04    0   0.6110   age135_m72            0.0000     1.7937E-05    28.9410   0.0872   108.9637
 62     38.8047     3.5343E+01    3.8470E+01    1.434000E+09  0.05000  8.837E-05    0   0.5874   age139_m72            0.0000     1.8015E-05    28.7725  -0.3688   108.3784
 63      0.0000     0.0000E+00    0.0000E+00    2.500000E+09  0.05000  4.233E-05    0   0.5598   age150_m72            0.0000     1.8750E-05    28.9561  -0.6443   105.3207
 64      2.3945     1.3430E+01    1.3063E+01    6.250000E+09  0.05000  1.435E-05    0   0.5249   age166_m72            0.0000     1.9383E-05    29.4981  -1.0000    99.9463
 65      0.0000     0.0000E+00    0.0000E+00    1.300000E+10  0.05000  6.513E-06    0   0.5036   age193_m72            0.0000     2.0616E-05    31.9263  -1.0000    90.7435
 66      0.0000     0.0000E+00    0.0000E+00    1.800000E+10  0.05000  4.527E-06    0   0.4945   age213_m72            0.0000     2.1441E-05    33.1309  -1.0000    84.9667


## Synthesis Results - Average & Chains ##

# j      x_j: min, <> & last-chain-values for 1 ...  7 chains
  1      0.0000      1.5653      0.5297      0.0000      0.1407      0.4204      0.3489      0.0000      0.0952
  2      0.6707      1.2882      0.0000      0.4917      0.8118      0.0952      0.7767      0.9023      0.0000
  3      0.0000      1.1071      0.1351      0.0077      0.0260      0.0903      0.6716      0.0000      0.1193
  4      0.0000      1.1841      0.4193      1.2389      0.0000      0.1875      0.0000      0.0000      0.5790
  5      0.0000      1.1496      0.7260      0.0000      0.0000      0.0000      0.0479      0.0000      0.0000
  6      0.0000      1.0535      0.0638      0.3942      0.0476      0.6503      0.0000      0.0000      0.0720
  7     10.7981      0.8912      1.0994      0.3861      0.0351      1.4112      0.0206      0.0000      0.2018
  8      0.0000      1.1312      0.0000      0.0919      0.0349      0.2018      0.1185      0.0000      0.1723
  9      5.9151      1.2950      0.1303      0.5069      0.0497      0.0193      0.5015      0.0000      0.0350
 10      0.0000      1.0968      0.6124      0.0000      0.0780      0.1002      0.0487      0.0000      0.0000
 11      0.0000      1.0921      0.8017      0.9447      0.1571      0.8125      0.3531      0.0000      0.0000
 12      0.0000      1.0518      0.0000      0.0000      0.0009      0.1829      0.5627      0.0000      0.0329
 13      0.0000      0.8552      0.0000      0.0000      0.0514      0.1160      0.0000      0.0000      0.0000
 14      0.0000      0.8843      0.6777      0.0686      0.3366      0.0270      0.0000      0.0000      0.0412
 15      0.0000      1.4698      0.0000      0.0000      0.1514      0.0000      0.2970      0.0000      0.0000
 16     12.0445      1.2070      1.8515      0.3735      0.0000      0.2632      1.2416      0.2687      0.1351
 17      0.0000      1.2948      0.0000      0.1510      0.1596      0.1036      0.0000      0.0000      0.0000
 18      0.0000      1.2290      0.0821      0.2532      0.0000      0.0464      0.0664      0.0000      0.0557
 19     15.0604      1.6702      0.0000      0.5429      0.2214      0.5439      0.0892      0.3632      0.0000
 20      0.0000      1.0553      0.5066      0.0037      0.5133      0.2689      0.0000      0.4385      0.3267
 21      0.0000      1.2305      1.3501      0.0000      0.1753      0.3208      0.2286      0.0000      0.0643
 22      0.0000      1.2389      0.0000      0.1154      0.0199      0.0000      0.6951      0.0000      0.0000
 23      0.0000      1.3866      0.9926      0.0000      0.0000      0.0000      0.0000      0.0000      0.1928
 24      0.0000      1.2813      1.8874      0.3076      0.0000      0.0599      0.0000      0.0000      0.0000
 25      0.0000      1.1614      0.0000      0.0000      0.0000      0.6830      0.1819      0.0000      0.0634
 26      0.0000      1.0151      1.1232      0.0328      0.0124      0.4097      0.3799      0.2249      0.0190
 27      0.0000      0.8909      0.4323      0.0000      0.1201      0.2663      0.3828      0.0000      0.0000
 28      0.0000      0.9115      0.0000      0.0000      0.1593      0.2311      0.1269      0.0000      0.0114
 29      3.4565      1.3476      0.0000      0.3747      0.2175      0.1039      0.0000      0.0000      0.0669
 30      0.0000      0.9369      0.5442      0.1365      0.0000      0.2974      0.0000      0.0000      0.0000
 31      0.0000      1.1415      0.4951      0.3334      0.0920      0.6588      0.0000      0.0000      0.0000
 32      0.0000      1.1966      1.6468      0.1365      0.1680      1.0671      0.0000      0.0000      0.0127
 33      0.0000      1.2484      0.9581      0.3789      0.1489      0.0680      0.2984      0.9824      0.1256
 34      0.0000      1.1068      1.1059      0.0577      0.1269      0.2238      0.0000      0.0000      0.0180
 35      0.0000      1.1592      0.0000      0.0000      0.1237      0.2565      0.5096      0.0000      0.0000
 36      0.0000      1.1230      0.9638      0.0000      0.5246      0.5220      0.8391      0.6398      0.0401
 37      0.0000      1.8997      1.2671      2.5057      2.4441      2.5756      2.2490      2.4130      2.5022
 38      5.7969      0.9742      0.2313      0.5626      0.1090      0.0000      0.0000      0.0000      0.0000
 39      0.0000      0.9139      0.6892      0.0000      0.0000      0.0000      0.0000      0.0000      0.0934
 40      0.0000      0.8860      0.0000      0.8202      0.3060      0.7321      0.3964      0.8133      0.4283
 41      0.0000      1.4654      0.0604      0.7174      0.8495      0.6980      1.3534      0.6750      0.1850
 42      0.0000      1.1086      1.5605      0.0000      0.0089      0.0004      0.2350      0.0000      0.0594
 43      0.0000      1.2641      0.2319      0.0000      0.0637      0.0147      0.0000      0.3513      0.6035
 44      0.0000      6.9359     12.3491     15.4679     16.9148     14.2537     15.5233     18.4621     17.2407
 45      0.0000      2.0224      0.0000      0.0000      0.0601      1.1868      0.1426      0.0000      0.0428
 46      0.0000      1.3927      0.0609      0.0000      0.0013      0.0734      0.2736      0.0000      0.2036
 47      0.0000      0.7229      0.0000      0.1297      0.2207      0.0000      0.2337      0.0000      0.0483
 48      0.0000      0.9574      0.0000      0.6417      0.0161      0.0000      0.0060      0.0000      0.3690
 49      0.0000      0.8446      0.0000      0.1962      0.0940      0.2877      0.8381      0.0000      0.1661
 50      0.0000      0.9867      0.0000      0.3105      0.2095      0.4161      0.6719      0.5013      0.4451
 51      1.4212      5.9671     12.7448     15.6266     17.7578     16.1549     14.9572     18.1313     16.6732
 52     12.0444      2.0190      3.7517      3.8373      3.6548      4.3095      3.7877      4.1120      3.7931
 53      0.0000      1.0375      0.0000      0.0332      0.0193      0.0030      0.3509      0.0000      0.0394
 54      0.0000      1.0009      0.0205      0.6019      0.0000      0.8073      0.0515      0.0000      0.0163
 55      0.0000      1.3048      1.2129      1.3988      1.1912      1.3198      1.3950      0.9315      1.2185
 56      0.2779      1.3371      0.5731      0.9145      1.5801      0.5793      2.2472      1.0395      1.5884
 57      1.2287      1.4987      1.1681      0.3313      1.0074      0.5716      0.7885      1.0839      1.5817
 58      0.0000      1.4918      1.4682      1.0608      1.0640      1.6263      0.8315      0.7089      2.5807
 59      0.0000      4.0743      7.5279     10.3976     11.0439     10.0041     10.2007     10.3649     10.3021
 60      0.0000      1.3815      1.1297      0.0000      0.0062      0.0000      0.1997      0.0000      0.2186
 61      1.6592      1.2837      1.0154      0.5653      0.0000      0.1110      0.0000      0.0000      0.0000
 62     38.8047      0.9850      0.7840      0.4447      0.0596      0.0592      0.1424      0.0000      0.0457
 63      0.0000      1.1216      0.0031      0.0000      0.0000      0.0000      0.0000      0.0000      0.0298
 64      2.3945      1.2902      3.8742      0.6215      0.0838      0.9909      0.0000      0.0000      0.0000
 65      0.0000      6.3709     13.1560     16.5058     17.5589     16.0789     16.7393     17.7501     18.8257
 66      0.0000      8.4187     21.3657     24.2904     24.3763     22.1043     22.7720     24.2879     23.6723

# j      m_j: min, <> & last-chain-values for 1 ...  7 chains
  1  0.0000E+00  7.5301E-03  1.3039E-03  0.0000E+00  3.1328E-04  1.0052E-03  8.0813E-04  0.0000E+00  2.1059E-04
  2  2.4962E-03  1.6918E-03  0.0000E+00  3.0137E-04  4.9329E-04  6.2114E-05  4.9114E-04  5.4391E-04  0.0000E+00
  3  0.0000E+00  2.1773E-03  1.3592E-04  7.0769E-06  2.3691E-05  8.8296E-05  6.3604E-04  0.0000E+00  1.0787E-04
  4  0.0000E+00  2.1930E-03  3.9730E-04  1.0708E-03  0.0000E+00  1.7261E-04  0.0000E+00  0.0000E+00  4.9302E-04
  5  0.0000E+00  4.0557E-03  1.3106E-03  0.0000E+00  0.0000E+00  0.0000E+00  8.1333E-05  0.0000E+00  0.0000E+00
  6  0.0000E+00  6.0286E-03  1.8679E-04  1.0528E-03  1.2599E-04  1.8496E-03  0.0000E+00  0.0000E+00  1.8947E-04
  7  2.5070E-01  7.3016E-03  4.6087E-03  1.4764E-03  1.3321E-04  5.7461E-03  8.1174E-05  0.0000E+00  7.6030E-04
  8  0.0000E+00  1.2809E-02  0.0000E+00  4.8575E-04  1.8307E-04  1.1357E-03  6.4593E-04  0.0000E+00  8.9684E-04
  9  2.1725E-01  1.6783E-02  8.6430E-04  3.0657E-03  2.9775E-04  1.2454E-04  3.1293E-03  0.0000E+00  2.0843E-04
 10  0.0000E+00  1.8673E-02  5.3345E-03  0.0000E+00  6.1441E-04  8.4807E-04  3.9916E-04  0.0000E+00  0.0000E+00
 11  0.0000E+00  3.4960E-02  1.3130E-02  1.4113E-02  2.3267E-03  1.2926E-02  5.4429E-03  0.0000E+00  0.0000E+00
 12  0.0000E+00  5.3407E-02  0.0000E+00  0.0000E+00  2.1969E-05  4.6165E-03  1.3757E-02  0.0000E+00  7.6763E-04
 13  0.0000E+00  1.2240E-01  0.0000E+00  0.0000E+00  3.4013E-03  8.2502E-03  0.0000E+00  0.0000E+00  0.0000E+00
 14  0.0000E+00  4.2451E-01  1.6646E-01  1.5365E-02  7.4774E-02  6.4389E-03  0.0000E+00  0.0000E+00  9.0851E-03
 15  0.0000E+00  1.1487E+00  0.0000E+00  0.0000E+00  5.4732E-02  0.0000E+00  1.1176E-01  0.0000E+00  0.0000E+00
 16  4.5103E+01  1.5949E+00  1.2518E+00  2.3031E-01  0.0000E+00  1.7288E-01  7.8998E-01  1.6297E-01  8.2055E-02
 17  0.0000E+00  2.2194E+00  0.0000E+00  1.2083E-01  1.2655E-01  8.8277E-02  0.0000E+00  0.0000E+00  0.0000E+00
 18  0.0000E+00  5.2246E-03  1.7855E-04  5.0240E-04  0.0000E+00  9.8121E-05  1.3593E-04  0.0000E+00  1.0896E-04
 19  7.2822E-02  2.8498E-03  0.0000E+00  4.3231E-04  1.7476E-04  4.6121E-04  7.3262E-05  2.8446E-04  0.0000E+00
 20  0.0000E+00  1.9658E-03  4.8288E-04  3.2589E-06  4.4239E-04  2.4899E-04  0.0000E+00  3.7492E-04  2.7983E-04
 21  0.0000E+00  2.7823E-03  1.5620E-03  0.0000E+00  1.8344E-04  3.6054E-04  2.4893E-04  0.0000E+00  6.6820E-05
 22  0.0000E+00  4.7369E-03  0.0000E+00  2.0590E-04  3.5182E-05  0.0000E+00  1.2797E-03  0.0000E+00  0.0000E+00
 23  0.0000E+00  7.1592E-03  2.6224E-03  0.0000E+00  0.0000E+00  0.0000E+00  0.0000E+00  0.0000E+00  4.5779E-04
 24  0.0000E+00  9.8429E-03  7.4185E-03  1.1028E-03  0.0000E+00  2.2887E-04  0.0000E+00  0.0000E+00  0.0000E+00
 25  0.0000E+00  1.2302E-02  0.0000E+00  0.0000E+00  0.0000E+00  3.5953E-03  9.2789E-04  0.0000E+00  3.0895E-04
 26  0.0000E+00  1.7973E-02  1.0175E-02  2.7088E-04  1.0187E-04  3.6052E-03  3.2383E-03  1.8275E-03  1.5469E-04
 27  0.0000E+00  3.1573E-02  7.8380E-03  0.0000E+00  1.9697E-03  4.6911E-03  6.5319E-03  0.0000E+00  0.0000E+00
 28  0.0000E+00  9.3743E-02  0.0000E+00  0.0000E+00  7.5811E-03  1.1814E-02  6.2826E-03  0.0000E+00  5.3770E-04
 29  1.7553E+00  2.4148E-01  0.0000E+00  3.1338E-02  1.8035E-02  9.2533E-03  0.0000E+00  0.0000E+00  5.5098E-03
 30  0.0000E+00  3.5076E-01  1.0426E-01  2.3849E-02  0.0000E+00  5.5334E-02  0.0000E+00  0.0000E+00  0.0000E+00
 31  0.0000E+00  7.5177E-01  1.6684E-01  1.0248E-01  2.8034E-02  2.1564E-01  0.0000E+00  0.0000E+00  0.0000E+00
 32  0.0000E+00  1.0604E+00  7.4669E-01  5.6441E-02  6.8876E-02  4.6999E-01  0.0000E+00  0.0000E+00  5.1944E-03
 33  0.0000E+00  2.4490E+00  9.6172E-01  3.4693E-01  1.3519E-01  6.6256E-02  2.8187E-01  8.8457E-01  1.1324E-01
 34  0.0000E+00  2.9403E+00  1.5032E+00  7.1483E-02  1.5603E-01  2.9548E-01  0.0000E+00  0.0000E+00  2.2045E-02
 35  0.0000E+00  3.9514E-03  0.0000E+00  0.0000E+00  1.9508E-04  4.3451E-04  8.3637E-04  0.0000E+00  0.0000E+00
 36  0.0000E+00  1.5488E-03  6.8010E-04  0.0000E+00  3.3478E-04  3.5780E-04  5.5723E-04  4.0500E-04  2.5444E-05
 37  0.0000E+00  2.8337E-03  9.6715E-04  1.7443E-03  1.6869E-03  1.9095E-03  1.6154E-03  1.6522E-03  1.7162E-03
 38  6.6387E-02  3.9369E-03  4.7830E-04  1.0610E-03  2.0381E-04  0.0000E+00  0.0000E+00  0.0000E+00  0.0000E+00
 39  0.0000E+00  5.3175E-03  2.0519E-03  0.0000E+00  0.0000E+00  0.0000E+00  0.0000E+00  0.0000E+00  2.4989E-04
 40  0.0000E+00  8.3326E-03  0.0000E+00  3.6003E-03  1.3317E-03  3.4222E-03  1.7953E-03  3.5109E-03  1.8519E-03
 41  0.0000E+00  2.1432E-02  4.5186E-04  4.8969E-03  5.7490E-03  5.0741E-03  9.5312E-03  4.5312E-03  1.2441E-03
 42  0.0000E+00  2.9770E-02  2.1442E-02  0.0000E+00  1.1037E-04  5.9621E-06  3.0389E-03  0.0000E+00  7.3314E-04
 43  0.0000E+00  4.9558E-02  4.6527E-03  0.0000E+00  1.1564E-03  2.8729E-04  0.0000E+00  6.3211E-03  1.0878E-02
 44  0.0000E+00  4.6819E-01  4.2653E-01  4.8728E-01  5.2830E-01  4.7821E-01  5.0456E-01  5.7203E-01  5.3510E-01
 45  0.0000E+00  2.7087E-01  0.0000E+00  0.0000E+00  3.7248E-03  7.9004E-02  9.1979E-03  0.0000E+00  2.6384E-03
 46  0.0000E+00  3.4287E-01  7.6671E-03  0.0000E+00  1.4483E-04  8.9797E-03  3.2430E-02  0.0000E+00  2.3050E-02
 47  0.0000E+00  3.6061E-01  0.0000E+00  3.0195E-02  5.0938E-02  0.0000E+00  5.6125E-02  0.0000E+00  1.1076E-02
 48  0.0000E+00  8.4229E-01  0.0000E+00  2.6346E-01  6.5351E-03  0.0000E+00  2.5524E-03  0.0000E+00  1.4926E-01
 49  0.0000E+00  1.6887E+00  0.0000E+00  1.8313E-01  8.6953E-02  2.8588E-01  8.0689E-01  0.0000E+00  1.5269E-01
 50  0.0000E+00  3.6541E+00  0.0000E+00  5.3659E-01  3.5891E-01  7.6580E-01  1.1981E+00  8.5220E-01  7.5792E-01
 51  8.1762E-03  1.2113E-02  1.3238E-02  1.4805E-02  1.6680E-02  1.6300E-02  1.4620E-02  1.6895E-02  1.5563E-02
 52  3.5509E-02  2.1004E-03  1.9970E-03  1.8630E-03  1.7592E-03  2.2282E-03  1.8973E-03  1.9635E-03  1.8143E-03
 53  0.0000E+00  1.6259E-03  0.0000E+00  2.4268E-05  1.4021E-05  2.3463E-06  2.6477E-04  0.0000E+00  2.8362E-05
 54  0.0000E+00  3.2137E-03  3.3615E-05  9.0193E-04  0.0000E+00  1.2884E-03  7.9607E-05  0.0000E+00  2.4080E-05
 55  0.0000E+00  6.4508E-03  3.0682E-03  3.2273E-03  2.7249E-03  3.2431E-03  3.3209E-03  2.1139E-03  2.7698E-03
 56  7.7052E-03  1.3084E-02  2.8695E-03  4.1763E-03  7.1539E-03  2.8175E-03  1.0588E-02  4.6689E-03  7.1467E-03
 57  4.5222E-02  1.9465E-02  7.7627E-03  2.0079E-03  6.0539E-03  3.6896E-03  4.9309E-03  6.4618E-03  9.4451E-03
 58  0.0000E+00  3.2771E-02  1.6503E-02  1.0875E-02  1.0815E-02  1.7757E-02  8.7952E-03  7.1485E-03  2.6067E-02
 59  0.0000E+00  1.9262E-01  1.8210E-01  2.2941E-01  2.4158E-01  2.3507E-01  2.3221E-01  2.2492E-01  2.2394E-01
 60  0.0000E+00  1.2131E-01  5.0758E-02  0.0000E+00  2.5351E-04  0.0000E+00  8.4441E-03  0.0000E+00  8.8251E-03
 61  9.0213E-01  2.4630E-01  9.9684E-02  5.0619E-02  0.0000E+00  1.0587E-02  0.0000E+00  0.0000E+00  0.0000E+00
 62  3.8470E+01  3.4457E-01  1.4034E-01  7.2607E-02  9.6540E-03  1.0289E-02  2.3993E-02  0.0000E+00  7.3523E-03
 63  0.0000E+00  7.8061E-01  1.1211E-03  0.0000E+00  0.0000E+00  0.0000E+00  0.0000E+00  0.0000E+00  9.5348E-03
 64  1.3063E+01  2.4838E+00  3.8161E+00  5.5836E-01  7.4607E-02  9.4804E-01  0.0000E+00  0.0000E+00  0.0000E+00
 65  0.0000E+00  2.5926E+01  2.7393E+01  3.1347E+01  3.3062E+01  3.2520E+01  3.2800E+01  3.3155E+01  3.5224E+01
 66  0.0000E+00  4.8398E+01  6.2848E+01  6.5169E+01  6.4840E+01  6.3158E+01  6.3036E+01  6.4090E+01  6.2572E+01

# AV, chi2 & Mass for <> & i_chain = 1 ...  7 solutions
AV       0.3590     -0.5832     -0.4734     -0.4049     -0.5264     -0.4083     -0.4578     -0.5255     -0.5280
chi2 1.7755E-05  3.9867E-05  2.1761E-05  2.0380E-05  2.2796E-05  2.1498E-05  2.2109E-05  2.2638E-05  2.2545E-05
Mass 1.0322E-13  8.2520E-14  1.8689E-13  2.2466E-13  1.9249E-13  2.0999E-13  2.0281E-13  1.9427E-13  1.9329E-13
 209.17                                  [v0_min (km/s) before EX0s...]
   0.01                                  [vd_min (km/s) before EX0s...]


## Synthetic spectrum (Best Model) ##l_obs f_obs f_syn wei
 3478    [Nl_obs]
 3741.00    0.41519   0.78159    0.000
 3742.00    0.27317   0.84248    0.000
 3743.00   -0.01667   0.87743    0.000
 3744.00   -0.12172   0.87868    0.000
 3745.00   -0.11911   0.85415    0.000
 3746.00   -0.06063   0.82578    0.000
 3747.00    0.02622   0.80037   -1.000
 3748.00   -0.16147   0.76651    0.000
 3749.00   -0.46988   0.72740    0.000
 3750.00   -0.22132   0.68060    0.000
 3751.00    0.23750   0.61340   -1.000
 3752.00    0.37876   0.56681   -1.000
 3753.00    0.41825   0.59079   -1.000
 3754.00    0.47423   0.66964   -1.000
 3755.00    0.53464   0.75040   -1.000
 3756.00    0.70031   0.81453   -1.000
 3757.00    0.88908   0.86955   -1.000
 3758.00    0.66733   0.90166   -1.000
 3759.00    0.37392   0.88655   -1.000
 3760.00    0.09418   0.83424   -1.000
 3761.00   -0.18374   0.79773    0.000
 3762.00    0.06316   0.80512   -1.000
 3763.00    0.35938   0.83309   -1.000
 3764.00    0.60285   0.85635   -1.000
 3765.00    0.84327   0.86597   -1.000
 3766.00    1.03498   0.86485   -1.000
 3767.00    1.22211   0.86369   -1.000
 3768.00    0.99556   0.85069   -1.000
 3769.00    0.78100   0.80725   -1.000
 3770.00    0.85780   0.76240   -1.000
 3771.00    0.91367   0.73151   -1.000
 3772.00    0.69535   0.68805   -1.000
 3773.00    0.49545   0.65210   -1.000
 3774.00    0.45732   0.67966   -1.000
 3775.00    0.46511   0.75324   -1.000
 3776.00    0.77070   0.81011   -1.000
 3777.00    0.99218   0.83746   -1.000
 3778.00    0.78793   0.85940   -1.000
 3779.00    0.63764   0.88779   -1.000
 3780.00    0.70823   0.91425   -1.000
 3781.00    0.81194   0.93712   -1.000
 3782.00    1.02800   0.96692   -1.000
 3783.00    1.06448   0.99267   -1.000
 3784.00    0.58732   0.99689   -1.000
 3785.00    0.14581   0.99445   -1.000
 3786.00   -0.20862   1.00172    0.000
 3787.00   -0.18391   1.00080    0.000
 3788.00    0.63989   0.96399   -1.000
 3789.00    1.21971   0.91237   -1.000
 3790.00    1.35265   0.88704   -1.000
 3791.00    1.35670   0.87722   -1.000
 3792.00    1.15446   0.86597   -1.000
 3793.00    1.05746   0.86298   -1.000
 3794.00    1.10831   0.86542   -1.000
 3795.00    1.10143   0.84903   -1.000
 3796.00    1.02321   0.80666   -1.000
 3797.00    0.99710   0.75630   -1.000
 3798.00    1.02777   0.70877   -1.000
 3799.00    0.84157   0.65186   -1.000
 3800.00    0.44697   0.59059   -1.000
 3801.00    0.13755   0.57869   -1.000
 3802.00   -0.09967   0.64193    0.000
 3803.00    0.04515   0.73450   -1.000
 3804.00    0.47507   0.80960   -1.000
 3805.00    0.67084   0.86787   -1.000
 3806.00    0.71312   0.91566   -1.000
 3807.00    0.63518   0.93600   -1.000
 3808.00    0.48825   0.92462   -1.000
 3809.00    0.53036   0.90311   -1.000
 3810.00    0.66694   0.90600   -1.000
 3811.00    0.55476   0.94267   -1.000
 3812.00    0.33501   0.98454   -1.000
 3813.00    0.40696   1.00596   -1.000
 3814.00    0.58709   0.99976   -1.000
 3815.00    0.59831   0.96352   -1.000
 3816.00    0.55642   0.91481   -1.000
 3817.00    0.46200   0.88366   -1.000
 3818.00    0.35381   0.87585   -1.000
 3819.00    0.23093   0.88998   -1.000
 3820.00    0.10490   0.90866   -1.000
 3821.00   -0.04365   0.88330    0.000
 3822.00   -0.19602   0.81854    0.000
 3823.00   -0.32492   0.79227    0.000
 3824.00   -0.45080   0.83880    0.000
 3825.00   -0.40434   0.89419    0.000
 3826.00   -0.34241   0.89332    0.000
 3827.00    0.04390   0.84927   -1.000
 3828.00    0.44763   0.81680   -1.000
 3829.00    0.63363   0.80789   -1.000
 3830.00    0.81291   0.80551   -1.000
 3831.00    0.79309   0.79980   -1.000
 3832.00    0.76073   0.79139   -1.000
 3833.00    0.44991   0.77391   -1.000
 3834.00    0.17775   0.72821   -1.000
 3835.00    0.38629   0.65994   -1.000
 3836.00    0.55893   0.59785   -1.000
 3837.00    0.42811   0.55269   -1.000
 3838.00    0.34335   0.53971   -1.000
 3839.00    0.54829   0.57205   -1.000
 3840.00    0.71074   0.61996   -1.000
 3841.00    0.66351   0.65945   -1.000
 3842.00    0.60119   0.69887   -1.000
 3843.00    0.47849   0.74252   -1.000
 3844.00    0.40647   0.79608   -1.000
 3845.00    0.50294   0.85293   -1.000
 3846.00    0.69355   0.88792   -1.000
 3847.00    1.14849   0.90300    0.000
 3848.00    1.48016   0.91050    0.000
 3849.00    1.51573   0.92171    0.000
 3850.00    1.43812   0.94032    0.000
 3851.00    1.12577   0.94183    0.000
 3852.00    0.84546   0.92003    0.000
 3853.00    0.62290   0.91272    0.000
 3854.00    0.49145   0.93854    0.000
 3855.00    0.50368   0.96141    0.000
 3856.00    0.63344   0.95726    0.000
 3857.00    0.92591   0.94257    0.000
 3858.00    1.04706   0.92556    0.000
 3859.00    0.95945   0.91667    0.000
 3860.00    0.79466   0.91950    0.000
 3861.00    0.54694   0.90201    0.000
 3862.00    0.57303   0.87366    0.000
 3863.00    0.85854   0.88208    0.000
 3864.00    0.92802   0.92575    0.000
 3865.00    0.81703   0.96297    0.000
 3866.00    0.77312   0.97442    0.000
 3867.00    0.77855   0.96808    0.000
 3868.00    0.83729   0.95568    0.000
 3869.00    0.93048   0.94450    0.000
 3870.00    0.82104   0.94009    0.000
 3871.00    0.59709   0.94673    0.000
 3872.00    0.53131   0.94855    0.000
 3873.00    0.54333   0.92331    0.000
 3874.00    0.55453   0.88048    0.000
 3875.00    0.56539   0.85479    0.000
 3876.00    0.73781   0.87627    0.000
 3877.00    0.96908   0.92233    0.000
 3878.00    0.77702   0.94589    0.000
 3879.00    0.45446   0.93120    0.000
 3880.00    0.55107   0.89073    0.000
 3881.00    0.75529   0.85828   -1.000
 3882.00    0.77478   0.86914   -1.000
 3883.00    0.75565   0.88853   -1.000
 3884.00    0.70933   0.86626   -1.000
 3885.00    0.65851   0.83226   -1.000
 3886.00    0.91786   0.82460   -1.000
 3887.00    1.21562   0.81178   -1.000
 3888.00    1.21984   0.75415   -1.000
 3889.00    1.19894   0.68195   -1.000
 3890.00    0.85126   0.62567   -1.000
 3891.00    0.48729   0.57810   -1.000
 3892.00    0.33518   0.56989   -1.000
 3893.00    0.19138   0.63293   -1.000
 3894.00    0.36030   0.72589   -1.000
 3895.00    0.53292   0.79523   -1.000
 3896.00    0.78105   0.82878   -1.000
 3897.00    1.01656   0.84117   -1.000
 3898.00    1.10269   0.85265   -1.000
 3899.00    1.15061   0.87953   -1.000
 3900.00    0.88728   0.90472   -1.000
 3901.00    0.66607   0.90281   -1.000
 3902.00    0.70217   0.89694   -1.000
 3903.00    0.72181   0.91716   -1.000
 3904.00    0.66225   0.94974   -1.000
 3905.00    0.60247   0.95412   -1.000
 3906.00    0.54179   0.93856   -1.000
 3907.00    0.52429   0.92928   -1.000
 3908.00    0.64757   0.91089   -1.000
 3909.00    0.77095   0.90514   -1.000
 3910.00    0.89462   0.93868   -1.000
 3911.00    1.06145   0.98173   -1.000
 3912.00    1.33019   1.00480   -1.000
 3913.00    1.49165   1.01173   -1.000
 3914.00    1.43415   1.01556   -1.000
 3915.00    1.36485   1.01295   -1.000
 3916.00    1.27459   0.99802   -1.000
 3917.00    1.17923   0.98810   -1.000
 3918.00    1.07596   0.98576   -1.000
 3919.00    0.99886   0.97461   -1.000
 3920.00    0.95748   0.96210   -1.000
 3921.00    0.95536   0.94521   -1.000
 3922.00    1.00040   0.91750   -1.000
 3923.00    0.93118   0.89512   -1.000
 3924.00    0.74094   0.89400   -1.000
 3925.00    0.69366   0.90925   -1.000
 3926.00    0.77993   0.91995   -1.000
 3927.00    0.89563   0.91760   -1.000
 3928.00    1.03559   0.89349   -1.000
 3929.00    0.92496   0.85555   -1.000
 3930.00    0.63268   0.82270   -1.000
 3931.00    0.65860   0.79060   -1.000
 3932.00    0.88702   0.75690   -1.000
 3933.00    0.71069   0.72298   -1.000
 3934.00    0.30909   0.68604   -1.000
 3935.00    0.05366   0.64723   -1.000
 3936.00   -0.13102   0.61744    0.000
 3937.00    0.07510   0.61700   -1.000
 3938.00    0.44461   0.64795   -1.000
 3939.00    0.93688   0.69423   -1.000
 3940.00    1.47306   0.74359   -1.000
 3941.00    1.37580   0.79111   -1.000
 3942.00    1.08708   0.83418   -1.000
 3943.00    1.10395   0.86358   -1.000
 3944.00    1.19758   0.87377   -1.000
 3945.00    0.85671   0.87414   -1.000
 3946.00    0.42724   0.86759   -1.000
 3947.00    0.49692   0.87107   -1.000
 3948.00    0.64653   0.90840   -1.000
 3949.00    0.69321   0.94930   -1.000
 3950.00    0.72761   0.94913   -1.000
 3951.00    0.91424   0.93218   -1.000
 3952.00    1.11325   0.94165   -1.000
 3953.00    1.30170   0.96669   -1.000
 3954.00    1.48966   0.97018   -1.000
 3955.00    1.11147   0.95155   -1.000
 3956.00    0.73785   0.95342   -1.000
 3957.00    0.97928   0.97609   -1.000
 3958.00    1.21940   0.96808   -1.000
 3959.00    1.43459   0.93201   -1.000
 3960.00    1.61341   0.91935    0.000
 3961.00    1.38241   0.93516    0.000
 3962.00    1.18961   0.93904    0.000
 3963.00    1.29707   0.89685    0.000
 3964.00    1.38143   0.82402    0.000
 3965.00    1.32880   0.77178    0.000
 3966.00    1.30072   0.74324    0.000
 3967.00    1.38801   0.70326    0.000
 3968.00    1.39643   0.64766    0.000
 3969.00    1.10262   0.58286    0.000
 3970.00    0.91919   0.51007    0.000
 3971.00    1.08858   0.44367    0.000
 3972.00    1.15035   0.40739    0.000
 3973.00    0.92064   0.42363    0.000
 3974.00    0.67663   0.49246    0.000
 3975.00    0.39941   0.57779    0.000
 3976.00    0.33755   0.65140    0.000
 3977.00    0.70825   0.71924    0.000
 3978.00    0.81511   0.78247    0.000
 3979.00    0.46047   0.82823    0.000
 3980.00    0.38603   0.86610    0.000
 3981.00    0.74054   0.90994   -1.000
 3982.00    0.96920   0.95255   -1.000
 3983.00    1.02862   0.97574   -1.000
 3984.00    1.01422   0.96751   -1.000
 3985.00    0.91242   0.94952   -1.000
 3986.00    0.88295   0.95397   -1.000
 3987.00    0.92901   0.97572   -1.000
 3988.00    1.01767   0.99549   -1.000
 3989.00    1.14555   1.00359   -1.000
 3990.00    1.49096   1.01352   -1.000
 3991.00    2.01296   1.03081   -1.000
 3992.00    1.81364   1.02722   -1.000
 3993.00    1.09895   1.01794   -1.000
 3994.00    0.91248   1.03229   -1.000
 3995.00    1.05720   1.05447   -1.000
 3996.00    0.95877   1.06194   -1.000
 3997.00    0.72709   1.04699   -1.000
 3998.00    0.70162   1.02399   -1.000
 3999.00    0.77436   1.00290   -1.000
 4000.00    0.68812   0.98711   -1.000
 4001.00    0.53652   0.99782   -1.000
 4002.00    0.89235   1.04159   -1.000
 4003.00    1.42640   1.07600   -1.000
 4004.00    1.40269   1.07862   -1.000
 4005.00    1.21372   1.07861   -1.000
 4006.00    1.08994   1.07667   -1.000
 4007.00    0.98218   1.03650   -1.000
 4008.00    1.09029   0.97842   -1.000
 4009.00    1.24132   0.97131   -1.000
 4010.00    1.21907   1.01112   -1.000
 4011.00    1.16990   1.03672   -1.000
 4012.00    1.00000   1.03865   -1.000
 4013.00    0.81622   1.04765   -1.000
 4014.00    0.65584   1.06511   -1.000
 4015.00    0.49726   1.07197   -1.000
 4016.00    0.67480   1.07439   -1.000
 4017.00    0.86650   1.07990   -1.000
 4018.00    0.92642   1.09165   -1.000
 4019.00    0.98905   1.09362   -1.000
 4020.00    1.22279   1.07774   -1.000
 4021.00    1.44417   1.08046   -1.000
 4022.00    1.44761   1.10735   -1.000
 4023.00    1.44927   1.11128   -1.000
 4024.00    1.43189   1.08929   -1.000
 4025.00    1.39826   1.07081   -1.000
 4026.00    1.24129   1.04965   -1.000
 4027.00    1.08480   1.01106   -1.000
 4028.00    0.93115   0.98468   -1.000
 4029.00    0.84211   1.00432   -1.000
 4030.00    1.04921   1.05374   -1.000
 4031.00    1.11468   1.08650   -1.000
 4032.00    0.64891   1.06956   -1.000
 4033.00    0.32804   1.01236   -1.000
 4034.00    0.46140   0.97037   -1.000
 4035.00    0.54579   0.96637   -1.000
 4036.00    0.49988   0.97519   -1.000
 4037.00    0.67940   0.99588   -1.000
 4038.00    1.37370   1.03198   -1.000
 4039.00    1.58043   1.08116   -1.000
 4040.00    0.82331   1.12624   -1.000
 4041.00    0.37106   1.14121   -1.000
 4042.00    0.44400   1.12363   -1.000
 4043.00    0.60222   1.09281   -1.000
 4044.00    0.88908   1.08031   -1.000
 4045.00    1.09063   1.09409   -1.000
 4046.00    1.17909   1.08243   -1.000
 4047.00    1.14770   1.01380   -1.000
 4048.00    0.97638   0.94136   -1.000
 4049.00    0.91965   0.94650   -1.000
 4050.00    0.98090   1.02655   -1.000
 4051.00    1.17577   1.08559   -1.000
 4052.00    1.49199   1.09700   -1.000
 4053.00    1.49586   1.10452   -1.000
 4054.00    1.24972   1.10513   -1.000
 4055.00    1.19917   1.08493   -1.000
 4056.00    1.28635   1.05803   -1.000
 4057.00    1.22645   1.03600   -1.000
 4058.00    1.07572   1.03019   -1.000
 4059.00    0.87097   1.03634   -1.000
 4060.00    0.63708   1.02787   -1.000
 4061.00    0.60001   1.02110   -1.000
 4062.00    0.65518   1.04648   -1.000
 4063.00    0.70990   1.08028   -1.000
 4064.00    0.76444   1.07874   -1.000
 4065.00    0.67568   1.02539   -1.000
 4066.00    0.53751   0.96184   -1.000
 4067.00    0.60312   0.96274   -1.000
 4068.00    0.72792   1.01683   -1.000
 4069.00    1.09357   1.03515   -1.000
 4070.00    1.51708   1.02220   -1.000
 4071.00    1.40003   1.04118   -1.000
 4072.00    1.17824   1.07266   -1.000
 4073.00    1.06158   1.05351   -1.000
 4074.00    0.96076   0.99717   -1.000
 4075.00    1.04347   0.98570   -1.000
 4076.00    1.14648   1.03421   -1.000
 4077.00    0.89895   1.05933   -1.000
 4078.00    0.62575   1.02353   -1.000
 4079.00    0.55025   0.96231   -1.000
 4080.00    0.48232   0.92193   -1.000
 4081.00    0.65546   0.93577   -1.000
 4082.00    0.83364   0.99130   -1.000
 4083.00    1.15101   1.05156   -1.000
 4084.00    1.43331   1.08934   -1.000
 4085.00    1.13768   1.08247   -1.000
 4086.00    0.85242   1.04709   -1.000
 4087.00    0.67379   1.02079   -1.000
 4088.00    0.56336   1.01508   -1.000
 4089.00    0.95331   1.03148   -1.000
 4090.00    1.25962   1.06432   -1.000
 4091.00    1.09675   1.08800   -1.000
 4092.00    0.94983   1.08671    0.000
 4093.00    0.87426   1.07405    0.000
 4094.00    0.86516   1.05898    0.000
 4095.00    1.10011   1.04113    0.000
 4096.00    1.19203   1.03724    0.000
 4097.00    0.84401   1.02869    0.000
 4098.00    0.69006   0.98018    0.000
 4099.00    1.04329   0.92186    0.000
 4100.00    1.27000   0.88765    0.000
 4101.00    1.21258   0.86266    0.000
 4102.00    1.20053   0.81861    0.000
 4103.00    1.27677   0.73419    0.000
 4104.00    1.28215   0.64101    0.000
 4105.00    1.16729   0.62939    0.000
 4106.00    0.90530   0.70990    0.000
 4107.00    0.42459   0.80606    0.000
 4108.00    0.33393   0.88225    0.000
 4109.00    0.75292   0.93679    0.000
 4110.00    1.15579   0.96236    0.000
 4111.00    1.54009   0.96904    0.000
 4112.00    1.52424   0.96561    0.000
 4113.00    1.10220   0.96184   -1.000
 4114.00    0.77230   0.97142   -1.000
 4115.00    0.52490   0.99499   -1.000
 4116.00    0.37092   1.02453   -1.000
 4117.00    0.29064   1.04718   -1.000
 4118.00    0.39063   1.05803   -1.000
 4119.00    0.61570   1.06685   -1.000
 4120.00    1.01400   1.06039   -1.000
 4121.00    1.51772   1.02182   -1.000
 4122.00    1.43295   0.99022   -1.000
 4123.00    1.03555   0.99561   -1.000
 4124.00    0.81496   1.00739   -1.000
 4125.00    0.67589   1.01139   -1.000
 4126.00    0.87185   1.02306   -1.000
 4127.00    1.20084   1.05023   -1.000
 4128.00    1.02561   1.07153   -1.000
 4129.00    0.67974   1.06134   -1.000
 4130.00    0.64053   1.03028   -1.000
 4131.00    0.68856   1.00528   -1.000
 4132.00    0.87020   1.00567   -1.000
 4133.00    1.08322   1.01036   -1.000
 4134.00    1.00353   0.99398   -1.000
 4135.00    0.86859   0.96663   -1.000
 4136.00    0.67708   0.96542   -1.000
 4137.00    0.47730   0.99254   -1.000
 4138.00    0.59621   1.03732   -1.000
 4139.00    0.74900   1.07481   -1.000
 4140.00    0.71996   1.07762   -1.000
 4141.00    0.67835   1.08476   -1.000
 4142.00    0.80324   1.10347   -1.000
 4143.00    0.93388   1.10549   -1.000
 4144.00    0.93049   1.07620   -1.000
 4145.00    0.93065   1.00030   -1.000
 4146.00    1.05720   0.91571   -1.000
 4147.00    1.16324   0.91196   -1.000
 4148.00    0.95229   0.98712   -1.000
 4149.00    0.75554   1.04686   -1.000
 4150.00    0.69879   1.06440   -1.000
 4151.00    0.64893   1.05962   -1.000
 4152.00    0.64796   1.03878   -1.000
 4153.00    0.69282   1.02501   -1.000
 4154.00    0.98780   1.03247   -1.000
 4155.00    1.14154   1.03503   -1.000
 4156.00    0.67795   1.02370   -1.000
 4157.00    0.35573   1.00766   -1.000
 4158.00    0.54195   1.00264   -1.000
 4159.00    0.64207   1.00509   -1.000
 4160.00    0.48236   1.01551   -1.000
 4161.00    0.22998   1.04485   -1.000
 4162.00   -0.26036   1.06873    0.000
 4163.00   -0.46760   1.07027    0.000
 4164.00   -0.04949   1.06266    0.000
 4165.00    0.35009   1.07497   -1.000
 4166.00    0.71416   1.09081   -1.000
 4167.00    0.95328   1.08427   -1.000
 4168.00    0.98354   1.07572   -1.000
 4169.00    1.03600   1.06406   -1.000
 4170.00    1.12096   1.04165   -1.000
 4171.00    1.15924   1.03741   -1.000
 4172.00    1.13740   1.05911   -1.000
 4173.00    0.93288   1.06352   -1.000
 4174.00    0.52107   1.02136   -1.000
 4175.00    0.29677   0.95668   -1.000
 4176.00    0.26016   0.92901   -1.000
 4177.00    0.49037   0.95332   -1.000
 4178.00    0.95612   0.99110   -1.000
 4179.00    1.17723   1.00692   -1.000
 4180.00    1.20806   0.99395   -1.000
 4181.00    1.18426   0.98167   -1.000
 4182.00    1.12312   1.00369   -1.000
 4183.00    0.98472   1.03899   -1.000
 4184.00    0.80001   1.03946   -1.000
 4185.00    0.66985   1.01627   -1.000
 4186.00    0.56823   1.01459   -1.000
 4187.00    0.59618   1.03260   -1.000
 4188.00    0.68292   1.05436   -1.000
 4189.00    0.72954   1.04294   -1.000
 4190.00    0.76050   0.99822   -1.000
 4191.00    0.96491   0.99496   -1.000
 4192.00    1.22693   1.03365   -1.000
 4193.00    1.06831   1.04992   -1.000
 4194.00    0.79244   1.04076   -1.000
 4195.00    0.73813   1.05736   -1.000
 4196.00    0.73466   1.09803   -1.000
 4197.00    0.47564   1.09840   -1.000
 4198.00    0.16966   1.05005   -1.000
 4199.00    0.46044   1.00799   -1.000
 4200.00    0.83561   0.98891   -1.000
 4201.00    0.88730   0.96339   -1.000
 4202.00    0.90602   0.95622   -1.000
 4203.00    0.88364   0.98144   -1.000
 4204.00    0.85858   0.98580   -1.000
 4205.00    0.73531   0.97495    0.045
 4206.00    0.60932   0.99120    0.022
 4207.00    0.67867   1.01036    0.022
 4208.00    0.74905   1.01856    0.022
 4209.00    0.84994   1.03989    0.022
 4210.00    0.96844   1.06484    0.023
 4211.00    1.34338   1.07760    0.023
 4212.00    1.67809   1.06771    0.023
 4213.00    1.63236   1.05280    0.023
 4214.00    1.58883   1.06390    0.023
 4215.00    1.56047   1.08567    0.023
 4216.00    1.51613   1.08553    0.023
 4217.00    1.38691   1.05301    0.023
 4218.00    1.24388   0.99863    0.023
 4219.00    1.04189   0.98380    0.023
 4220.00    0.84521   1.03808    0.023
 4221.00    0.66726   1.08939    0.023
 4222.00    0.57123   1.10009    0.022
 4223.00    0.71776   1.10106    0.022
 4224.00    0.80454   1.10397    0.022
 4225.00    0.74056   1.07898    0.023
 4226.00    0.66745   1.03480    0.023
 4227.00    0.57451   0.98544    0.023
 4228.00    0.56216   0.91647    0.022
 4229.00    0.70180   0.84260    0.022
 4230.00    0.83599   0.83221    0.022
 4231.00    0.96123   0.92468    0.022
 4232.00    1.04563   1.02997    0.022
 4233.00    1.07108   1.07887    0.022
 4234.00    0.94209   1.09132    0.022
 4235.00    0.61705   1.06200    0.021
 4236.00    0.62581   1.01403    0.021
 4237.00    1.00806   1.00906    0.022
 4238.00    1.34151   1.01548    0.022
 4239.00    1.62680   0.99800    0.021
 4240.00    1.55935   1.00378    0.021
 4241.00    1.18492   1.01882    0.021
 4242.00    1.07344   1.01773    0.021
 4243.00    1.16354   1.03058    0.021
 4244.00    1.06733   1.06240    0.022
 4245.00    0.84556   1.07366    0.022
 4246.00    0.64745   1.07761    0.022
 4247.00    0.46332   1.10654    0.022
 4248.00    0.54454   1.11427    0.022
 4249.00    0.76240   1.07173    0.022
 4250.00    0.61438   1.02594    0.022
 4251.00    0.30312   1.01642    0.022
 4252.00    0.58422   1.01655    0.023
 4253.00    1.09245   0.99138    0.023
 4254.00    1.48282   0.99406    0.023
 4255.00    1.83477   1.03623    0.022
 4256.00    1.71482   1.04056    0.022
 4257.00    1.46606   1.00506    0.023
 4258.00    1.11841   0.99896    0.022
 4259.00    0.74860   1.04341    0.022
 4260.00    0.88167   1.08046    0.022
 4261.00    1.10467   1.05763    0.022
 4262.00    0.88383   1.00610    0.022
 4263.00    0.60227   0.96535    0.022
 4264.00    0.85144   0.96753    0.022
 4265.00    1.15246   1.02750    0.022
 4266.00    1.07352   1.08940    0.022
 4267.00    0.97134   1.11439    0.021
 4268.00    1.04936   1.12091    0.021
 4269.00    1.13314   1.11168    0.021
 4270.00    1.39026   1.07398    0.021
 4271.00    1.62269   1.04452    0.021
 4272.00    1.20249   1.03404    0.021
 4273.00    0.79039   0.99799    0.020
 4274.00    0.48970   0.93140    0.021
 4275.00    0.25698   0.90659    0.021
 4276.00    0.64164   0.94126    0.021
 4277.00    0.99074   0.95558    0.021
 4278.00    1.10293   0.95953    0.021
 4279.00    1.11840   1.00702    0.021
 4280.00    0.63311   1.06478    0.021
 4281.00    0.33097   1.09267    0.021
 4282.00    0.79343   1.08075   -2.000
 4283.00    1.23465   1.04337   -2.000
 4284.00    1.60258   1.02798   -2.000
 4285.00    1.69066   1.02891   -2.000
 4286.00    0.96529   1.03208   -2.000
 4287.00    0.41857   1.03934   -2.000
 4288.00    0.31495   1.02525   -2.000
 4289.00    0.29533   1.00963   -2.000
 4290.00    0.45527   1.00964   -2.000
 4291.00    0.51931   0.98825   -2.000
 4292.00    0.40528   0.92776   -2.000
 4293.00    0.59442   0.88693   -2.000
 4294.00    1.27525   0.92346   -2.000
 4295.00    1.55579   0.99983   -2.000
 4296.00    1.26687   1.03759   -2.000
 4297.00    1.11661   1.01173   -2.000
 4298.00    1.13986   0.99187    0.021
 4299.00    1.18942   0.99741    0.021
 4300.00    1.26799   0.98566    0.022
 4301.00    1.14445   0.94614    0.022
 4302.00    0.82426   0.87642    0.021
 4303.00    0.67742   0.83704    0.021
 4304.00    0.67933   0.85822    0.022
 4305.00    0.88128   0.87216    0.023
 4306.00    1.23441   0.87576    0.024
 4307.00    1.22481   0.90304    0.025
 4308.00    0.97432   0.91537    0.024
 4309.00    0.68698   0.90294    0.024
 4310.00    0.37821   0.87614    0.024
 4311.00    0.68965   0.83993    0.023
 4312.00    1.31543   0.84152    0.022
 4313.00    1.60242   0.88751    0.021
 4314.00    1.74073   0.93857    0.020
 4315.00    1.43682   0.96459    0.020
 4316.00    0.96633   0.96603    0.020
 4317.00    0.73220   0.96312    0.020
 4318.00    0.57366   1.00056    0.020
 4319.00    0.91839   1.08658    0.020
 4320.00    1.39764   1.13960    0.021
 4321.00    1.21397   1.13671    0.021
 4322.00    0.88523   1.11813    0.020
 4323.00    0.68517   1.09519    0.021
 4324.00    0.50750   1.07256    0.021
 4325.00    0.94574   1.06835    0.021
 4326.00    1.46544   1.03923    0.021
 4327.00    1.33623   0.96274    0.021
 4328.00    1.14638   0.88144    0.021
 4329.00    1.09766   0.86832    0.021
 4330.00    1.05702   0.95316    0.000
 4331.00    1.02812   1.05420    0.000
 4332.00    1.00046   1.08955    0.000
 4333.00    1.08373   1.06032    0.000
 4334.00    1.16694   1.03374    0.000
 4335.00    1.24859   1.04174    0.000
 4336.00    1.36690   1.04607    0.000
 4337.00    1.96239   1.04400    0.000
 4338.00    2.41765   1.04420    0.000
 4339.00    1.64782   0.99783    0.000
 4340.00    0.93413   0.88324    0.000
 4341.00    0.58309   0.77469    0.000
 4342.00    0.36853   0.69940    0.000
 4343.00    0.84247   0.63125    0.000
 4344.00    1.25202   0.64542    0.000
 4345.00    1.39881   0.76000    0.000
 4346.00    1.45628   0.85245    0.000
 4347.00    1.21155   0.89143    0.000
 4348.00    1.01397   0.94090    0.000
 4349.00    0.95093   0.98651    0.000
 4350.00    1.00209   1.00573    0.000
 4351.00    1.33163   1.03754    0.021
 4352.00    1.46266   1.07620    0.020
 4353.00    1.17616   1.05474    0.020
 4354.00    1.05406   0.96375    0.020
 4355.00    1.23251   0.90942    0.020
 4356.00    1.35915   0.95383    0.020
 4357.00    1.40303   1.01715    0.020
 4358.00    1.32987   1.04664    0.020
 4359.00    1.09261   1.07860    0.020
 4360.00    1.08993   1.10372    0.020
 4361.00    1.37666   1.08042    0.020
 4362.00    1.38372   1.04153    0.020
 4363.00    1.08659   1.05176    0.020
 4364.00    1.03245   1.09868    0.020
 4365.00    1.21140   1.12527    0.020
 4366.00    1.30396   1.12681    0.020
 4367.00    1.32343   1.14188    0.019
 4368.00    1.23819   1.16226    0.019
 4369.00    1.07494   1.14299    0.019
 4370.00    1.20615   1.08673    0.019
 4371.00    1.53002   1.05060    0.019
 4372.00    1.54207   1.05721    0.020
 4373.00    1.37552   1.07048    0.020
 4374.00    1.30814   1.08099    0.020
 4375.00    1.29022   1.09122    0.019
 4376.00    1.29378   1.06896    0.019
 4377.00    1.30661   1.00714    0.019
 4378.00    1.26585   0.96887    0.019
 4379.00    1.20526   1.00513    0.019
 4380.00    1.11903   1.08029    0.019
 4381.00    1.02477   1.12386    0.019
 4382.00    1.06962   1.11716    0.019
 4383.00    1.15087   1.09613    0.019
 4384.00    1.14418   1.08188    0.019
 4385.00    1.11870   1.02545    0.019
 4386.00    1.02075   0.91040    0.018
 4387.00    0.91055   0.83490    0.018
 4388.00    1.01794   0.87290    0.018
 4389.00    1.15314   0.96448    0.019
 4390.00    1.14113   1.00575    0.019
 4391.00    1.11598   1.00153    0.019
 4392.00    1.18098   1.00719    0.018
 4393.00    1.25077   1.01363    0.018
 4394.00    1.22817   1.02247    0.019
 4395.00    1.20742   1.05550    0.019
 4396.00    1.48401   1.07312    0.019
 4397.00    1.74173   1.04309    0.019
 4398.00    1.58463   1.01373    0.019
 4399.00    1.43345   1.04991    0.019
 4400.00    1.35534   1.11426    0.019
 4401.00    1.27485   1.12497    0.019
 4402.00    1.17437   1.08280    0.019
 4403.00    1.11194   1.02708    0.019
 4404.00    1.28807   1.01899    0.019
 4405.00    1.39036   1.07219    0.019
 4406.00    1.12954   1.08196    0.019
 4407.00    0.95001   1.00690    0.019
 4408.00    1.09501   0.96009    0.019
 4409.00    1.23903   1.00050    0.018
 4410.00    1.37979   1.03140    0.019
 4411.00    1.53296   1.01282    0.019
 4412.00    1.72091   1.02323    0.019
 4413.00    1.77085   1.07771    0.019
 4414.00    1.49004   1.11847    0.019
 4415.00    1.25920   1.13901    0.019
 4416.00    1.13179   1.13873    0.019
 4417.00    1.00590   1.07648    0.019
 4418.00    0.88273   0.99393    0.019
 4419.00    0.92616   0.98110    0.019
 4420.00    1.23185   1.01620    0.019
 4421.00    1.46924   1.05779    0.019
 4422.00    1.61226   1.11175    0.019
 4423.00    1.52120   1.14392    0.019
 4424.00    1.14544   1.12232    0.019
 4425.00    0.99687   1.07320    0.019
 4426.00    1.09192   1.05410    0.019
 4427.00    0.99329   1.07721    0.019
 4428.00    0.71149   1.09229    0.019
 4429.00    0.75288   1.08453    0.019
 4430.00    1.06380   1.07717    0.019
 4431.00    1.20221   1.08965    0.019
 4432.00    1.21396   1.09571    0.019
 4433.00    1.07910   1.06642    0.019
 4434.00    0.84971   1.05834    0.019
 4435.00    0.93635   1.08501    0.019
 4436.00    1.20124   1.08081    0.019
 4437.00    1.23168   1.03360    0.019
 4438.00    1.14703   0.99158    0.019
 4439.00    1.00029   1.00677    0.019
 4440.00    0.82720   1.07132    0.019
 4441.00    0.80781   1.13315    0.019
 4442.00    0.84429   1.16568    0.019
 4443.00    0.96659   1.15176    0.019
 4444.00    1.11528   1.09579    0.019
 4445.00    1.18771   1.03201    0.019
 4446.00    1.24062   0.99806    0.020
 4447.00    1.29874   1.02342    0.020
 4448.00    1.35795   1.09501    0.020
 4449.00    1.57867   1.14073    0.020
 4450.00    1.82592   1.13094    0.020
 4451.00    1.77168   1.12688    0.019
 4452.00    1.68027   1.13161    0.019
 4453.00    1.55169   1.11050    0.019
 4454.00    1.41995   1.09958    0.019
 4455.00    1.11010   1.11234    0.019
 4456.00    0.79147   1.10225    0.019
 4457.00    0.98658   1.04956    0.019
 4458.00    1.18661   0.99387    0.019
 4459.00    1.18184   0.99279    0.019
 4460.00    1.16556   1.02351    0.019
 4461.00    0.91590   1.03183    0.000
 4462.00    0.69188   1.02310    0.000
 4463.00    0.76924   1.01992    0.000
 4464.00    0.85658   1.00409    0.000
 4465.00    1.02479   0.99603    0.000
 4466.00    1.13969   1.04073    0.000
 4467.00    0.93017   1.08374    0.000
 4468.00    0.76664   1.08525    0.000
 4469.00    0.82374   1.07775    0.000
 4470.00    0.88970   1.07243    0.000
 4471.00    0.99029   1.05500    0.000
 4472.00    1.08129   1.02527    0.000
 4473.00    1.14107   1.00886    0.000
 4474.00    1.14656   1.01183    0.000
 4475.00    1.00267   1.04478    0.000
 4476.00    0.91921   1.10395    0.000
 4477.00    0.97815   1.14688    0.000
 4478.00    1.05266   1.14961    0.000
 4479.00    1.15885   1.15018    0.000
 4480.00    1.17837   1.17498    0.000
 4481.00    1.04424   1.18755    0.000
 4482.00    0.99030   1.15007    0.018
 4483.00    1.06075   1.07565    0.018
 4484.00    1.21060   1.01401    0.018
 4485.00    1.46858   1.00966    0.018
 4486.00    1.52708   1.06635    0.018
 4487.00    1.34639   1.13110    0.018
 4488.00    1.22148   1.16963    0.018
 4489.00    1.15554   1.18490    0.018
 4490.00    1.04042   1.17185    0.018
 4491.00    0.87944   1.12398    0.017
 4492.00    0.86762   1.06935    0.017
 4493.00    0.97842   1.05360    0.017
 4494.00    1.11328   1.08394    0.017
 4495.00    1.26555   1.12567    0.017
 4496.00    1.29452   1.13252    0.018
 4497.00    1.24517   1.09390    0.018
 4498.00    1.47244   1.06250    0.020
 4499.00    1.85334   1.06623    0.024
 4500.00    1.85674   1.09349    0.026
 4501.00    1.67776   1.13321    0.026
 4502.00    1.52473   1.15987    0.026
 4503.00    1.38253   1.15031    0.026
 4504.00    1.45827   1.11546    0.023
 4505.00    1.61180   1.11909    0.019
 4506.00    1.42039   1.17734    0.018
 4507.00    1.12499   1.22299    0.017
 4508.00    1.04510   1.22595    0.017
 4509.00    1.01919   1.20500    0.017
 4510.00    1.16458   1.17800    0.017
 4511.00    1.34478   1.16046    0.017
 4512.00    1.29775   1.16774    0.017
 4513.00    1.21448   1.18968    0.017
 4514.00    0.99886   1.19718    0.017
 4515.00    0.76751   1.17668    0.017
 4516.00    0.73336   1.14891    0.017
 4517.00    0.71517   1.12692    0.016
 4518.00    0.80969   1.11801    0.016
 4519.00    0.90933   1.12975    0.017
 4520.00    0.79349   1.13294    0.016
 4521.00    0.67895   1.12021    0.016
 4522.00    0.76604   1.12707    0.016
 4523.00    0.85508   1.15150    0.017
 4524.00    0.98073   1.16898    0.017
 4525.00    1.09582   1.14820    0.017
 4526.00    1.09255   1.11230    0.016
 4527.00    1.07720   1.10474    0.016
 4528.00    0.96733   1.09650    0.016
 4529.00    0.87369   1.07002    0.016
 4530.00    0.87597   1.03984    0.016
 4531.00    0.86452   1.01301    0.016
 4532.00    0.78881   1.00301    0.016
 4533.00    0.77750   1.01897    0.016
 4534.00    1.01230   1.04674    0.017
 4535.00    1.17005   1.07417    0.017
 4536.00    1.08212   1.06534    0.016
 4537.00    1.05450   1.02313    0.016
 4538.00    1.18988   1.00240    0.016
 4539.00    1.31231   1.04260    0.016
 4540.00    1.40476   1.12699    0.017
 4541.00    1.38753   1.17596    0.017
 4542.00    1.15043   1.16155    0.017
 4543.00    0.99906   1.11992    0.016
 4544.00    0.99735   1.08991    0.016
 4545.00    1.07027   1.10142    0.016
 4546.00    1.25724   1.13005    0.016
 4547.00    1.23308   1.12368    0.016
 4548.00    0.92548   1.09737    0.016
 4549.00    0.78855   1.09935    0.016
 4550.00    0.85335   1.11433    0.000
 4551.00    0.96629   1.10209    0.000
 4552.00    1.12941   1.06000    0.000
 4553.00    1.09289   1.04937    0.000
 4554.00    0.87282   1.08676    0.000
 4555.00    0.81961   1.10151    0.000
 4556.00    0.90163   1.08276    0.000
 4557.00    0.96862   1.05829    0.000
 4558.00    1.02491   1.04603    0.000
 4559.00    1.03395   1.07033    0.000
 4560.00    1.01341   1.12311    0.000
 4561.00    0.99458   1.15738    0.000
 4562.00    0.97668   1.16440    0.000
 4563.00    0.92329   1.16671    0.000
 4564.00    0.85304   1.17266    0.000
 4565.00    0.84793   1.17257    0.000
 4566.00    0.86954   1.13977    0.000
 4567.00    1.00435   1.09281    0.000
 4568.00    1.17882   1.07560    0.000
 4569.00    1.23138   1.09953    0.000
 4570.00    1.24791   1.14588    0.000
 4571.00    1.28187   1.17508    0.000
 4572.00    1.32010   1.17964    0.000
 4573.00    1.27859   1.16354    0.000
 4574.00    1.22127   1.11607    0.000
 4575.00    1.15812   1.09061    0.000
 4576.00    1.09407   1.13152    0.000
 4577.00    1.08030   1.16962    0.000
 4578.00    1.07229   1.16548    0.000
 4579.00    1.14444   1.15757    0.000
 4580.00    1.22275   1.15870    0.000
 4581.00    1.13107   1.15124    0.000
 4582.00    1.03232   1.11938    0.000
 4583.00    0.88345   1.08156    0.000
 4584.00    0.73455   1.06870    0.000
 4585.00    0.60255   1.08041    0.000
 4586.00    0.49028   1.08606    0.000
 4587.00    0.72264   1.08301    0.000
 4588.00    0.95513   1.08743    0.000
 4589.00    1.18885   1.09431    0.000
 4590.00    1.38363   1.11212    0.000
 4591.00    1.28398   1.13965    0.000
 4592.00    1.19527   1.15722    0.000
 4593.00    1.16945   1.15115    0.000
 4594.00    1.12989   1.12364    0.000
 4595.00    1.02758   1.09682    0.000
 4596.00    0.90714   1.09403    0.000
 4597.00    0.71892   1.10406    0.000
 4598.00    0.56702   1.10287    0.000
 4599.00    0.52868   1.10070    0.000
 4600.00    0.58038   1.10837    0.000
 4601.00    0.87109   1.11929    0.000
 4602.00    1.15409   1.12705    0.000
 4603.00    1.41957   1.11286    0.000
 4604.00    1.55517   1.09557    0.000
 4605.00    1.43452   1.10342    0.000
 4606.00    1.33194   1.11726    0.000
 4607.00    1.26045   1.12226    0.000
 4608.00    1.25682   1.11550    0.000
 4609.00    1.35535   1.11503    0.000
 4610.00    1.36708   1.13618    0.000
 4611.00    1.26394   1.17186    0.000
 4612.00    1.13396   1.19975    0.000
 4613.00    0.97272   1.19788    0.000
 4614.00    0.87538   1.17585    0.000
 4615.00    0.84371   1.15763    0.000
 4616.00    0.83447   1.14549    0.000
 4617.00    0.84555   1.14919    0.000
 4618.00    0.95158   1.16439    0.000
 4619.00    1.13345   1.16308    0.000
 4620.00    1.20711   1.16114    0.000
 4621.00    1.20469   1.15858    0.000
 4622.00    1.17809   1.13786    0.000
 4623.00    1.13657   1.13493    0.000
 4624.00    1.18050   1.16229    0.000
 4625.00    1.27045   1.17859    0.000
 4626.00    1.20518   1.17933    0.000
 4627.00    1.06732   1.17870    0.000
 4628.00    1.08054   1.16694    0.000
 4629.00    1.15468   1.15372    0.000
 4630.00    1.18053   1.15864    0.000
 4631.00    1.18978   1.15894    0.000
 4632.00    1.14015   1.13824    0.000
 4633.00    1.07347   1.13304    0.000
 4634.00    1.09282   1.16156    0.000
 4635.00    1.13277   1.17476    0.000
 4636.00    0.98241   1.14920    0.000
 4637.00    0.79529   1.12556    0.000
 4638.00    0.79807   1.12569    0.000
 4639.00    0.82936   1.13106    0.000
 4640.00    0.81290   1.12180    0.000
 4641.00    0.79119   1.10583    0.000
 4642.00    0.88830   1.09804    0.000
 4643.00    0.99404   1.09884    0.000
 4644.00    0.99564   1.11735    0.000
 4645.00    0.99329   1.14004    0.000
 4646.00    1.00525   1.14217    0.000
 4647.00    1.01395   1.12977    0.000
 4648.00    0.89917   1.10855    0.000
 4649.00    0.79382   1.06727    0.000
 4650.00    0.84272   1.03206    0.000
 4651.00    0.89470   1.03194    0.000
 4652.00    0.97817   1.05890    0.000
 4653.00    1.05436   1.09300    0.000
 4654.00    1.07731   1.11597    0.000
 4655.00    1.11490   1.13132    0.000
 4656.00    1.23434   1.14158    0.000
 4657.00    1.29874   1.12378    0.000
 4658.00    1.11754   1.09087    0.000
 4659.00    0.97481   1.07638    0.000
 4660.00    0.97306   1.09000    0.000
 4661.00    0.97787   1.13580    0.000
 4662.00    1.00282   1.18747    0.000
 4663.00    0.99661   1.20888    0.000
 4664.00    0.90914   1.19132    0.000
 4665.00    0.87003   1.15325    0.000
 4666.00    0.93934   1.12064    0.000
 4667.00    0.95763   1.11192    0.000
 4668.00    0.87684   1.11077    0.000
 4669.00    0.81904   1.07436    0.000
 4670.00    0.80016   1.01050    0.000
 4671.00    0.87549   0.98382    0.000
 4672.00    1.09060   1.01472    0.000
 4673.00    1.25835   1.06613    0.000
 4674.00    1.36431   1.11069    0.000
 4675.00    1.39464   1.12989    0.000
 4676.00    1.33809   1.12230    0.000
 4677.00    1.23890   1.11463    0.000
 4678.00    1.09652   1.12476    0.000
 4679.00    1.02488   1.14833    0.000
 4680.00    1.01647   1.15887    0.000
 4681.00    1.04438   1.13885    0.000
 4682.00    1.10091   1.10892    0.000
 4683.00    1.08523   1.09130    0.000
 4684.00    1.01954   1.08318    0.000
 4685.00    0.93097   1.08593    0.000
 4686.00    0.82850   1.10656    0.000
 4687.00    0.91030   1.12569    0.000
 4688.00    1.08980   1.12391    0.000
 4689.00    1.06474   1.11785    0.000
 4690.00    0.94555   1.11694    0.000
 4691.00    0.94303   1.11767    0.000
 4692.00    0.98674   1.12183    0.000
 4693.00    1.02189   1.12147    0.000
 4694.00    1.05414   1.11032    0.000
 4695.00    0.99228   1.10745    0.000
 4696.00    0.90371   1.11884    0.000
 4697.00    0.84754   1.13279    0.000
 4698.00    0.79896   1.14874    0.000
 4699.00    0.85943   1.16288    0.000
 4700.00    0.94041   1.15347    0.000
 4701.00    1.07104   1.11307    0.000
 4702.00    1.20889   1.07924    0.000
 4703.00    1.13525   1.08091    0.000
 4704.00    1.03924   1.09052    0.000
 4705.00    1.13291   1.07861    0.000
 4706.00    1.23961   1.05915    0.000
 4707.00    0.89507   1.06722    0.000
 4708.00    0.53518   1.09683    0.000
 4709.00    0.46125   1.10730    0.000
 4710.00    0.39668   1.08759    0.000
 4711.00    0.62241   1.06368    0.000
 4712.00    0.83453   1.05690    0.000
 4713.00    0.83786   1.07624    0.000
 4714.00    0.84979   1.11522    0.000
 4715.00    0.94597   1.13204    0.000
 4716.00    1.02046   1.11110    0.000
 4717.00    0.94153   1.08037    0.000
 4718.00    0.88340   1.07640    0.000
 4719.00    0.93844   1.10813    0.000
 4720.00    0.97414   1.14401    0.000
 4721.00    0.92555   1.16041    0.000
 4722.00    0.95717   1.16973    0.000
 4723.00    1.27655   1.17954    0.000
 4724.00    1.53324   1.17933    0.000
 4725.00    1.60116   1.16620    0.000
 4726.00    1.59531   1.15832    0.000
 4727.00    1.40045   1.17132    0.000
 4728.00    1.30079   1.18842    0.000
 4729.00    1.41099   1.17976    0.000
 4730.00    1.40806   1.13306    0.000
 4731.00    1.18882   1.08185    0.000
 4732.00    1.02761   1.06329    0.000
 4733.00    0.96321   1.06804    0.000
 4734.00    0.91384   1.07639    0.000
 4735.00    0.88643   1.09331    0.000
 4736.00    0.89889   1.11382    0.000
 4737.00    0.96261   1.12804    0.000
 4738.00    0.94757   1.13627    0.000
 4739.00    0.84330   1.12336    0.000
 4740.00    0.84229   1.10434    0.000
 4741.00    0.94444   1.12143    0.000
 4742.00    1.04381   1.14978    0.000
 4743.00    1.14071   1.14793    0.000
 4744.00    1.13363   1.13192    0.000
 4745.00    1.04582   1.13170    0.000
 4746.00    0.95615   1.14767    0.000
 4747.00    0.86521   1.15514    0.000
 4748.00    0.85352   1.14845    0.000
 4749.00    0.88924   1.15183    0.000
 4750.00    0.93968   1.16473    0.000
 4751.00    0.99778   1.16548    0.000
 4752.00    0.94785   1.16128    0.000
 4753.00    0.84901   1.16493    0.000
 4754.00    0.88234   1.16463    0.000
 4755.00    0.96713   1.15007    0.000
 4756.00    1.11122   1.13171    0.000
 4757.00    1.27496   1.11824    0.000
 4758.00    1.13316   1.11236    0.000
 4759.00    0.90642   1.11223    0.000
 4760.00    0.90502   1.11582    0.000
 4761.00    0.95517   1.12520    0.014
 4762.00    1.02059   1.13916    0.014
 4763.00    1.08881   1.14942    0.014
 4764.00    1.10739   1.13596    0.014
 4765.00    1.11898   1.09679    0.014
 4766.00    1.05285   1.06686    0.014
 4767.00    0.97883   1.05880    0.013
 4768.00    1.00244   1.05330    0.013
 4769.00    1.03236   1.04940    0.014
 4770.00    0.99736   1.06335    0.014
 4771.00    0.96046   1.09140    0.014
 4772.00    0.95015   1.12163    0.014
 4773.00    0.93924   1.14016    0.014
 4774.00    0.91076   1.13014    0.014
 4775.00    0.88624   1.10798    0.014
 4776.00    0.91887   1.11008    0.014
 4777.00    0.95073   1.13866    0.014
 4778.00    0.97538   1.15921    0.014
 4779.00    0.99934   1.15710    0.014
 4780.00    1.01855   1.15744    0.013
 4781.00    1.04944   1.16235    0.013
 4782.00    1.14220   1.15170    0.013
 4783.00    1.18866   1.13644    0.013
 4784.00    1.03793   1.13555    0.013
 4785.00    0.89468   1.13137    0.013
 4786.00    0.77770   1.10997    0.013
 4787.00    0.72190   1.10176    0.013
 4788.00    0.84688   1.11285    0.013
 4789.00    0.91002   1.10575    0.013
 4790.00    0.81746   1.09348    0.013
 4791.00    0.81067   1.09995    0.013
 4792.00    0.98986   1.10211    0.013
 4793.00    1.16074   1.10055    0.014
 4794.00    1.31599   1.11115    0.014
 4795.00    1.36930   1.12505    0.014
 4796.00    1.25510   1.14551    0.014
 4797.00    1.11501   1.17598    0.014
 4798.00    0.93762   1.19676    0.014
 4799.00    0.82646   1.19261    0.014
 4800.00    0.79923   1.17080    0.013
 4801.00    0.79671   1.14165    0.013
 4802.00    0.82178   1.11546    0.014
 4803.00    0.90426   1.10801    0.014
 4804.00    1.04327   1.12560    0.014
 4805.00    1.09294   1.15542    0.014
 4806.00    1.06500   1.17155    0.014
 4807.00    0.98179   1.15861    0.014
 4808.00    0.85628   1.12984    0.014
 4809.00    0.90105   1.11584    0.014
 4810.00    1.06036   1.11510    0.014
 4811.00    1.05046   1.11202    0.014
 4812.00    0.94085   1.11596    0.014
 4813.00    0.83637   1.12810    0.014
 4814.00    0.73453   1.13483    0.014
 4815.00    0.80742   1.13426    0.014
 4816.00    0.95809   1.13404    0.014
 4817.00    0.81722   1.13853    0.014
 4818.00    0.56480   1.14544    0.014
 4819.00    0.61871   1.15439    0.014
 4820.00    0.77222   1.16496    0.014
 4821.00    0.71329   1.17296    0.014
 4822.00    0.59651   1.17774    0.014
 4823.00    0.83313   1.17767    0.014
 4824.00    1.14872   1.17210    0.014
 4825.00    1.04158   1.15292    0.014
 4826.00    0.85911   1.10779    0.014
 4827.00    0.77921   1.07129    0.014
 4828.00    0.71328   1.08650    0.014
 4829.00    0.73067   1.12560    0.014
 4830.00    0.75616   1.14272    0.014
 4831.00    0.85684   1.13291    0.014
 4832.00    0.96208   1.11961    0.014
 4833.00    0.87073   1.12038    0.014
 4834.00    0.77426   1.11768    0.014
 4835.00    0.69564   1.10059    0.014
 4836.00    0.62342   1.09786    0.014
 4837.00    0.71816   1.11754    0.014
 4838.00    0.81249   1.13220    0.014
 4839.00    0.90112   1.13024    0.014
 4840.00    0.98044   1.12867    0.013
 4841.00    0.97556   1.12547    0.013
 4842.00    0.97437   1.10562    0.013
 4843.00    0.99772   1.08429    0.013
 4844.00    1.01271   1.08614    0.013
 4845.00    0.98452   1.09750    0.014
 4846.00    0.96139   1.09332    0.014
 4847.00    0.95932   1.09119    0.014
 4848.00    0.92710   1.11098    0.000
 4849.00    0.79105   1.12906    0.000
 4850.00    0.70310   1.11863    0.000
 4851.00    0.75464   1.08344    0.000
 4852.00    0.78214   1.05951    0.000
 4853.00    0.75018   1.07185    0.000
 4854.00    0.74423   1.09137    0.000
 4855.00    0.79380   1.09033    0.000
 4856.00    0.82532   1.07745    0.000
 4857.00    0.82342   1.04526    0.000
 4858.00    0.80029   0.98846    0.000
 4859.00    0.74280   0.95244    0.000
 4860.00    0.79400   0.96154    0.000
 4861.00    0.99957   0.96456    0.000
 4862.00    1.07900   0.91452    0.000
 4863.00    1.00082   0.81348    0.000
 4864.00    0.88307   0.70990    0.000
 4865.00    0.72173   0.69109    0.000
 4866.00    0.72903   0.77246    0.000
 4867.00    0.90012   0.86261    0.000
 4868.00    0.92328   0.91763    0.000
 4869.00    0.81976   0.96097    0.000
 4870.00    0.78849   0.99629    0.000
 4871.00    0.81174   1.01774    0.000
 4872.00    0.83347   1.03287    0.000
 4873.00    0.85420   1.02552    0.000
 4874.00    0.85303   0.98053    0.000
 4875.00    0.83914   0.94871    0.013
 4876.00    0.79568   0.97586    0.013
 4877.00    0.73725   1.02280    0.013
 4878.00    0.76150   1.04413    0.013
 4879.00    0.82195   1.05057    0.013
 4880.00    0.76881   1.06078    0.013
 4881.00    0.67298   1.07419    0.013
 4882.00    0.58167   1.10062    0.013
 4883.00    0.49181   1.12509    0.013
 4884.00    0.59227   1.11134    0.013
 4885.00    0.74347   1.08288    0.013
 4886.00    0.82415   1.07869    0.013
 4887.00    0.88945   1.07908    0.013
 4888.00    1.00071   1.06026    0.013
 4889.00    1.11993   1.03993    0.013
 4890.00    1.06324   1.04143    0.013
 4891.00    0.98337   1.05706    0.013
 4892.00    1.01018   1.06158    0.013
 4893.00    1.04690   1.03767    0.013
 4894.00    0.87336   0.99893    0.013
 4895.00    0.68790   1.00468    0.013
 4896.00    0.73274   1.06808    0.013
 4897.00    0.78367   1.13318    0.013
 4898.00    0.92617   1.17241    0.013
 4899.00    1.05969   1.18785    0.013
 4900.00    0.98002   1.18681    0.013
 4901.00    0.89719   1.17837    0.013
 4902.00    0.77366   1.15451    0.013
 4903.00    0.66838   1.12225    0.013
 4904.00    0.72176   1.11569    0.013
 4905.00    0.74203   1.12618    0.013
 4906.00    0.54926   1.11759    0.013
 4907.00    0.38658   1.10528    0.013
 4908.00    0.37521   1.12399    0.013
 4909.00    0.41092   1.15952    0.013
 4910.00    0.63824   1.17122    0.013
 4911.00    0.83093   1.15073    0.013
 4912.00    0.90676   1.11379    0.013
 4913.00    0.93332   1.07429    0.013
 4914.00    0.81960   1.05785    0.013
 4915.00    0.74717   1.07878    0.013
 4916.00    0.77520   1.11089    0.013
 4917.00    0.79442   1.13219    0.013
 4918.00    0.79515   1.15121    0.013
 4919.00    0.84021   1.16432    0.013
 4920.00    0.96615   1.14717    0.013
 4921.00    1.00985   1.09024    0.013
 4922.00    0.92239   1.01539    0.013
 4923.00    0.86747   0.95918    0.013
 4924.00    0.85811   0.94669    0.013
 4925.00    0.88108   0.98203    0.013
 4926.00    0.94385   1.02554    0.012
 4927.00    0.89441   1.03799    0.012
 4928.00    0.72316   1.04404    0.012
 4929.00    0.72124   1.08145    0.012
 4930.00    0.88146   1.12582    0.013
 4931.00    0.97329   1.14937    0.013
 4932.00    1.00736   1.16586    0.012
 4933.00    0.98480   1.17649    0.012
 4934.00    0.92014   1.17485    0.012
 4935.00    0.95908   1.15914    0.012
 4936.00    1.06569   1.11585    0.012
 4937.00    0.99638   1.07191    0.012
 4938.00    0.82653   1.07893    0.012
 4939.00    0.78461   1.11066    0.012
 4940.00    0.80638   1.10339    0.000
 4941.00    0.92022   1.05600    0.000
 4942.00    1.07371   1.01961    0.000
 4943.00    0.99912   1.03856    0.000
 4944.00    0.84033   1.09689    0.000
 4945.00    0.86853   1.13824    0.000
 4946.00    0.95524   1.15380    0.000
 4947.00    0.92152   1.16462    0.000
 4948.00    0.85638   1.16007    0.000
 4949.00    0.83511   1.14119    0.000
 4950.00    0.82318   1.13902    0.000
 4951.00    0.84881   1.15656    0.000
 4952.00    0.88077   1.16880    0.000
 4953.00    0.84825   1.17170    0.000
 4954.00    0.80754   1.17666    0.000
 4955.00    0.89220   1.17562    0.000
 4956.00    0.98799   1.16063    0.000
 4957.00    0.92378   1.14677    0.000
 4958.00    0.85112   1.13931    0.000
 4959.00    0.84038   1.10994    0.000
 4960.00    0.83339   1.03641    0.000
 4961.00    1.02861   0.98212    0.000
 4962.00    1.20190   1.02295    0.000
 4963.00    0.89816   1.10681    0.000
 4964.00    0.62667   1.14728    0.000
 4965.00    0.75122   1.14579    0.000
 4966.00    0.85106   1.14271    0.000
 4967.00    0.74409   1.14053    0.000
 4968.00    0.67706   1.11725    0.000
 4969.00    0.85938   1.08623    0.000
 4970.00    1.00939   1.07597    0.000
 4971.00    1.00095   1.08047    0.000
 4972.00    0.99402   1.08602    0.000
 4973.00    0.99309   1.09245    0.000
 4974.00    0.98724   1.10304    0.000
 4975.00    0.96510   1.12047    0.000
 4976.00    0.94857   1.13632    0.000
 4977.00    0.94777   1.14710    0.000
 4978.00    0.93260   1.15266    0.000
 4979.00    0.88306   1.14810    0.000
 4980.00    0.83617   1.13560    0.000
 4981.00    0.79475   1.11406    0.000
 4982.00    0.77478   1.09038    0.000
 4983.00    0.79337   1.07850    0.000
 4984.00    0.84036   1.06087    0.000
 4985.00    0.93199   1.01502    0.000
 4986.00    0.97771   0.96931    0.000
 4987.00    0.96011   0.96596    0.000
 4988.00    0.91653   0.99657    0.000
 4989.00    0.84140   1.03519    0.000
 4990.00    0.78416   1.07799    0.000
 4991.00    0.74607   1.11006    0.000
 4992.00    0.72945   1.11239    0.000
 4993.00    0.73311   1.09475    0.000
 4994.00    0.74214   1.07745    0.000
 4995.00    0.75564   1.07773    0.000
 4996.00    0.76657   1.08682    0.000
 4997.00    0.77562   1.08423    0.000
 4998.00    0.74776   1.08888    0.000
 4999.00    0.69615   1.10688    0.000
 5000.00    0.65813   1.11474    0.000
 5001.00    0.62777   1.10775    0.000
 5002.00    0.65868   1.08327    0.000
 5003.00    0.71962   1.04729    0.000
 5004.00    0.74270   1.02446    0.000
 5005.00    0.74975   1.02375    0.000
 5006.00    0.88155   1.03726    0.000
 5007.00    1.05859   1.04650    0.000
 5008.00    0.92507   1.02716    0.000
 5009.00    0.69628   0.98927    0.000
 5010.00    0.61653   0.98204    0.000
 5011.00    0.57482   1.02484    0.000
 5012.00    0.58156   1.07344    0.000
 5013.00    0.59836   1.08670    0.000
 5014.00    0.60605   1.06995    0.000
 5015.00    0.61224   1.03511    0.000
 5016.00    0.54886   0.99342    0.000
 5017.00    0.47695   0.96490    0.000
 5018.00    0.62659   0.96363    0.000
 5019.00    0.79497   0.98772    0.000
 5020.00    0.80333   1.00482    0.000
 5021.00    0.80387   0.99638    0.000
 5022.00    0.71697   0.99518    0.000
 5023.00    0.63047   1.02077    0.000
 5024.00    0.65089   1.04148    0.000
 5025.00    0.67394   1.03433    0.000
 5026.00    0.74979   1.02780    0.000
 5027.00    0.80881   1.04814    0.000
 5028.00    0.67115   1.07354    0.000
 5029.00    0.53548   1.07784    0.012
 5030.00    0.41586   1.05827    0.012
 5031.00    0.33237   1.03802    0.012
 5032.00    0.46793   1.04941    0.012
 5033.00    0.58882   1.07582    0.012
 5034.00    0.63947   1.08911    0.012
 5035.00    0.70368   1.10342    0.012
 5036.00    0.82067   1.12707    0.012
 5037.00    0.87604   1.13524    0.012
 5038.00    0.73155   1.10275    0.012
 5039.00    0.67399   1.05077    0.012
 5040.00    0.85510   1.03404    0.012
 5041.00    0.94516   1.04790    0.012
 5042.00    0.82112   1.03677    0.012
 5043.00    0.73563   0.98743    0.012
 5044.00    0.72848   0.93313    0.012
 5045.00    0.73594   0.93004    0.012
 5046.00    0.76924   0.99545    0.012
 5047.00    0.80506   1.06860    0.012
 5048.00    0.84480   1.11125    0.012
 5049.00    0.82127   1.13668    0.012
 5050.00    0.71174   1.13654    0.012
 5051.00    0.62389   1.09790    0.012
 5052.00    0.56197   1.04884    0.012
 5053.00    0.54892   1.02600    0.012
 5054.00    0.58742   1.02673    0.012
 5055.00    0.65453   1.03311    0.012
 5056.00    0.74828   1.05113    0.012
 5057.00    0.77350   1.08211    0.012
 5058.00    0.74246   1.10473    0.012
 5059.00    0.76409   1.10886    0.012
 5060.00    0.82377   1.10806    0.012
 5061.00    0.82109   1.11577    0.012
 5062.00    0.77887   1.12482    0.012
 5063.00    0.73101   1.12880    0.012
 5064.00    0.68004   1.13738    0.012
 5065.00    0.61865   1.14723    0.012
 5066.00    0.55224   1.13866    0.012
 5067.00    0.62261   1.09690    0.012
 5068.00    0.74992   1.04478    0.012
 5069.00    0.81981   1.03196    0.012
 5070.00    0.86926   1.05236    0.012
 5071.00    0.88087   1.05780    0.012
 5072.00    0.88109   1.05308    0.012
 5073.00    0.82349   1.06831    0.012
 5074.00    0.75145   1.08227    0.012
 5075.00    0.70455   1.06525    0.012
 5076.00    0.66275   1.04851    0.012
 5077.00    0.67112   1.06065    0.012
 5078.00    0.68748   1.07123    0.012
 5079.00    0.84918   1.06596    0.012
 5080.00    1.02809   1.06968    0.012
 5081.00    0.85980   1.07161    0.012
 5082.00    0.66361   1.03174    0.012
 5083.00    0.70915   0.97373    0.012
 5084.00    0.76556   0.96344    0.012
 5085.00    0.77358   0.99535    0.012
 5086.00    0.78078   1.01682    0.012
 5087.00    0.77587   1.02407    0.012
 5088.00    0.77181   1.04487    0.012
 5089.00    0.78370   1.07045    0.011
 5090.00    0.79110   1.07663    0.011
 5091.00    0.74842   1.07216    0.012
 5092.00    0.72026   1.07730    0.012
 5093.00    0.80530   1.08621    0.012
 5094.00    0.87035   1.08862    0.012
 5095.00    0.81755   1.09530    0.012
 5096.00    0.77134   1.11263    0.012
 5097.00    0.75587   1.12424    0.012
 5098.00    0.77094   1.11482    0.011
 5099.00    0.90246   1.08966    0.012
 5100.00    0.98103   1.05986    0.012
 5101.00    0.89117   1.02630    0.012
 5102.00    0.79417   0.99347    0.012
 5103.00    0.67795   0.98904    0.012
 5104.00    0.59913   1.02573    0.012
 5105.00    0.60676   1.06766    0.012
 5106.00    0.61533   1.08174    0.012
 5107.00    0.62576   1.07394    0.012
 5108.00    0.67506   1.06363    0.012
 5109.00    0.79212   1.05571    0.012
 5110.00    0.83253   1.04002    0.012
 5111.00    0.75604   1.02219    0.012
 5112.00    0.69373   1.01942    0.012
 5113.00    0.65043   1.02068    0.012
 5114.00    0.62389   1.02509    0.012
 5115.00    0.61714   1.04822    0.012
 5116.00    0.61594   1.07083    0.012
 5117.00    0.62052   1.07948    0.012
 5118.00    0.66264   1.08487    0.012
 5119.00    0.73921   1.09081    0.012
 5120.00    0.79839   1.10251    0.012
 5121.00    0.84349   1.11689    0.012
 5122.00    0.89063   1.11687    0.012
 5123.00    0.93922   1.10046    0.012
 5124.00    0.83958   1.07883    0.012
 5125.00    0.64734   1.05733    0.011
 5126.00    0.54365   1.02917    0.011
 5127.00    0.48828   0.99833    0.011
 5128.00    0.50269   0.98937    0.011
 5129.00    0.55020   1.00276    0.011
 5130.00    0.60374   1.01279    0.011
 5131.00    0.65974   1.01072    0.012
 5132.00    0.76526   1.00468    0.012
 5133.00    0.88810   1.00470    0.012
 5134.00    0.84173   1.01941    0.012
 5135.00    0.74549   1.03945    0.012
 5136.00    0.70233   1.04729    0.012
 5137.00    0.67212   1.05068    0.012
 5138.00    0.68241   1.06746    0.012
 5139.00    0.70070   1.08069    0.012
 5140.00    0.71976   1.06241    0.012
 5141.00    0.73894   1.03037    0.012
 5142.00    0.79209   1.00675    0.012
 5143.00    0.84911   1.00423    0.012
 5144.00    0.68064   1.02821    0.011
 5145.00    0.49496   1.03073    0.011
 5146.00    0.58433   1.00415    0.012
 5147.00    0.68502   1.00853    0.012
 5148.00    0.63234   1.03280    0.012
 5149.00    0.58059   1.02798    0.012
 5150.00    0.62125   1.00837    0.012
 5151.00    0.66240   1.00455    0.012
 5152.00    0.71200   1.01949    0.012
 5153.00    0.75060   1.03364    0.012
 5154.00    0.67219   1.02494    0.012
 5155.00    0.60777   1.00645    0.012
 5156.00    0.64873   0.99628    0.012
 5157.00    0.67699   0.99156    0.012
 5158.00    0.63257   0.99985    0.012
 5159.00    0.63449   1.02890    0.012
 5160.00    0.84752   1.06370    0.012
 5161.00    1.02165   1.08759    0.012
 5162.00    1.05061   1.09302    0.012
 5163.00    1.01701   1.08975    0.012
 5164.00    0.78816   1.08856    0.012
 5165.00    0.62274   1.07518    0.012
 5166.00    0.62529   1.05399    0.012
 5167.00    0.60904   1.04448    0.012
 5168.00    0.55005   1.02157    0.012
 5169.00    0.52628   0.95578    0.012
 5170.00    0.57186   0.86700    0.012
 5171.00    0.59690   0.80634    0.012
 5172.00    0.58671   0.81732    0.012
 5173.00    0.57781   0.88260    0.012
 5174.00    0.57084   0.91836    0.012
 5175.00    0.58430   0.86874    0.012
 5176.00    0.62473   0.80455    0.012
 5177.00    0.65874   0.83393    0.012
 5178.00    0.68528   0.93689    0.012
 5179.00    0.65237   1.01276    0.012
 5180.00    0.55845   1.03538    0.011
 5181.00    0.58178   1.04363    0.011
 5182.00    0.71118   1.04859    0.011
 5183.00    0.76131   1.04012    0.011
 5184.00    0.74822   1.01779    0.011
 5185.00    0.66840   0.96997    0.011
 5186.00    0.54177   0.88153    0.011
 5187.00    0.53569   0.80237    0.011
 5188.00    0.60379   0.82227    0.011
 5189.00    0.73217   0.92481    0.011
 5190.00    0.89295   1.00854    0.000
 5191.00    0.81027   1.03331    0.000
 5192.00    0.61394   1.03214    0.000
 5193.00    0.57888   1.04530    0.000
 5194.00    0.60870   1.04359    0.000
 5195.00    0.59226   0.99036    0.000
 5196.00    0.55994   0.94891    0.000
 5197.00    0.63945   0.96880    0.000
 5198.00    0.75126   0.99599    0.000
 5199.00    0.75162   0.99803    0.000
 5200.00    0.72534   1.00755    0.000
 5201.00    0.66739   1.02914    0.000
 5202.00    0.60335   1.04916    0.000
 5203.00    0.64114   1.06599    0.000
 5204.00    0.69417   1.06996    0.000
 5205.00    0.71951   1.06078    0.000
 5206.00    0.74183   1.04757    0.000
 5207.00    0.72081   1.02434    0.000
 5208.00    0.69667   0.97659    0.000
 5209.00    0.67573   0.93317    0.000
 5210.00    0.65490   0.93002    0.000
 5211.00    0.83923   0.93721    0.012
 5212.00    1.01721   0.92962    0.012
 5213.00    0.92943   0.94302    0.012
 5214.00    0.84088   0.98369    0.012
 5215.00    0.73991   1.02951    0.012
 5216.00    0.64734   1.07191    0.012
 5217.00    0.64034   1.09044    0.012
 5218.00    0.65067   1.07083    0.012
 5219.00    0.78705   1.03085    0.012
 5220.00    0.89690   1.01295    0.012
 5221.00    0.85898   1.03349    0.012
 5222.00    0.83046   1.07065    0.012
 5223.00    0.84373   1.09826    0.012
 5224.00    0.82480   1.10997    0.012
 5225.00    0.68825   1.11326    0.012
 5226.00    0.58134   1.10213    0.012
 5227.00    0.56517   1.06993    0.012
 5228.00    0.59083   1.02124    0.012
 5229.00    0.72534   0.96097    0.012
 5230.00    0.77427   0.90996    0.012
 5231.00    0.63180   0.91867    0.012
 5232.00    0.55975   0.99353    0.012
 5233.00    0.62420   1.05954    0.012
 5234.00    0.70558   1.08347    0.012
 5235.00    0.81558   1.07974    0.012
 5236.00    0.90192   1.04425    0.012
 5237.00    0.95323   1.00787    0.012
 5238.00    0.94578   1.00903    0.012
 5239.00    0.86184   1.03853    0.011
 5240.00    0.86090   1.07695    0.011
 5241.00    0.95516   1.10272    0.011
 5242.00    0.95834   1.10676    0.011
 5243.00    0.86941   1.10111    0.011
 5244.00    0.78388   1.09929    0.011
 5245.00    0.70139   1.10175    0.011
 5246.00    0.68087   1.09726    0.011
 5247.00    0.70906   1.09953    0.011
 5248.00    0.73789   1.11720    0.011
 5249.00    0.76716   1.11319    0.011
 5250.00    0.75180   1.06848    0.011
 5251.00    0.70939   1.03221    0.011
 5252.00    0.75297   1.03655    0.011
 5253.00    0.84206   1.03793    0.011
 5254.00    0.86143   1.02164    0.011
 5255.00    0.84877   1.02953    0.011
 5256.00    0.78949   1.05727    0.011
 5257.00    0.71177   1.06468    0.011
 5258.00    0.75848   1.04651    0.011
 5259.00    0.84710   1.04027    0.011
 5260.00    0.78899   1.07510    0.011
 5261.00    0.68935   1.12031    0.012
 5262.00    0.61625   1.13956    0.012
 5263.00    0.54935   1.12998    0.012
 5264.00    0.60904   1.09707    0.012
 5265.00    0.69247   1.04605    0.012
 5266.00    0.73035   0.99017    0.012
 5267.00    0.76162   0.94583    0.012
 5268.00    0.74403   0.91577    0.012
 5269.00    0.72129   0.90138    0.012
 5270.00    0.71836   0.92075    0.012
 5271.00    0.71677   0.96181    0.012
 5272.00    0.75654   0.94837    0.012
 5273.00    0.79770   0.88003    0.012
 5274.00    0.83529   0.87408    0.012
 5275.00    0.87323   0.95474    0.012
 5276.00    0.92263   1.01872    0.012
 5277.00    0.96159   1.02615    0.012
 5278.00    0.84160   1.01245    0.012
 5279.00    0.73561   1.00246    0.012
 5280.00    0.76609   1.03018    0.012
 5281.00    0.78774   1.09079    0.012
 5282.00    0.74721   1.12306    0.012
 5283.00    0.73986   1.11006    0.012
 5284.00    0.91242   1.07895    0.012
 5285.00    1.03906   1.05060    0.012
 5286.00    0.96619   1.02813    0.012
 5287.00    0.86195   1.01270    0.012
 5288.00    0.64546   1.03027    0.012
 5289.00    0.52395   1.08996    0.012
 5290.00    0.68771   1.14109    0.012
 5291.00    0.83198   1.14808    0.012
 5292.00    0.92641   1.13531    0.012
 5293.00    0.99364   1.13486    0.012
 5294.00    1.00103   1.14561    0.012
 5295.00    0.97906   1.14677    0.012
 5296.00    0.90106   1.13296    0.012
 5297.00    0.81269   1.12076    0.012
 5298.00    0.70706   1.11836    0.012
 5299.00    0.64716   1.10190    0.012
 5300.00    0.65398   1.05166    0.012
 5301.00    0.63687   0.99626    0.012
 5302.00    0.58907   0.98914    0.011
 5303.00    0.65239   1.03317    0.011
 5304.00    0.84137   1.06566    0.012
 5305.00    0.90122   1.06254    0.012
 5306.00    0.83230   1.06597    0.011
 5307.00    0.84113   1.09769    0.011
 5308.00    0.91836   1.13352    0.011
 5309.00    0.86858   1.14334    0.011
 5310.00    0.72036   1.12714    0.011
 5311.00    0.68130   1.11030    0.011
 5312.00    0.71662   1.11680    0.011
 5313.00    0.77670   1.13692    0.011
 5314.00    0.85156   1.14588    0.011
 5315.00    0.90340   1.13992    0.011
 5316.00    0.94323   1.12901    0.011
 5317.00    0.88704   1.11832    0.011
 5318.00    0.78748   1.11197    0.011
 5319.00    0.70656   1.09955    0.011
 5320.00    0.63288   1.07814    0.011
 5321.00    0.70553   1.07622    0.011
 5322.00    0.82655   1.09495    0.011
 5323.00    0.80582   1.10451    0.011
 5324.00    0.74578   1.10341    0.011
 5325.00    0.72235   1.10138    0.011
 5326.00    0.70726   1.08911    0.011
 5327.00    0.66325   1.05862    0.011
 5328.00    0.61397   1.03191    0.011
 5329.00    0.74324   1.03689    0.011
 5330.00    0.89755   1.02933    0.011
 5331.00    0.89018   0.95984    0.011
 5332.00    0.86650   0.89373    0.011
 5333.00    0.95698   0.92810    0.011
 5334.00    1.05479   1.02140    0.011
 5335.00    0.98814   1.07534    0.011
 5336.00    0.91657   1.07724    0.011
 5337.00    0.83245   1.07543    0.011
 5338.00    0.75237   1.09511    0.011
 5339.00    0.78741   1.10988    0.011
 5340.00    0.82057   1.10126    0.011
 5341.00    0.82662   1.08966    0.011
 5342.00    0.82863   1.08164    0.011
 5343.00    0.79278   1.05090    0.011
 5344.00    0.76663   1.01097    0.011
 5345.00    0.80652   1.01751    0.011
 5346.00    0.83823   1.06570    0.011
 5347.00    0.82675   1.09766    0.011
 5348.00    0.80920   1.09655    0.011
 5349.00    0.76586   1.07611    0.011
 5350.00    0.74121   1.06477    0.011
 5351.00    0.78203   1.06892    0.011
 5352.00    0.81673   1.05777    0.011
 5353.00    0.83338   1.04529    0.011
 5354.00    0.84736   1.06805    0.011
 5355.00    0.85461   1.10678    0.011
 5356.00    0.83565   1.12420    0.011
 5357.00    0.75998   1.12543    0.011
 5358.00    0.72366   1.13940    0.011
 5359.00    0.76123   1.15856    0.011
 5360.00    0.81153   1.16352    0.011
 5361.00    0.88268   1.16266    0.011
 5362.00    0.92985   1.16295    0.011
 5363.00    0.94254   1.16032    0.011
 5364.00    0.93674   1.14693    0.011
 5365.00    0.90753   1.12059    0.011
 5366.00    0.86159   1.09574    0.011
 5367.00    0.79700   1.08682    0.011
 5368.00    0.77650   1.08047   -2.000
 5369.00    0.79935   1.07133   -2.000
 5370.00    0.71056   1.07309   -2.000
 5371.00    0.52495   1.07581   -2.000
 5372.00    0.40306   1.06733   -2.000
 5373.00    0.32984   1.03607   -2.000
 5374.00    0.33419   0.98663   -2.000
 5375.00    0.39063   0.96759   -2.000
 5376.00    0.53102   1.01111   -2.000
 5377.00    0.72079   1.08109   -2.000
 5378.00    0.90291   1.12328   -2.000
 5379.00    1.08110   1.13437   -2.000
 5380.00    1.06455   1.12686   -2.000
 5381.00    0.96146   1.11810   -2.000
 5382.00    0.92653   1.12054   -2.000
 5383.00    0.91761   1.11866    0.011
 5384.00    0.86949   1.10294    0.011
 5385.00    0.80867   1.09073    0.011
 5386.00    0.87904   1.08430    0.011
 5387.00    0.98505   1.07962    0.011
 5388.00    0.95093   1.09302    0.011
 5389.00    0.88560   1.11575    0.011
 5390.00    0.84851   1.12127    0.011
 5391.00    0.81643   1.11480    0.011
 5392.00    0.84091   1.10218    0.011
 5393.00    0.87306   1.08112    0.011
 5394.00    0.81838   1.06339    0.011
 5395.00    0.75530   1.05749    0.011
 5396.00    0.75743   1.05516    0.011
 5397.00    0.76349   1.05394    0.011
 5398.00    0.73668   1.05575    0.011
 5399.00    0.70998   1.04796    0.011
 5400.00    0.84379   1.01189    0.011
 5401.00    0.96890   0.98651    0.011
 5402.00    0.86969   1.01855    0.011
 5403.00    0.76917   1.06253    0.011
 5404.00    0.65103   1.07222    0.011
 5405.00    0.56224   1.07375    0.011
 5406.00    0.73739   1.07703    0.011
 5407.00    0.88457   1.04776    0.011
 5408.00    0.84682   0.98957    0.011
 5409.00    0.82481   0.95086    0.011
 5410.00    0.88368   0.96383    0.011
 5411.00    0.94102   1.01004    0.011
 5412.00    0.99196   1.03197    0.011
 5413.00    0.99424   1.00975    0.011
 5414.00    0.82942   0.99380    0.011
 5415.00    0.72335   1.02517    0.011
 5416.00    0.78723   1.07029    0.011
 5417.00    0.83548   1.08592    0.011
 5418.00    0.84514   1.07706    0.011
 5419.00    0.86043   1.07783    0.011
 5420.00    0.88771   1.10140    0.011
 5421.00    0.88823   1.11896    0.011
 5422.00    0.83927   1.11247    0.011
 5423.00    0.82038   1.09478    0.011
 5424.00    0.85010   1.08110    0.011
 5425.00    0.85414   1.08431    0.011
 5426.00    0.82179   1.09388    0.011
 5427.00    0.82033   1.07510    0.011
 5428.00    0.85737   1.04851    0.011
 5429.00    0.83948   1.06534    0.011
 5430.00    0.76121   1.10964    0.010
 5431.00    0.74133   1.12711    0.010
 5432.00    0.77807   1.08547    0.011
 5433.00    0.81510   1.01825    0.011
 5434.00    0.85239   1.00986    0.011
 5435.00    0.82750   1.05174    0.011
 5436.00    0.75579   1.05812    0.010
 5437.00    0.73841   1.02888    0.010
 5438.00    0.75697   1.00711    0.011
 5439.00    0.77551   1.01094    0.011
 5440.00    0.79403   1.03792    0.011
 5441.00    0.77389   1.07450    0.011
 5442.00    0.73423   1.11121    0.011
 5443.00    0.81619   1.13458    0.011
 5444.00    0.95130   1.14226    0.011
 5445.00    0.93714   1.14253    0.011
 5446.00    0.86700   1.14140    0.011
 5447.00    0.85288   1.13501    0.011
 5448.00    0.85658   1.10614    0.011
 5449.00    0.81770   1.05112    0.011
 5450.00    0.76751   0.99400    0.011
 5451.00    0.85290   0.98651    0.011
 5452.00    0.96779   1.03885    0.011
 5453.00    0.89165   1.08955    0.011
 5454.00    0.78252   1.10625    0.011
 5455.00    0.86438   1.10293    0.011
 5456.00    0.97129   1.09311    0.011
 5457.00    0.89959   1.07301    0.011
 5458.00    0.81139   1.03106    0.011
 5459.00    0.79982   0.98767    0.011
 5460.00    0.79256   0.99842    0.011
 5461.00    0.82662   1.05835    0.011
 5462.00    0.86070   1.10402    0.011
 5463.00    0.80011   1.11142    0.011
 5464.00    0.74629   1.09571    0.011
 5465.00    0.85116   1.07193    0.011
 5466.00    0.94399   1.04251    0.011
 5467.00    0.88205   1.02556    0.011
 5468.00    0.82390   1.04694    0.011
 5469.00    0.79864   1.07495    0.011
 5470.00    0.77919   1.07781    0.011
 5471.00    0.79699   1.08028    0.010
 5472.00    0.82000   1.09021    0.010
 5473.00    0.86914   1.08643    0.011
 5474.00    0.88187   1.07281    0.011
 5475.00    0.74685   1.06873    0.011
 5476.00    0.65992   1.06459    0.010
 5477.00    0.73489   1.04791    0.010
 5478.00    0.82994   1.03955   -2.000
 5479.00    0.98200   1.02530   -2.000
 5480.00    1.01395   0.98198   -2.000
 5481.00    0.75431   0.96985   -2.000
 5482.00    0.86209   1.02087   -2.000
 5483.00    1.73958   1.06572   -2.000
 5484.00    2.04410   1.05440   -2.000
 5485.00    1.30520   1.02327   -2.000
 5486.00    0.41388   1.02446   -2.000
 5487.00   -0.72007   1.05340   -2.000
 5488.00   -1.77650   1.08534   -2.000
 5489.00   -2.72465   1.10301   -2.000
 5490.00   -2.31119   1.08800   -2.000
 5491.00   -0.22380   1.05492   -2.000
 5492.00    1.41695   1.04628   -2.000
 5493.00    2.57369   1.06125   -2.000
 5494.00    2.60257   1.06979   -2.000
 5495.00    1.55333   1.07786   -2.000
 5496.00    0.96752   1.08165   -2.000
 5497.00    0.77233   1.07002   -2.000
 5498.00    0.75418   1.06778   -2.000
 5499.00    0.86744   1.07868   -2.000
 5500.00    0.85395   1.07001   -2.000
 5501.00    0.75784   1.04840   -2.000
 5502.00    0.78791   1.05965    0.011
 5503.00    0.88996   1.09086    0.011
 5504.00    0.85988   1.08513    0.011
 5505.00    0.76414   1.05042    0.011
 5506.00    0.79198   1.03520    0.011
 5507.00    0.87293   1.04803    0.011
 5508.00    0.84908   1.06067    0.011
 5509.00    0.78663   1.05035    0.011
 5510.00    0.73789   1.02470    0.011
 5511.00    0.69342   1.02750    0.011
 5512.00    0.69781   1.05668    0.010
 5513.00    0.71490   1.06674    0.010
 5514.00    0.75680   1.05846    0.010
 5515.00    0.80397   1.04117    0.011
 5516.00    0.81194   1.01780    0.010
 5517.00    0.81332   1.01102    0.010
 5518.00    0.76016   1.02459    0.011
 5519.00    0.70011   1.04281    0.011
 5520.00    0.83399   1.05775    0.010
 5521.00    0.98498   1.07410    0.010
 5522.00    0.91156   1.09611    0.010
 5523.00    0.82640   1.10653    0.010
 5524.00    0.80016   1.10035    0.010
 5525.00    0.77588   1.09405    0.010
 5526.00    0.81660   1.09290    0.010
 5527.00    0.85447   1.09357    0.010
 5528.00    0.83088   1.08787    0.010
 5529.00    0.80940   1.07077    0.010
 5530.00    0.81346   1.04625    0.010
 5531.00    0.81769   1.01488    0.010
 5532.00    0.82324   0.99676    0.010
 5533.00    0.82508   1.02182    0.010
 5534.00    0.80385   1.06740    0.010
 5535.00    0.77952   1.08726    0.010
 5536.00    0.74001   1.08128    0.010
 5537.00    0.71309   1.06892    0.010
 5538.00    0.73610   1.05407    0.010
 5539.00    0.76657   1.04520    0.010
 5540.00    0.82163   1.05864    0.010
 5541.00    0.86033   1.07316    0.010
 5542.00    0.85338   1.07531    0.011
 5543.00    0.87021   1.08407    0.011
 5544.00    0.94382   1.09985    0.011
 5545.00    0.98959   1.10605    0.011
 5546.00    0.97798   1.09198    0.011
 5547.00    0.96640   1.07088    0.011
 5548.00    0.95486   1.06563    0.011
 5549.00    0.94905   1.06979    0.011
 5550.00    0.95223   1.07062    0.011
 5551.00    0.93458   1.08185    0.011
 5552.00    0.88825   1.10359    0.011
 5553.00    0.84155   1.11405    0.011
 5554.00    0.79442   1.11390    0.010
 5555.00    0.78021   1.11023    0.010
 5556.00    0.80119   1.10026    0.010
 5557.00    0.80386   1.08458    0.010
 5558.00    0.78928   1.07142    0.010
 5559.00    0.81511   1.07315    0.010
 5560.00    0.87453   1.08217    0.010
 5561.00    0.85732   1.08215    0.010
 5562.00    0.78407   1.07985    0.010
 5563.00    0.74545   1.08401    0.010
 5564.00    0.72907   1.08424    0.010
 5565.00    0.78180   1.07631    0.010
 5566.00    0.87337   1.06237    0.010
 5567.00    0.87457   1.05248    0.010
 5568.00    0.83159   1.05485    0.010
 5569.00    0.84134   1.05272    0.010
 5570.00    0.87338   1.04449    0.010
 5571.00    0.85879   1.04664    0.010
 5572.00    0.82733   1.04945    0.010
 5573.00    0.78049   1.04252    0.010
 5574.00    0.72895   1.04753    0.010
 5575.00    0.73007   1.06187    0.010
 5576.00    0.74460   1.04609    0.010
 5577.00    0.75209   1.03208    0.010
 5578.00    0.75813   1.05635    0.010
 5579.00    0.76173   1.07220    0.010
 5580.00    0.76493   1.06633    0.010
 5581.00    0.76196   1.07172    0.010
 5582.00    0.75824   1.07714    0.010
 5583.00    0.74981   1.07756    0.010
 5584.00    0.74099   1.08309    0.011
 5585.00    0.77670   1.07681    0.011
 5586.00    0.81456   1.06527    0.011
 5587.00    0.79386   1.06832    0.011
 5588.00    0.77236   1.06815    0.011
 5589.00    0.75552   1.04732    0.011
 5590.00    0.74265   1.00846    0.011
 5591.00    0.80860   0.97124    0.011
 5592.00    0.86172   0.95884    0.011
 5593.00    0.76588   0.96939    0.011
 5594.00    0.68947   0.99681    0.011
 5595.00    0.76913   1.02295    0.011
 5596.00    0.84763   1.03034    0.011
 5597.00    0.91902   1.02322    0.011
 5598.00    0.96829   1.01662    0.011
 5599.00    0.91211   1.03818    0.011
 5600.00    0.87418   1.07488    0.011
 5601.00    0.90710   1.06994    0.011
 5602.00    0.94177   1.03209    0.011
 5603.00    0.98212   1.01681    0.011
 5604.00    1.03105   1.01752    0.011
 5605.00    1.10349   1.00497    0.011
 5606.00    1.13639   0.99129    0.011
 5607.00    1.07649   1.00215    0.010
 5608.00    1.01255   1.04361    0.010
 5609.00    0.94040   1.08431    0.010
 5610.00    0.90437   1.10380    0.010
 5611.00    0.93212   1.10683    0.010
 5612.00    0.94647   1.10196    0.010
 5613.00    0.94011   1.09796    0.010
 5614.00    0.90037   1.09733    0.010
 5615.00    0.81532   1.10329    0.010
 5616.00    0.76613   1.10971    0.010
 5617.00    0.75976   1.09958    0.010
 5618.00    0.76928   1.04853    0.010
 5619.00    0.79553   0.98371    0.010
 5620.00    0.78371   0.97852    0.010
 5621.00    0.73649   1.02602    0.010
 5622.00    0.73068   1.05325    0.010
 5623.00    0.75880   1.05014    0.010
 5624.00    0.86122   1.05002    0.010
 5625.00    1.01721   1.06495    0.010
 5626.00    0.98691   1.07600    0.010
 5627.00    0.83872   1.05625    0.010
 5628.00    0.73620   1.01227    0.010
 5629.00    0.65894   0.99699    0.010
 5630.00    0.69322   1.02359    0.010
 5631.00    0.78115   1.04900    0.010
 5632.00    0.83200   1.06181    0.010
 5633.00    0.86743   1.07806    0.010
 5634.00    0.82536   1.09069    0.010
 5635.00    0.75575   1.09295    0.010
 5636.00    0.72729   1.08831    0.010
 5637.00    0.71119   1.07931    0.010
 5638.00    0.75245   1.06815    0.010
 5639.00    0.80800   1.05920    0.010
 5640.00    0.77998   1.04726    0.010
 5641.00    0.73507   1.03493    0.010
 5642.00    0.74687   1.03587    0.010
 5643.00    0.76766   1.04677    0.010
 5644.00    0.82707   1.04391    0.010
 5645.00    0.89102   1.02878    0.010
 5646.00    0.90884   1.03235    0.010
 5647.00    0.92299   1.04575    0.010
 5648.00    0.88662   1.05141    0.010
 5649.00    0.84801   1.05597    0.010
 5650.00    0.86269   1.06203    0.010
 5651.00    0.87813   1.06853    0.010
 5652.00    0.90107   1.06822    0.010
 5653.00    0.91838   1.06007    0.010
 5654.00    0.83179   1.05664    0.010
 5655.00    0.75006   1.06894    0.010
 5656.00    0.72220   1.08327    0.010
 5657.00    0.70102   1.08038    0.009
 5658.00    0.73171   1.05720    0.010
 5659.00    0.75061   1.04278    0.010
 5660.00    0.70036   1.04947    0.010
 5661.00    0.65840   1.02734    0.010
 5662.00    0.65500   0.97334    0.010
 5663.00    0.66835   0.96979    0.010
 5664.00    0.74535   1.01934    0.010
 5665.00    0.80599   1.03679    0.010
 5666.00    0.81471   1.01543    0.010
 5667.00    0.81988   1.01335    0.010
 5668.00    0.81550   1.04241    0.010
 5669.00    0.82401   1.06491    0.010
 5670.00    0.86229   1.06077    0.010
 5671.00    0.86681   1.04049    0.010
 5672.00    0.80393   1.03054    0.010
 5673.00    0.80039   1.03753    0.010
 5674.00    0.90004   1.04772    0.010
 5675.00    0.93242   1.05716    0.010
 5676.00    0.86236   1.07546    0.011
 5677.00    0.78071   1.09418    0.011
 5678.00    0.68357   1.09375    0.011
 5679.00    0.67104   1.07974    0.010
 5680.00    0.75819   1.08138    0.010
 5681.00    0.81997   1.09200    0.010
 5682.00    0.85542   1.08676    0.010
 5683.00    0.83977   1.07398    0.010
 5684.00    0.77730   1.07299    0.010
 5685.00    0.75833   1.06660    0.010
 5686.00    0.77448   1.03927    0.010
 5687.00    0.73875   1.02368    0.010
 5688.00    0.66615   1.03643    0.010
 5689.00    0.69636   1.05264    0.010
 5690.00    0.79067   1.04752    0.010
 5691.00    0.84916   1.02822    0.010
 5692.00    0.88814   1.02026    0.009
 5693.00    0.87559   1.03452    0.009
 5694.00    0.83865   1.05845    0.010
 5695.00    0.84664   1.07429    0.010
 5696.00    0.87299   1.08675    0.010
 5697.00    0.86168   1.09058    0.010
 5698.00    0.83723   1.08226    0.010
 5699.00    0.83321   1.07731    0.010
 5700.00    0.83521   1.07994    0.010
 5701.00    0.81638   1.07517    0.010
 5702.00    0.79248   1.05709    0.010
 5703.00    0.81217   1.04870    0.010
 5704.00    0.84045   1.04324    0.010
 5705.00    0.97538   1.02475    0.011
 5706.00    1.12670   1.01868    0.012
 5707.00    1.24289   1.03611    0.022
 5708.00    1.35511   1.05379    0.335
 5709.00    1.23562   1.04790   -1.000
 5710.00    1.09858   1.02490   -1.000
 5711.00    0.97828   1.00752   -1.000
 5712.00    0.85867   0.99026   -1.000
 5713.00    0.81522   0.97525    0.020
 5714.00    0.77360   0.98322    0.010
 5715.00    0.78269   0.99132    0.010
 5716.00    0.78945   0.99892    0.010
 5717.00    0.75592   1.03259    0.010
 5718.00    0.72795   1.05972    0.010
 5719.00    0.75867   1.06540    0.010
 5720.00    0.78332   1.07158    0.010
 5721.00    0.76246   1.07202    0.010
 5722.00    0.74363   1.06946    0.010
 5723.00    0.73642   1.07775    0.010
 5724.00    0.72962   1.08557    0.009
 5725.00    0.72469   1.09159    0.009
 5726.00    0.73092   1.10028    0.009
 5727.00    0.77866   1.10460    0.009
 5728.00    0.81261   1.10141    0.009
 5729.00    0.80364   1.09550    0.010
 5730.00    0.79539   1.07847    0.010
 5731.00    0.78902   1.05767    0.009
 5732.00    0.78804   1.06269    0.009
 5733.00    0.79928   1.08384    0.009
 5734.00    0.83284   1.08385    0.009
 5735.00    0.91026   1.06055    0.009
 5736.00    0.94223   1.05342    0.009
 5737.00    0.89638   1.07292    0.009
 5738.00    0.87966   1.09125    0.009
 5739.00    0.90664   1.09548    0.009
 5740.00    0.91691   1.08906    0.000
 5741.00    0.90517   1.08163    0.000
 5742.00    0.87719   1.07938    0.000
 5743.00    0.83036   1.07864    0.000
 5744.00    0.79182   1.07947    0.000
 5745.00    0.76179   1.07937    0.000
 5746.00    0.77217   1.07444    0.000
 5747.00    0.81907   1.06879    0.000
 5748.00    0.85714   1.07750    0.000
 5749.00    0.88818   1.09396    0.000
 5750.00    0.86185   1.09888    0.000
 5751.00    0.79533   1.07702    0.000
 5752.00    0.77875   1.05325    0.000
 5753.00    0.79284   1.06092    0.000
 5754.00    0.83928   1.08584    0.000
 5755.00    0.90306   1.09042    0.000
 5756.00    0.91410   1.06443    0.000
 5757.00    0.90055   1.02925    0.000
 5758.00    0.85606   1.01611    0.000
 5759.00    0.79915   1.04045    0.000
 5760.00    0.86612   1.07692    0.000
 5761.00    0.97550   1.09618    0.000
 5762.00    0.97946   1.09998    0.000
 5763.00    0.95303   1.08888    0.000
 5764.00    0.91515   1.06785    0.000
 5765.00    0.87455   1.04456    0.000
 5766.00    0.85937   1.02415    0.000
 5767.00    0.84907   1.02433    0.000
 5768.00    0.89221   1.05797    0.000
 5769.00    0.94332   1.08959    0.000
 5770.00    0.91149   1.09703    0.000
 5771.00    0.87062   1.09734    0.000
 5772.00    0.91002   1.09672    0.000
 5773.00    0.95517   1.09241    0.000
 5774.00    0.93195   1.08784    0.000
 5775.00    0.90621   1.08167    0.000
 5776.00    0.86528   1.07176    0.000
 5777.00    0.82721   1.06993    0.000
 5778.00    0.89374   1.06874    0.000
 5779.00    0.95123   1.06691    0.000
 5780.00    0.86318   1.07496    0.000
 5781.00    0.78208   1.08373    0.000
 5782.00    0.77144   1.08216    0.000
 5783.00    0.75646   1.06814    0.000
 5784.00    0.71002   1.03488    0.000
 5785.00    0.67809   0.99904    0.000
 5786.00    0.72672   0.99349    0.000
 5787.00    0.76984   1.00908    0.000
 5788.00    0.78849   1.01027    0.000
 5789.00    0.82002   0.99792    0.000
 5790.00    0.89851   1.00883    0.000
 5791.00    0.92002   1.03998   -2.000
 5792.00    0.76757   1.05955   -2.000
 5793.00    0.66282   1.06725   -2.000
 5794.00    0.68194   1.05795   -2.000
 5795.00    0.71329   1.04314   -2.000
 5796.00    0.77191   1.05018   -2.000
 5797.00    0.83870   1.06633   -2.000
 5798.00    0.92126   1.07899   -2.000
 5799.00    0.96776   1.08997   -2.000
 5800.00    0.95339   1.08477   -2.000
 5801.00    0.93013   1.05879   -2.000
 5802.00    0.89372   1.04475   -2.000
 5803.00    0.87406   1.06555   -2.000
 5804.00    0.87617   1.09238   -2.000
 5805.00    0.90966   1.10432   -2.000
 5806.00    0.97909   1.10712   -2.000
 5807.00    0.98719   1.09817   -2.000
 5808.00    0.93336   1.07545   -2.000
 5809.00    0.89916   1.06086   -2.000
 5810.00    0.88244   1.06107   -2.000
 5811.00    0.88009   1.06921    0.000
 5812.00    0.88902   1.07575    0.000
 5813.00    0.87900   1.07799    0.000
 5814.00    0.85591   1.08281    0.000
 5815.00    0.80940   1.08785    0.000
 5816.00    0.74871   1.08686    0.000
 5817.00    0.72066   1.08434    0.000
 5818.00    0.70985   1.07901    0.000
 5819.00    0.70063   1.06330    0.000
 5820.00    0.69212   1.04789    0.000
 5821.00    0.71845   1.05489    0.000
 5822.00    0.75851   1.07959    0.000
 5823.00    0.85332   1.09683    0.000
 5824.00    0.96655   1.10102    0.000
 5825.00    1.01706   1.10078    0.000
 5826.00    1.04986   1.09436    0.000
 5827.00    1.04185   1.08729    0.000
 5828.00    1.02433   1.08685    0.000
 5829.00    0.97447   1.09192    0.000
 5830.00    0.91857   1.09477    0.000
 5831.00    0.92522   1.09371    0.000
 5832.00    0.94088   1.09374    0.000
 5833.00    0.94559   1.09749    0.000
 5834.00    0.94916   1.09826    0.000
 5835.00    0.90004   1.09429    0.000
 5836.00    0.84735   1.09312    0.000
 5837.00    0.87489   1.09114    0.000
 5838.00    0.90508   1.08191    0.000
 5839.00    0.84211   1.07602    0.000
 5840.00    0.78098   1.08379    0.000
 5841.00    0.77988   1.08806    0.000
 5842.00    0.78276   1.07933    0.000
 5843.00    0.84575   1.07742    0.000
 5844.00    0.90417   1.08891    0.000
 5845.00    0.91830   1.09987    0.000
 5846.00    0.93215   1.10367    0.000
 5847.00    0.94399   1.10281    0.000
 5848.00    0.93910   1.09697    0.000
 5849.00    0.84372   1.08838    0.000
 5850.00    0.76632   1.07698    0.000
 5851.00    0.76687   1.06615    0.000
 5852.00    0.76652   1.06289    0.000
 5853.00    0.76297   1.06848    0.000
 5854.00    0.75200   1.07330    0.000
 5855.00    0.71884   1.06959    0.000
 5856.00    0.70992   1.05151    0.000
 5857.00    0.76283   1.02826    0.000
 5858.00    0.83069   1.02720    0.000
 5859.00    0.93136   1.04272    0.000
 5860.00    0.96762   1.03780    0.000
 5861.00    0.88121   1.00684    0.000
 5862.00    0.82423   0.99158    0.000
 5863.00    0.81616   1.01115    0.000
 5864.00    0.82416   1.03789    0.000
 5865.00    0.85560   1.05296    0.000
 5866.00    0.85181   1.04829    0.000
 5867.00    0.80289   1.04302    0.000
 5868.00    0.78092   1.05368    0.000
 5869.00    0.78935   1.06091    0.000
 5870.00    0.79708   1.05035    0.000
 5871.00    0.80411   1.04059    0.000
 5872.00    0.84218   1.05083    0.000
 5873.00    0.90752   1.06780    0.000
 5874.00    0.92700   1.07701    0.000
 5875.00    0.91099   1.07759    0.000
 5876.00    0.88915   1.07042    0.000
 5877.00    0.86334   1.06314    0.000
 5878.00    0.87311   1.05735    0.000
 5879.00    0.90409   1.05058    0.000
 5880.00    0.90178   1.04358    0.000
 5881.00    0.88217   1.04288    0.000
 5882.00    0.88018   1.04834    0.000
 5883.00    0.88613   1.04204    0.000
 5884.00    0.85996   1.03108    0.000
 5885.00    0.82134   1.03238    0.000
 5886.00    0.81045   1.04230    0.000
 5887.00    0.80871   1.04016    0.000
 5888.00    0.75836   1.03009    0.000
 5889.00    0.69457   1.02980    0.000
 5890.00    0.69108   1.03383    0.000
 5891.00    0.70130   1.01750    0.000
 5892.00    0.72698   0.95269    0.000
 5893.00    0.75548   0.83136    0.000
 5894.00    0.73403   0.74195    0.000
 5895.00    0.70560   0.78027    0.000
 5896.00    0.73828   0.87603    0.000
 5897.00    0.77710   0.93204    0.000
 5898.00    0.71986   0.93003    0.000
 5899.00    0.65650   0.85849    0.000
 5900.00    0.72419   0.79184    0.000
 5901.00    0.79561   0.83337    0.009
 5902.00    0.83174   0.92408    0.009
 5903.00    0.86652   0.97385    0.009
 5904.00    0.86312   0.99780    0.009
 5905.00    0.85958   1.01906    0.009
 5906.00    0.85405   1.02990    0.009
 5907.00    0.84888   1.03518    0.009
 5908.00    0.84697   1.03760    0.009
 5909.00    0.84325   1.03275    0.008
 5910.00    0.82725   1.02783    0.008
 5911.00    0.81356   1.03389    0.008
 5912.00    0.81203   1.04413    0.008
 5913.00    0.80874   1.04604    0.008
 5914.00    0.79794   1.04583    0.008
 5915.00    0.79274   1.05243    0.009
 5916.00    0.80713   1.05487    0.008
 5917.00    0.79828   1.03782    0.008
 5918.00    0.72108   1.01222    0.009
 5919.00    0.66812   1.00370    0.009
 5920.00    0.67592   1.01019    0.009
 5921.00    0.70928   1.02408    0.009
 5922.00    0.79786   1.03674    0.009
 5923.00    0.85598   1.04363    0.009
 5924.00    0.85699   1.04963    0.009
 5925.00    0.85593   1.04775    0.009
 5926.00    0.85148   1.03965    0.009
 5927.00    0.86190   1.03882    0.009
 5928.00    0.89368   1.04504    0.009
 5929.00    0.89823   1.05181    0.009
 5930.00    0.86841   1.05704    0.009
 5931.00    0.83395   1.05358    0.009
 5932.00    0.79434   1.04231    0.009
 5933.00    0.77515   1.02657    0.009
 5934.00    0.77603   1.01529    0.009
 5935.00    0.77716   1.02621    0.009
 5936.00    0.77851   1.04852    0.009
 5937.00    0.80323   1.05184    0.009
 5938.00    0.84578   1.03472    0.008
 5939.00    0.88775   1.02377    0.008
 5940.00    0.92934   1.03565    0.008
 5941.00    0.91456   1.05009    0.008
 5942.00    0.86670   1.05676    0.008
 5943.00    0.80959   1.05999    0.008
 5944.00    0.74774   1.05194    0.008
 5945.00    0.74065   1.03383    0.008
 5946.00    0.75782   1.02716    0.008
 5947.00    0.78310   1.03486    0.008
 5948.00    0.81146   1.04559    0.008
 5949.00    0.80495   1.05608    0.008
 5950.00    0.78716   1.06226    0.008
 5951.00    0.77881   1.05563    0.008
 5952.00    0.77301   1.03458    0.008
 5953.00    0.77706   1.01859    0.008
 5954.00    0.78328   1.02760    0.009
 5955.00    0.81402   1.04266    0.009
 5956.00    0.84910   1.03467    0.009
 5957.00    0.84196   1.01901    0.009
 5958.00    0.82911   1.02736    0.009
 5959.00    0.81398   1.04253    0.009
 5960.00    0.79863   1.03611    0.009
 5961.00    0.79289   1.02297    0.009
 5962.00    0.78773   1.02350    0.009
 5963.00    0.80317   1.03526    0.009
 5964.00    0.81912   1.04935    0.009
 5965.00    0.83255   1.06046    0.009
 5966.00    0.84447   1.06490    0.009
 5967.00    0.81792   1.06420    0.008
 5968.00    0.79467   1.06105    0.008
 5969.00    0.81583   1.05164    0.008
 5970.00    0.83754   1.04370    0.008
 5971.00    0.86408   1.04884    0.008
 5972.00    0.88135   1.05845    0.008
 5973.00    0.83763   1.06335    0.008
 5974.00    0.80630   1.06790    0.008
 5975.00    0.83851   1.07078    0.008
 5976.00    0.86527   1.07017    0.008
 5977.00    0.86949   1.06780    0.008
 5978.00    0.86159   1.06191    0.008
 5979.00    0.81217   1.04775    0.008
 5980.00    0.77676   1.02960    0.008
 5981.00    0.78176   1.01922    0.008
 5982.00    0.78166   1.02041    0.008
 5983.00    0.76896   1.03167    0.008
 5984.00    0.77871   1.04706    0.008
 5985.00    0.83619   1.05622    0.008
 5986.00    0.88487   1.05138    0.008
 5987.00    0.91732   1.02942    0.008
 5988.00    0.94036   1.00304    0.009
 5989.00    0.94823   1.00041    0.009
 5990.00    0.94386   1.01938    0.009
 5991.00    0.92217   1.03186    0.009
 5992.00    0.91172   1.03721    0.009
 5993.00    0.91524   1.04495    0.009
 5994.00    0.89001   1.04804    0.008
 5995.00    0.83322   1.03876    0.008
 5996.00    0.80540   1.03502    0.008
 5997.00    0.80562   1.04932    0.008
 5998.00    0.80559   1.06435    0.008
 5999.00    0.80535   1.06442    0.008
 6000.00    0.79482   1.05238    0.008
 6001.00    0.77657   1.03522    0.008
 6002.00    0.77860   1.02529    0.008
 6003.00    0.79402   1.02826    0.008
 6004.00    0.79998   1.03831    0.008
 6005.00    0.80048   1.04450    0.008
 6006.00    0.80873   1.03668    0.008
 6007.00    0.82088   1.02472    0.008
 6008.00    0.83618   1.02981    0.008
 6009.00    0.85285   1.03884    0.008
 6010.00    0.85974   1.03334    0.008
 6011.00    0.86297   1.01418    0.008
 6012.00    0.85928   0.99431    0.008
 6013.00    0.85338   1.00124    0.008
 6014.00    0.84726   1.03204    0.008
 6015.00    0.84108   1.04949    0.008
 6016.00    0.84651   1.03903    0.008
 6017.00    0.85446   1.01875    0.009
 6018.00    0.88250   1.01575    0.009
 6019.00    0.91400   1.02578    0.009
 6020.00    0.89262   1.02405    0.009
 6021.00    0.86434   1.01815    0.009
 6022.00    0.83989   1.02359    0.009
 6023.00    0.81580   1.02412    0.008
 6024.00    0.81157   1.01157    0.009
 6025.00    0.80846   1.00474    0.009
 6026.00    0.83134   1.01049    0.009
 6027.00    0.85444   1.01766    0.009
 6028.00    0.84276   1.02080    0.008
 6029.00    0.83275   1.03008    0.008
 6030.00    0.86154   1.03998    0.008
 6031.00    0.88854   1.03931    0.008
 6032.00    0.89270   1.04314    0.008
 6033.00    0.89287   1.05379    0.008
 6034.00    0.85864   1.05698    0.008
 6035.00    0.82855   1.05492    0.008
 6036.00    0.82485   1.05861    0.008
 6037.00    0.82431   1.06467    0.008
 6038.00    0.83953   1.06612    0.008
 6039.00    0.85227   1.06386    0.008
 6040.00    0.85492   1.06342    0.008
 6041.00    0.86718   1.06499    0.008
 6042.00    0.91175   1.06518    0.008
 6043.00    0.95136   1.06077    0.008
 6044.00    0.97694   1.05481    0.008
 6045.00    0.97916   1.05123    0.008
 6046.00    0.92482   1.04835    0.008
 6047.00    0.87415   1.05421    0.008
 6048.00    0.83116   1.06445    0.008
 6049.00    0.80594   1.06825    0.008
 6050.00    0.81302   1.06785    0.008
 6051.00    0.80518   1.06976    0.008
 6052.00    0.77366   1.07038    0.008
 6053.00    0.77227   1.06807    0.008
 6054.00    0.81291   1.06958    0.008
 6055.00    0.86057   1.07249    0.009
 6056.00    0.91685   1.06741    0.009
 6057.00    0.94025   1.05650    0.009
 6058.00    0.92809   1.04901    0.008
 6059.00    0.89871   1.04390    0.008
 6060.00    0.85289   1.03690    0.008
 6061.00    0.82881   1.03519    0.008
 6062.00    0.82300   1.04247    0.008
 6063.00    0.81926   1.05391    0.008
 6064.00    0.81704   1.06190    0.008
 6065.00    0.81251   1.06356    0.008
 6066.00    0.80646   1.05779    0.008
 6067.00    0.81705   1.04687    0.008
 6068.00    0.83712   1.03088    0.008
 6069.00    0.85046   1.00909    0.008
 6070.00    0.86047   1.00847    0.008
 6071.00    0.85699   1.03758    0.008
 6072.00    0.84772   1.06479    0.008
 6073.00    0.84411   1.07447    0.008
 6074.00    0.84258   1.07492    0.008
 6075.00    0.84726   1.07460    0.008
 6076.00    0.85389   1.07608    0.008
 6077.00    0.88034   1.07771    0.008
 6078.00    0.91195   1.07725    0.008
 6079.00    0.94678   1.07558    0.008
 6080.00    0.98229   1.07043    0.008
 6081.00    1.01213   1.05950    0.008
 6082.00    1.04102   1.04136    0.008
 6083.00    0.99916   1.02945    0.008
 6084.00    0.94838   1.03443    0.008
 6085.00    0.88153   1.03658    0.008
 6086.00    0.81326   1.02680    0.008
 6087.00    0.79352   1.02485    0.008
 6088.00    0.77629   1.03113    0.008
 6089.00    0.83290   1.03121    0.008
 6090.00    0.89010   1.02981    0.008
 6091.00    0.89120   1.03587    0.008
 6092.00    0.89209   1.04484    0.008
 6093.00    0.88837   1.04141    0.008
 6094.00    0.88660   1.02659    0.008
 6095.00    0.90848   1.01963    0.008
 6096.00    0.92932   1.02273    0.008
 6097.00    0.94161   1.02640    0.008
 6098.00    0.95080   1.03488    0.008
 6099.00    0.94080   1.04947    0.008
 6100.00    0.92722   1.05476    0.008
 6101.00    0.89616   1.04769    0.008
 6102.00    0.86547   1.04483    0.008
 6103.00    0.83628   1.05143    0.008
 6104.00    0.81216   1.05828    0.008
 6105.00    0.80468   1.04343    0.008
 6106.00    0.81647   0.99417    0.008
 6107.00    0.88185   0.95524    0.008
 6108.00    0.93269   0.97669    0.008
 6109.00    0.94891   1.02346    0.008
 6110.00    0.94858   1.04588    0.008
 6111.00    0.91423   1.04308    0.008
 6112.00    0.88556   1.03571    0.008
 6113.00    0.86704   1.04243    0.008
 6114.00    0.83893   1.05193    0.008
 6115.00    0.79582   1.04619    0.008
 6116.00    0.77026   1.03821    0.008
 6117.00    0.76884   1.04412    0.008
 6118.00    0.79367   1.05673    0.008
 6119.00    0.85024   1.05890    0.008
 6120.00    0.88451   1.04676    0.008
 6121.00    0.89497   1.04079    0.009
 6122.00    0.91873   1.04707    0.009
 6123.00    0.95501   1.04495    0.009
 6124.00    1.00343   1.02754    0.009
 6125.00    1.06192   0.99889    0.009
 6126.00    1.06756   0.96884    0.008
 6127.00    1.03459   0.97327    0.008
 6128.00    0.99360   1.01144    0.008
 6129.00    0.94747   1.03576    0.008
 6130.00    0.94045   1.03535    0.008
 6131.00    0.95537   1.02778    0.008
 6132.00    0.96968   1.02110    0.008
 6133.00    0.98369   1.02155    0.008
 6134.00    0.96260   1.03332    0.008
 6135.00    0.92671   1.04631    0.008
 6136.00    0.88882   1.05188    0.008
 6137.00    0.85022   1.05338    0.008
 6138.00    0.84535   1.04632    0.008
 6139.00    0.85078   1.01865    0.008
 6140.00    0.85048   0.96658    0.008
 6141.00    0.84873   0.91712    0.008
 6142.00    0.85766   0.92363    0.008
 6143.00    0.86881   0.98356    0.008
 6144.00    0.82895   1.02832    0.008
 6145.00    0.78081   1.02038    0.008
 6146.00    0.82330   0.99841    0.008
 6147.00    0.87682   1.00998    0.008
 6148.00    0.89710   1.04047    0.008
 6149.00    0.91461   1.05522    0.008
 6150.00    0.84648   1.05364    0.008
 6151.00    0.77426   1.04482    0.008
 6152.00    0.74347   1.02944    0.008
 6153.00    0.71458   1.01334    0.008
 6154.00    0.76046   1.00693    0.008
 6155.00    0.80550   1.01402    0.008
 6156.00    0.83401   1.02805    0.008
 6157.00    0.85706   1.03775    0.008
 6158.00    0.81725   1.03006    0.008
 6159.00    0.78385   1.01434    0.008
 6160.00    0.80172   1.01189    0.008
 6161.00    0.81939   1.01698    0.008
 6162.00    0.83591   1.01787    0.008
 6163.00    0.84414   1.01530    0.008
 6164.00    0.81295   0.99537    0.008
 6165.00    0.77977   0.94248    0.008
 6166.00    0.73885   0.88821    0.008
 6167.00    0.71635   0.87968    0.008
 6168.00    0.75326   0.91498    0.008
 6169.00    0.77973   0.95505    0.008
 6170.00    0.77765   0.97638    0.008
 6171.00    0.77608   0.98807    0.008
 6172.00    0.77570   0.98567    0.008
 6173.00    0.78341   0.95261    0.008
 6174.00    0.80753   0.92424    0.008
 6175.00    0.82192   0.94370    0.008
 6176.00    0.81920   0.98286    0.008
 6177.00    0.81988   0.99703    0.008
 6178.00    0.82582   0.99545    0.008
 6179.00    0.81552   0.99699    0.008
 6180.00    0.78320   0.99641    0.008
 6181.00    0.77097   0.99411    0.008
 6182.00    0.78271   1.00197    0.008
 6183.00    0.77832   1.01173    0.008
 6184.00    0.75699   1.01072    0.008
 6185.00    0.74937   1.01189    0.008
 6186.00    0.75447   1.02045    0.008
 6187.00    0.77520   1.02448    0.008
 6188.00    0.80870   1.02320    0.008
 6189.00    0.83044   1.01904    0.008
 6190.00    0.84372   1.00675    0.008
 6191.00    0.85386   0.99214    0.008
 6192.00    0.86203   0.98536    0.008
 6193.00    0.84920   0.98541    0.008
 6194.00    0.82478   0.97565    0.008
 6195.00    0.67013   0.94470    0.009
 6196.00    0.45295   0.92888   -2.000
 6197.00    0.04683   0.95700   -2.000
 6198.00   -0.43762   0.99309   -2.000
 6199.00   -0.55046   1.00758   -2.000
 6200.00   -0.53159   1.01317   -2.000
 6201.00    0.10721   1.01967   -2.000
 6202.00    0.93154   1.01666   -2.000
 6203.00    1.45017   0.99556   -2.000
 6204.00    1.89287   0.97447   -2.000
 6205.00    1.80757   0.97864   -2.000
 6206.00    1.61596   1.00115   -2.000
 6207.00    1.31944   1.01738   -2.000
 6208.00    1.00638   1.01948    0.009
 6209.00    0.92598   1.01715    0.008
 6210.00    0.87285   1.01883    0.008
 6211.00    0.86611   1.02191    0.008
 6212.00    0.86306   1.02215    0.008
 6213.00    0.89001   1.02034    0.008
 6214.00    0.91827   1.01518    0.008
 6215.00    0.88557   1.00823    0.008
 6216.00    0.85183   0.99822    0.008
 6217.00    0.80038   0.97598    0.008
 6218.00    0.75086   0.94998    0.008
 6219.00    0.73638   0.93816    0.008
 6220.00    0.72484   0.94343    0.008
 6221.00    0.74568   0.96142    0.008
 6222.00    0.76981   0.97553    0.008
 6223.00    0.81929   0.96760    0.008
 6224.00    0.85957   0.95201    0.008
 6225.00    0.84605   0.95214    0.008
 6226.00    0.82731   0.96690    0.008
 6227.00    0.78440   0.97945    0.008
 6228.00    0.74898   0.97990    0.008
 6229.00    0.74202   0.97865    0.008
 6230.00    0.74893   0.98291    0.008
 6231.00    0.79979   0.98671    0.008
 6232.00    0.83424   0.98587    0.008
 6233.00    0.82464   0.97113    0.008
 6234.00    0.80726   0.93753    0.008
 6235.00    0.77198   0.91161    0.008
 6236.00    0.76486   0.91731    0.008
 6237.00    0.81385   0.94073    0.008
 6238.00    0.84257   0.97012    0.008
 6239.00    0.83610   0.99724    0.008
 6240.00    0.82847   1.00579    0.008
 6241.00    0.81909   0.99438    0.008
 6242.00    0.80373   0.97507    0.008
 6243.00    0.78040   0.95734    0.008
 6244.00    0.76199   0.94606    0.008
 6245.00    0.74937   0.95011    0.008
 6246.00    0.74493   0.95695    0.008
 6247.00    0.74898   0.94590    0.008
 6248.00    0.76362   0.93402    0.008
 6249.00    0.78793   0.93391    0.008
 6250.00    0.80546   0.93406    0.008
 6251.00    0.81752   0.94159    0.008
 6252.00    0.80570   0.96416    0.008
 6253.00    0.77694   0.98527    0.008
 6254.00    0.76581   0.99241    0.008
 6255.00    0.76566   0.98262    0.008
 6256.00    0.77795   0.95583    0.008
 6257.00    0.79702   0.93160    0.008
 6258.00    0.74460   0.92719    0.008
 6259.00    0.65839   0.93456    0.009
 6260.00    0.49887   0.93546    0.009
 6261.00    0.30947   0.92435    0.009
 6262.00    0.33258   0.91053    0.010
 6263.00    0.42965   0.91201    0.010
 6264.00    0.64008   0.93433    0.010
 6265.00    0.88378   0.95642    0.010
 6266.00    1.07045   0.97272    0.009
 6267.00    1.24326   0.99056    0.009
 6268.00    1.17454   0.99480    0.008
 6269.00    1.05842   0.97784    0.008
 6270.00    0.91887   0.96755    0.008
 6271.00    0.77574   0.97817    0.008
 6272.00    0.76419   0.98687    0.008
 6273.00    0.76747   0.98118    0.008
 6274.00    0.78587   0.97435    0.008
 6275.00    0.80540   0.97657    0.008
 6276.00    0.82369   0.98585    0.008
 6277.00    0.84194   0.99418    0.008
 6278.00    0.79564   0.99519    0.008
 6279.00    0.74994   0.99301    0.008
 6280.00    0.74764   0.99347    0.000
 6281.00    0.74638   0.99361    0.000
 6282.00    0.76282   0.99059    0.000
 6283.00    0.77892   0.98232    0.000
 6284.00    0.79135   0.96705    0.000
 6285.00    0.80654   0.95756    0.000
 6286.00    0.84226   0.96372    0.000
 6287.00    0.87598   0.97747    0.000
 6288.00    0.89831   0.98913    0.000
 6289.00    0.91368   0.99189    0.000
 6290.00    0.89755   0.99190    0.000
 6291.00    0.88699   0.99926    0.000
 6292.00    0.89709   1.01051    0.000
 6293.00    0.89913   1.01748    0.000
 6294.00    0.87618   1.01298    0.000
 6295.00    0.85090   0.99979    0.000
 6296.00    0.81943   0.98967    0.000
 6297.00    0.81069   0.98691    0.000
 6298.00    0.85337   0.99105    0.000
 6299.00    0.88862   0.99446    0.000
 6300.00    0.90931   0.98383    0.000
 6301.00    0.90598   0.96544    0.000
 6302.00    0.86161   0.95904    0.000
 6303.00    0.82525   0.96725    0.000
 6304.00    0.80088   0.97268    0.000
 6305.00    0.79046   0.96216    0.000
 6306.00    0.79839   0.94831    0.000
 6307.00    0.82694   0.95283    0.000
 6308.00    0.87940   0.97127    0.000
 6309.00    0.90258   0.98260    0.000
 6310.00    0.89583   0.98632    0.000
 6311.00    0.87601   0.99718    0.000
 6312.00    0.84440   1.01125    0.000
 6313.00    0.80757   1.01342    0.000
 6314.00    0.76661   1.00247    0.000
 6315.00    0.73713   0.98879    0.000
 6316.00    0.71568   0.98309    0.000
 6317.00    0.73536   0.98647    0.000
 6318.00    0.78026   0.98347    0.000
 6319.00    0.82117   0.96802    0.000
 6320.00    0.85995   0.96042    0.000
 6321.00    0.84866   0.96090    0.008
 6322.00    0.81408   0.94905    0.008
 6323.00    0.79845   0.94063    0.008
 6324.00    0.79040   0.95621    0.008
 6325.00    0.78817   0.97650    0.008
 6326.00    0.78792   0.98242    0.008
 6327.00    0.78374   0.98456    0.008
 6328.00    0.77843   0.99442    0.008
 6329.00    0.80743   1.00472    0.008
 6330.00    0.84457   1.00771    0.008
 6331.00    0.86349   1.00415    0.008
 6332.00    0.87892   1.00311    0.008
 6333.00    0.85094   1.00710    0.008
 6334.00    0.81651   1.00472    0.008
 6335.00    0.79414   0.99948    0.008
 6336.00    0.77308   1.00420    0.008
 6337.00    0.76636   1.01361    0.008
 6338.00    0.76067   1.00937    0.008
 6339.00    0.78066   0.98147    0.008
 6340.00    0.80159   0.95113    0.008
 6341.00    0.76822   0.94817    0.008
 6342.00    0.73671   0.96635    0.008
 6343.00    0.77770   0.98074    0.008
 6344.00    0.81796   0.99080    0.008
 6345.00    0.84671   1.00222    0.008
 6346.00    0.87195   1.00316    0.008
 6347.00    0.86196   0.98708    0.008
 6348.00    0.85405   0.96683    0.008
 6349.00    0.86113   0.96239    0.008
 6350.00    0.86650   0.97104    0.008
 6351.00    0.86241   0.97752    0.008
 6352.00    0.85725   0.98467    0.008
 6353.00    0.84733   0.99710    0.008
 6354.00    0.83286   1.00597    0.008
 6355.00    0.80184   1.00856    0.008
 6356.00    0.77404   1.00926    0.008
 6357.00    0.75610   1.00510    0.008
 6358.00    0.75135   0.99072    0.008
 6359.00    0.78078   0.97431    0.008
 6360.00    0.80180   0.97238    0.008
 6361.00    0.80404   0.97841    0.008
 6362.00    0.79750   0.96973    0.008
 6363.00    0.77399   0.95129    0.008
 6364.00    0.76716   0.94354    0.008
 6365.00    0.78842   0.94192    0.008
 6366.00    0.79249   0.93485    0.008
 6367.00    0.77118   0.93134    0.008
 6368.00    0.76060   0.94115    0.008
 6369.00    0.76396   0.95742    0.008
 6370.00    0.78368   0.97073    0.008
 6371.00    0.82209   0.98206    0.008
 6372.00    0.83887   0.99392    0.008
 6373.00    0.83383   0.99879    0.008
 6374.00    0.84140   0.99236    0.008
 6375.00    0.86018   0.98628    0.008
 6376.00    0.87901   0.99353    0.008
 6377.00    0.89788   1.00916    0.008
 6378.00    0.92466   1.01737    0.008
 6379.00    0.95689   1.01530    0.008
 6380.00    0.95463   1.01335    0.008
 6381.00    0.93155   1.01294    0.008
 6382.00    0.89946   1.00523    0.008
 6383.00    0.86262   0.99316    0.008
 6384.00    0.85871   0.98720    0.008
 6385.00    0.86986   0.98757    0.008
 6386.00    0.85985   0.99287    0.008
 6387.00    0.84150   0.99934    0.008
 6388.00    0.83031   0.99819    0.008
 6389.00    0.82152   0.99428    0.008
 6390.00    0.82472   0.99891    0.008
 6391.00    0.83131   1.00774    0.008
 6392.00    0.81213   1.01062    0.008
 6393.00    0.78697   1.00942    0.008
 6394.00    0.72308   1.00969    0.008
 6395.00    0.65198   1.00832    0.008
 6396.00    0.68433   0.99442    0.008
 6397.00    0.73156   0.96559    0.008
 6398.00    0.73950   0.94740    0.008
 6399.00    0.74335   0.96333    0.008
 6400.00    0.75941   0.99500    0.008
 6401.00    0.77630   1.01456    0.008
 6402.00    0.76692   1.01434    0.008
 6403.00    0.75668   0.98906    0.008
 6404.00    0.77010   0.95010    0.008
 6405.00    0.78455   0.94248    0.008
 6406.00    0.83130   0.97717    0.008
 6407.00    0.87457   1.01045    0.008
 6408.00    0.86575   1.02096    0.008
 6409.00    0.85630   1.01949    0.008
 6410.00    0.84065   1.01074    0.008
 6411.00    0.82356   0.99283    0.008
 6412.00    0.79646   0.97495    0.008
 6413.00    0.76934   0.97773    0.008
 6414.00    0.74215   0.99344    0.008
 6415.00    0.72236   0.99011    0.008
 6416.00    0.73458   0.97514    0.008
 6417.00    0.74868   0.97663    0.008
 6418.00    0.76946   0.98722    0.008
 6419.00    0.79178   0.99202    0.008
 6420.00    0.81865   0.99558    0.008
 6421.00    0.84117   0.99907    0.008
 6422.00    0.85261   0.99817    0.008
 6423.00    0.86235   0.98981    0.008
 6424.00    0.86838   0.97043    0.008
 6425.00    0.85958   0.95228    0.008
 6426.00    0.82256   0.95963    0.008
 6427.00    0.78602   0.99046    0.008
 6428.00    0.75027   1.01331    0.008
 6429.00    0.73429   1.01537    0.008
 6430.00    0.74707   1.01383    0.008
 6431.00    0.75596   1.01934    0.008
 6432.00    0.75988   1.02484    0.008
 6433.00    0.76139   1.01792    0.008
 6434.00    0.76017   0.99182    0.008
 6435.00    0.75699   0.96170    0.008
 6436.00    0.75186   0.95559    0.008
 6437.00    0.74553   0.97485    0.008
 6438.00    0.73814   0.99718    0.008
 6439.00    0.75230   1.01087    0.008
 6440.00    0.78309   1.01647    0.008
 6441.00    0.77793   1.01246    0.008
 6442.00    0.74836   0.99052    0.008
 6443.00    0.75441   0.95990    0.008
 6444.00    0.78164   0.95737    0.008
 6445.00    0.77496   0.98916    0.008
 6446.00    0.75068   1.01825    0.008
 6447.00    0.71676   1.02725    0.008
 6448.00    0.67849   1.02728    0.008
 6449.00    0.66717   1.02814    0.008
 6450.00    0.66627   1.03138    0.008
 6451.00    0.67909   1.03151    0.008
 6452.00    0.69642   1.01656    0.008
 6453.00    0.73115   0.97552    0.008
 6454.00    0.77069   0.93027    0.008
 6455.00    0.77043   0.92634    0.008
 6456.00    0.76115   0.96234    0.008
 6457.00    0.74663   0.99724    0.008
 6458.00    0.73117   1.00922    0.008
 6459.00    0.72376   0.99639    0.008
 6460.00    0.71747   0.97369    0.008
 6461.00    0.73213   0.97073    0.008
 6462.00    0.74887   0.99409    0.008
 6463.00    0.77044   1.01999    0.008
 6464.00    0.79231   1.03038    0.008
 6465.00    0.78768   1.01874    0.008
 6466.00    0.78245   0.98065    0.008
 6467.00    0.82556   0.94359    0.008
 6468.00    0.86699   0.94835    0.008
 6469.00    0.86147   0.98215    0.008
 6470.00    0.85238   1.00727    0.008
 6471.00    0.79294   1.01780    0.008
 6472.00    0.74082   1.02054    0.008
 6473.00    0.75645   1.01483    0.008
 6474.00    0.77448   1.00395    0.008
 6475.00    0.80877   0.99264    0.008
 6476.00    0.83324   0.98649    0.008
 6477.00    0.80620   0.99415    0.008
 6478.00    0.77593   1.00469    0.008
 6479.00    0.73201   1.00095    0.008
 6480.00    0.69978   0.99422    0.008
 6481.00    0.70831   1.00027    0.008
 6482.00    0.71849   1.00913    0.008
 6483.00    0.73351   1.01032    0.008
 6484.00    0.75416   1.00674    0.008
 6485.00    0.78890   0.99367    0.008
 6486.00    0.79444   0.96945    0.008
 6487.00    0.73705   0.95447    0.008
 6488.00    0.69962   0.96327    0.008
 6489.00    0.69952   0.98235    0.008
 6490.00    0.69906   0.99456    0.008
 6491.00    0.69800   0.99947    0.008
 6492.00    0.69828   1.00244    0.008
 6493.00    0.70050   1.00116    0.008
 6494.00    0.71148   0.99152    0.008
 6495.00    0.73351   0.97827    0.008
 6496.00    0.75319   0.96677    0.008
 6497.00    0.77026   0.94605    0.008
 6498.00    0.76401   0.90289    0.008
 6499.00    0.73489   0.85898    0.008
 6500.00    0.71822   0.84731    0.008
 6501.00    0.71233   0.86474    0.008
 6502.00    0.72811   0.89209    0.008
 6503.00    0.76040   0.91421    0.008
 6504.00    0.80202   0.92930    0.008
 6505.00    0.84987   0.94803    0.008
 6506.00    0.82521   0.96742    0.008
 6507.00    0.75805   0.97971    0.008
 6508.00    0.74117   0.98642    0.008
 6509.00    0.74996   0.99158    0.008
 6510.00    0.77727   0.99647    0.008
 6511.00    0.81278   0.99764    0.008
 6512.00    0.80449   0.99171    0.008
 6513.00    0.77956   0.98472    0.008
 6514.00    0.76591   0.98637    0.008
 6515.00    0.75590   0.99413    0.008
 6516.00    0.75017   0.99801    0.008
 6517.00    0.74560   0.99736    0.008
 6518.00    0.72357   0.99474    0.008
 6519.00    0.69767   0.98604    0.008
 6520.00    0.71060   0.97260    0.008
 6521.00    0.73037   0.96411    0.008
 6522.00    0.74192   0.96155    0.008
 6523.00    0.75237   0.96108    0.008
 6524.00    0.75896   0.96971    0.008
 6525.00    0.76518   0.98611    0.008
 6526.00    0.79059   0.99595    0.008
 6527.00    0.81714   0.99636    0.008
 6528.00    0.77017   0.99594    0.000
 6529.00    0.72186   0.99750    0.000
 6530.00    0.74719   0.99204    0.000
 6531.00    0.77309   0.97844    0.000
 6532.00    0.81319   0.97217    0.000
 6533.00    0.84785   0.98027    0.000
 6534.00    0.80980   0.99122    0.000
 6535.00    0.77362   0.99293    0.000
 6536.00    0.75409   0.98416    0.000
 6537.00    0.74516   0.97384    0.000
 6538.00    0.80574   0.97256    0.000
 6539.00    0.84678   0.98237    0.000
 6540.00    0.78804   0.99303    0.000
 6541.00    0.75001   0.99351    0.000
 6542.00    0.79747   0.98843    0.000
 6543.00    0.85224   0.99042    0.000
 6544.00    0.93198   0.99855    0.000
 6545.00    1.00397   1.00084    0.000
 6546.00    1.05365   0.99285    0.000
 6547.00    1.08581   0.98135    0.000
 6548.00    1.07494   0.97282    0.000
 6549.00    1.04701   0.96308    0.000
 6550.00    0.98294   0.94556    0.000
 6551.00    0.91670   0.93344    0.000
 6552.00    0.84643   0.94250    0.000
 6553.00    0.80454   0.95972    0.000
 6554.00    0.80831   0.96588    0.000
 6555.00    0.79333   0.95963    0.000
 6556.00    0.75189   0.95044    0.000
 6557.00    0.75131   0.94346    0.000
 6558.00    0.80154   0.93247    0.000
 6559.00    0.90004   0.91557    0.000
 6560.00    1.05141   0.90281    0.000
 6561.00    1.18505   0.90172    0.000
 6562.00    1.30154   0.90528    0.000
 6563.00    1.37333   0.89988    0.000
 6564.00    1.40704   0.88078    0.000
 6565.00    1.38810   0.83563    0.000
 6566.00    1.32966   0.74084    0.000
 6567.00    1.23275   0.63751    0.000
 6568.00    1.11048   0.63489    0.000
 6569.00    1.01604   0.74066    0.000
 6570.00    0.93768   0.84491    0.000
 6571.00    0.87652   0.89648    0.000
 6572.00    0.82403   0.91586    0.000
 6573.00    0.82319   0.91610    0.000
 6574.00    0.84482   0.91202    0.000
 6575.00    0.85973   0.91861    0.000
 6576.00    0.87215   0.92538    0.000
 6577.00    0.86621   0.91993    0.000
 6578.00    0.85448   0.91036    0.000
 6579.00    0.89560   0.90837    0.000
 6580.00    0.95071   0.92087    0.000
 6581.00    1.01920   0.94452    0.000
 6582.00    1.09060   0.96350    0.000
 6583.00    1.12259   0.96905    0.000
 6584.00    1.14783   0.96358    0.000
 6585.00    1.09126   0.95324    0.000
 6586.00    1.02405   0.94918    0.000
 6587.00    0.95251   0.95687    0.000
 6588.00    0.88058   0.96613    0.000
 6589.00    0.81957   0.96821    0.000
 6590.00    0.75916   0.96392    0.000
 6591.00    0.71787   0.96090    0.000
 6592.00    0.67754   0.96803    0.000
 6593.00    0.68832   0.97878    0.000
 6594.00    0.69915   0.98381    0.000
 6595.00    0.71116   0.97926    0.000
 6596.00    0.72257   0.95645    0.000
 6597.00    0.72634   0.91884    0.000
 6598.00    0.73425   0.89886    0.000
 6599.00    0.77776   0.91804    0.000
 6600.00    0.81359   0.94972    0.000
 6601.00    0.80060   0.96259    0.000
 6602.00    0.79343   0.95839    0.000
 6603.00    0.81531   0.95332    0.000
 6604.00    0.83899   0.96000    0.000
 6605.00    0.86995   0.97566    0.000
 6606.00    0.88480   0.98564    0.000
 6607.00    0.84569   0.98379    0.000
 6608.00    0.81471   0.97447    0.000
 6609.00    0.80671   0.96305    0.008
 6610.00    0.80028   0.95535    0.008
 6611.00    0.79761   0.95244    0.008
 6612.00    0.79078   0.94747    0.008
 6613.00    0.77525   0.93787    0.008
 6614.00    0.78223   0.93645    0.008
 6615.00    0.83001   0.95422    0.009
 6616.00    0.87708   0.97416    0.009
 6617.00    0.92301   0.97612    0.009
 6618.00    0.93120   0.96816    0.009
 6619.00    0.88686   0.96957    0.009
 6620.00    0.84571   0.98004    0.009
 6621.00    0.80848   0.98342    0.009
 6622.00    0.76955   0.97908    0.009
 6623.00    0.72878   0.97833    0.009
 6624.00    0.71873   0.98323    0.009
 6625.00    0.73795   0.98719    0.009
 6626.00    0.77334   0.98623    0.009
 6627.00    0.82231   0.97929    0.009
 6628.00    0.81065   0.96515    0.009
 6629.00    0.75417   0.95063    0.008
 6630.00    0.76475   0.94948    0.008
 6631.00    0.81887   0.96036    0.008
 6632.00    0.80458   0.96746    0.008
 6633.00    0.75140   0.96770    0.008
 6634.00    0.76273   0.96543    0.008
 6635.00    0.80597   0.96152    0.009
 6636.00    0.81424   0.95439    0.009
 6637.00    0.80754   0.94135    0.009
 6638.00    0.77908   0.92693    0.009
 6639.00    0.74265   0.92656    0.009
 6640.00    0.73709   0.94368    0.009
 6641.00    0.74112   0.96190    0.009
 6642.00    0.66165   0.96947    0.009
 6643.00    0.56057   0.96712    0.009
 6644.00    0.62650   0.96175    0.009
 6645.00    0.72768   0.96280    0.009
 6646.00    0.76767   0.96731    0.009
 6647.00    0.79746   0.95843    0.009
 6648.00    0.79465   0.94076    0.009
 6649.00    0.78774   0.93994    0.009
 6650.00    0.85502   0.95462    0.009
 6651.00    0.92876   0.96254    0.009
 6652.00    0.85139   0.96146    0.009
 6653.00    0.76627   0.96247    0.009
 6654.00    0.83294   0.96610    0.009
 6655.00    0.90118   0.96516    0.009
 6656.00    0.88935   0.96002    0.009
 6657.00    0.87611   0.95730    0.009
 6658.00    0.83294   0.95791    0.009
 6659.00    0.79252   0.95947    0.009
 6660.00    0.78534   0.96023    0.009
 6661.00    0.77771   0.95889    0.009
 6662.00    0.76627   0.95833    0.009
 6663.00    0.75512   0.95920    0.009
 6664.00    0.74571   0.95720    0.009
 6665.00    0.73222   0.95206    0.009
 6666.00    0.69888   0.94473    0.009
 6667.00    0.67403   0.93115    0.009
 6668.00    0.68274   0.91871    0.009
 6669.00    0.70401   0.92358    0.009
 6670.00    0.76656   0.93657    0.009
 6671.00    0.80508   0.94079    0.009
 6672.00    0.77691   0.94047    0.009
 6673.00    0.77150   0.94459    0.009
 6674.00    0.82014   0.95436    0.009
 6675.00    0.84659   0.96306    0.009
 6676.00    0.82746   0.96522    0.009
 6677.00    0.80459   0.96374    0.009
 6678.00    0.77505   0.96357    0.009
 6679.00    0.78308   0.96498    0.009
 6680.00    0.84984   0.96228    0.009
 6681.00    0.86808   0.94239    0.009
 6682.00    0.81977   0.90686    0.009
 6683.00    0.79757   0.88987    0.009
 6684.00    0.80692   0.90967    0.009
 6685.00    0.81993   0.93664    0.009
 6686.00    0.83681   0.94623    0.009
 6687.00    0.85454   0.94872    0.009
 6688.00    0.87306   0.95356    0.009
 6689.00    0.86396   0.95762    0.009
 6690.00    0.83199   0.95856    0.009
 6691.00    0.79655   0.95715    0.009
 6692.00    0.75857   0.95436    0.009
 6693.00    0.72663   0.95259    0.009
 6694.00    0.69855   0.95499    0.010
 6695.00    0.73146   0.95806    0.010
 6696.00    0.79851   0.95861    0.000
 6697.00    0.81548   0.95816    0.000
 6698.00    0.80807   0.95762    0.000
 6699.00    0.77221   0.95237    0.000
 6700.00    0.72438   0.93964    0.000
 6701.00    0.73176   0.92743    0.000
 6702.00    0.75904   0.92689    0.000
 6703.00    0.74867   0.93520    0.000
 6704.00    0.72684   0.94605    0.000
 6705.00    0.76125   0.95596    0.000
 6706.00    0.80990   0.95806    0.000
 6707.00    0.87022   0.95161    0.000
 6708.00    0.93293   0.94155    0.000
 6709.00    0.94871   0.93588    0.000
 6710.00    0.95689   0.93975    0.000
 6711.00    0.84673   0.94788    0.000
 6712.00    0.72223   0.95159    0.000
 6713.00    0.79624   0.95121    0.000
 6714.00    0.88672   0.94880    0.000
 6715.00    0.93805   0.94517    0.000
 6716.00    0.98751   0.94482    0.000
 6717.00    0.98866   0.94371    0.000
 6718.00    0.98786   0.93668    0.000
 6719.00    0.91527   0.92784    0.000
 6720.00    0.84369   0.91742    0.000
 6721.00    0.79162   0.90294    0.000
 6722.00    0.73898   0.89224    0.000
 6723.00    0.67988   0.90082    0.000
 6724.00    0.63504   0.92352    0.000
 6725.00    0.70374   0.93609    0.000
 6726.00    0.78081   0.93453    0.000
 6727.00    0.90814   0.93458    0.000
 6728.00    1.02076   0.94179    0.000
 6729.00    1.06370   0.94443    0.000
 6730.00    1.08167   0.93699    0.000
 6731.00    1.00324   0.93068    0.000
 6732.00    0.92281   0.93422    0.000
 6733.00    0.83591   0.94084    0.000
 6734.00    0.78816   0.94502    0.000
 6735.00    0.84715   0.94815    0.000
 6736.00    0.86361   0.94845    0.000
 6737.00    0.78067   0.94478    0.000
 6738.00    0.72607   0.94092    0.000
 6739.00    0.72874   0.94121    0.000
 6740.00    0.71212   0.94457    0.000
 6741.00    0.66158   0.94573    0.000
 6742.00    0.68160   0.93920    0.000
 6743.00    0.81027   0.92912    0.000
 6744.00    0.86361   0.92600    0.000
 6745.00    0.81509   0.93144    0.000
 6746.00    0.81319   0.93492    0.000
 6747.00    0.86678   0.92875    0.000
 6748.00    0.86679   0.92304    0.000
 6749.00    0.81057   0.92701    0.000
 6750.00    0.76152   0.93210    0.000
 6751.00    0.71912   0.93104    0.000
 6752.00    0.66936   0.92686    0.000
 6753.00    0.61360   0.92159    0.010
 6754.00    0.59518   0.91650    0.011
 6755.00    0.60357   0.91604    0.011
 6756.00    0.63771   0.92143    0.011
 6757.00    0.68808   0.92220    0.011
 6758.00    0.74169   0.92124    0.011
 6759.00    0.79707   0.92803    0.012
 6760.00    0.82830   0.93504    0.012
 6761.00    0.84795   0.93893    0.012
 6762.00    0.85878   0.94384    0.012
 6763.00    0.86596   0.94936    0.013
 6764.00    0.97754   0.95329    0.013
 6765.00    1.12603   0.95393    0.013
 6766.00    1.13604   0.95070    0.012
 6767.00    1.10470   0.94754    0.012
 6768.00    1.10287   0.94822    0.012
 6769.00    1.10835   0.94855    0.012
 6770.00    1.04216   0.94289    0.011
 6771.00    0.96158   0.93030    0.011
 6772.00    0.90129   0.91969    0.011
 6773.00    0.84419   0.92166    0.010
 6774.00    0.84783   0.93054    0.010
 6775.00    0.85855   0.93132    0.011
 6776.00    0.97557   0.92697    0.011
 6777.00    1.10097   0.93066    0.011
 6778.00    1.03156   0.94190    0.011
 6779.00    0.95367   0.95221    0.011
 6780.00    0.99811   0.95728    0.011
 6781.00    1.04227   0.95796    0.011
 6782.00    1.01356   0.95619    0.011
 6783.00    0.98198   0.95723    0.012
 6784.00    0.89855   0.96046    0.011
 6785.00    0.82806   0.95832    0.011
 6786.00    0.89916   0.94892    0.011
 6787.00    0.94484   0.93390    0.011
 6788.00    0.79503   0.91800    0.011
 6789.00    0.68717   0.90925    0.011
 6790.00    0.82377   0.91094    0.011
 6791.00    0.92680   0.91887    0.011
 6792.00    0.87455   0.92966    0.011
 6793.00    0.83844   0.93784    0.011
 6794.00    0.86337   0.93853    0.011
 6795.00    0.88495   0.93725    0.011
 6796.00    0.89591   0.93884    0.011
 6797.00    0.91753   0.93660    0.011
 6798.00    0.96767   0.92870    0.011
 6799.00    0.99406   0.92498    0.011
 6800.00    0.96590   0.92727    0.011
 6801.00    0.92000   0.93015    0.011
 6802.00    0.83883   0.93330    0.011
 6803.00    0.77222   0.93540    0.011
 6804.00    0.73081   0.93729    0.011
 6805.00    0.70339   0.94023    0.011
 6806.00    0.69719   0.94414    0.011
 6807.00    0.73762   0.94519    0.011
 6808.00    0.84020   0.94075    0.011
 6809.00    0.84613   0.93685    0.011
 6810.00    0.73863   0.93774    0.011
 6811.00    0.62611   0.93692    0.011
 6812.00    0.50838   0.93534    0.011
 6813.00    0.52087   0.93695    0.011
 6814.00    0.65224   0.93477    0.011
 6815.00    0.76052   0.93108    0.011
 6816.00    0.85023   0.93444    0.011
 6817.00    0.83601   0.93875    0.011
 6818.00    0.74822   0.93630    0.011
 6819.00    0.73644   0.92873    0.010
 6820.00    0.77188   0.92580    0.010
 6821.00    0.74726   0.93408    0.010
 6822.00    0.69005   0.94372    0.010
 6823.00    0.71285   0.94323    0.010
 6824.00    0.77338   0.93534    0.010
 6825.00    0.79207   0.93078    0.011
 6826.00    0.79377   0.93582    0.011
 6827.00    0.74312   0.94546    0.011
 6828.00    0.67429   0.95148    0.011
 6829.00    0.69732   0.95254    0.011
 6830.00    0.74723   0.95144    0.012
 6831.00    0.75884   0.94725    0.011
 6832.00    0.76118   0.93583    0.011
 6833.00    0.79980   0.92437    0.011
 6834.00    0.84552   0.92627    0.011
 6835.00    0.91162   0.93808    0.011
 6836.00    0.98083   0.94523    0.011
 6837.00    0.79308   0.94331    0.011
 6838.00    0.57649   0.94125    0.011
 6839.00    0.67137   0.94529    0.011
 6840.00    0.78955   0.94969    0.011
 6841.00    0.89123   0.94673    0.011
 6842.00    0.99227   0.93836    0.011
 6843.00    1.04229   0.92826    0.011
 6844.00    1.08843   0.91703    0.011
 6845.00    0.99420   0.90589    0.011
 6846.00    0.89680   0.89625    0.011
 6847.00    0.74574   0.89531    0.011
 6848.00    0.61177   0.90682    0.011
 6849.00    0.65664   0.92408    0.011
 6850.00    0.70746   0.93673    0.011
 6851.00    0.80258   0.94077    0.011
 6852.00    0.86974   0.94090    0.011
 6853.00    0.77847   0.94069    0.011
 6854.00    0.72891   0.93887    0.011
 6855.00    0.86766   0.93734    0.011
 6856.00    0.95561   0.93793    0.011
 6857.00    0.85550   0.93969    0.011
 6858.00    0.78347   0.93700    0.011
 6859.00    0.79842   0.92253    0.011
 6860.00    0.78427   0.90722    0.011
 6861.00    0.69357   0.90774    0.011
 6862.00    0.64033   0.91613    0.011
 6863.00    0.67172   0.92124    0.011
 6864.00    0.66764   0.92373    0.010
 6865.00    0.59412   0.91813    0.011
 6866.00    0.56665   0.90740    0.011
 6867.00    0.61778   0.90968    0.011
 6868.00    0.71549   0.92696    0.011
 6869.00    0.88284   0.94164    0.011
 6870.00    0.94782   0.94223    0.011
 6871.00    0.87833   0.93250    0.011
 6872.00    0.80430   0.91852    0.011
 6873.00    0.72501   0.90937    0.011
 6874.00    0.70873   0.91631    0.011
 6875.00    0.75672   0.92839    0.011
 6876.00    0.74790   0.92679    0.011
 6877.00    0.68792   0.91942    0.011
 6878.00    0.67952   0.91996    0.011
 6879.00    0.71202   0.92339    0.011
 6880.00    0.72395   0.92428    0.011
 6881.00    0.72151   0.92750    0.011
 6882.00    0.79807   0.93547    0.011
 6883.00    0.92297   0.94201    0.011
 6884.00    0.94806   0.94101    0.011
 6885.00    0.91983   0.93474    0.011
 6886.00    0.85888   0.92521    0.011
 6887.00    0.78276   0.91519    0.011
 6888.00    0.75713   0.91496    0.011
 6889.00    0.75167   0.92548    0.011
 6890.00    0.72460   0.93175    0.011
 6891.00    0.69017   0.92903    0.011
 6892.00    0.67645   0.93312    0.011
 6893.00    0.66865   0.94361    0.011
 6894.00    0.68062   0.94791    0.011
 6895.00    0.69727   0.95026    0.011
 6896.00    0.79871   0.95280    0.011
 6897.00    0.91632   0.94922    0.011
 6898.00    0.83175   0.94381    0.011
 6899.00    0.71731   0.94183    0.011
 6900.00    0.74017   0.93856    0.011
 6901.00    0.77783   0.93573    0.011
 6902.00    0.74640   0.93988    0.011
 6903.00    0.71009   0.94619    0.011
 6904.00    0.76876   0.94413    0.011
 6905.00    0.83084   0.93689    0.011
 6906.00    0.78616   0.93825    0.011
 6907.00    0.74410   0.94717    0.011
 6908.00    0.80549   0.95075    0.011
 6909.00    0.85859   0.94703    0.011
 6910.00    0.78040   0.94361    0.011
 6911.00    0.71296   0.94682    0.011
 6912.00    0.75326   0.95362    0.011
 6913.00    0.77997   0.95610    0.011
 6914.00    0.70905   0.95496    0.011
 6915.00    0.65653   0.95201    0.011
 6916.00    0.70549   0.94714    0.011
 6917.00    0.73797   0.94199    0.011
 6918.00    0.69772   0.93352    0.011
 6919.00    0.68579   0.92506    0.011
 6920.00    0.77644   0.92685    0.011
 6921.00    0.84332   0.93143    0.011
 6922.00    0.83798   0.93198    0.011
 6923.00    0.82890   0.93625    0.011
 6924.00    0.81012   0.94328    0.011
 6925.00    0.81257   0.95012    0.011
 6926.00    0.86217   0.95551    0.011
 6927.00    0.90277   0.95474    0.011
 6928.00    0.92600   0.94389    0.011
 6929.00    0.91728   0.92609    0.011
 6930.00    0.85483   0.91597    0.011
 6931.00    0.80687   0.92097    0.011
 6932.00    0.78026   0.93503    0.011
 6933.00    0.76440   0.94483    0.011
 6934.00    0.76248   0.94668    0.011
 6935.00    0.73432   0.94613    0.011
 6936.00    0.67622   0.94375    0.011
 6937.00    0.67975   0.93731    0.011
 6938.00    0.74529   0.93100    0.011
 6939.00    0.78483   0.93524    0.011
 6940.00    0.80129   0.94423    0.012
 6941.00    0.80292   0.94571    0.012
 6942.00    0.79294   0.94299    0.012
 6943.00    0.21477   0.94252    0.010
 6944.00   -0.75410   0.94754    0.000
 6945.00   -0.54315   0.95486    0.000
 6946.00    0.37899   0.95695    0.041
 6947.00    0.68446   0.95064   -1.000
 6948.00    0.66553   0.93902   -1.000
 6949.00    0.69096   0.92432   -1.000
 6950.00    0.73664   0.91471   -1.000
 6951.00    0.72370   0.92377   -1.000
 6952.00    0.68775   0.94152   -1.000
 6953.00    0.74416   0.95117   -1.000
 6954.00    0.83145   0.95383   -1.000
 6955.00    0.77492   0.94821   -1.000
 6956.00    0.67799   0.93586   -1.000
 6957.00    0.66999   0.92943   -1.000
 6958.00    0.68256   0.92911   -1.000
 6959.00    0.68497   0.92972   -1.000
 6960.00    0.68550   0.93469   -1.000
 6961.00    0.63501   0.94348   -1.000
 6962.00    0.57721   0.94929   -1.000
 6963.00    0.61343   0.94997   -1.000
 6964.00    0.65938   0.94917   -1.000
 6965.00    0.62695   0.94929   -1.000
 6966.00    0.58929   0.95196   -1.000
 6967.00    0.58926   0.95496   -1.000
 6968.00    0.59043   0.95631   -1.000
 6969.00    0.62429   0.95474   -1.000
 6970.00    0.65668   0.94746   -1.000
 6971.00    0.64401   0.94295   -1.000
 6972.00    0.62959   0.95041   -1.000
 6973.00    0.58927   0.96064   -1.000
 6974.00    0.55107   0.96169   -1.000
 6975.00    0.53326   0.95497   -1.000
 6976.00    0.53023   0.94794   -1.000
 6977.00    0.62997   0.95101   -1.000
 6978.00    0.71160   0.95840   -1.000
 6979.00    0.69608   0.95388   -1.000
 6980.00    0.68186   0.94121   -1.000
 6981.00    0.67326   0.92796   -1.000
 6982.00    0.66605   0.90897   -1.000
 6983.00    0.66376   0.88495   -1.000
 6984.00    0.67725   0.88068   -1.000
 6985.00    0.73782   0.90633   -1.000
 6986.00    0.78153   0.93512   -1.000
 6987.00    0.78240   0.95081   -1.000
 6988.00    0.76875   0.95901   -1.000
 6989.00    0.72333   0.96158   -1.000
 6990.00    0.69312   0.96015   -1.000
 6991.00    0.69174   0.95838   -1.000
 6992.00    0.65441   0.95664   -1.000
 6993.00    0.55756   0.95044   -1.000
 6994.00    0.52984   0.94169   -1.000
 6995.00    0.60246   0.94141   -1.000
 6996.00    0.65715   0.95080   -1.000
 6997.00    0.68896   0.95964   -1.000
 6998.00    0.69525   0.95951   -1.000
 6999.00    0.67286   0.95319   -1.000
 7000.00    0.64365   0.95125   -1.000
 7001.00    0.60770   0.95532   -1.000
 7002.00    0.59883   0.95712   -1.000
 7003.00    0.61366   0.94838   -1.000
 7004.00    0.60902   0.93187   -1.000
 7005.00    0.58936   0.92413   -1.000
 7006.00    0.58011   0.93418   -1.000
 7007.00    0.57791   0.94790   -1.000
 7008.00    0.55989   0.94592   -1.000
 7009.00    0.53247   0.93250   -1.000
 7010.00    0.55852   0.92532   -1.000
 7011.00    0.61226   0.92834   -1.000
 7012.00    0.61403   0.93583   -1.000
 7013.00    0.59247   0.94439   -1.000
 7014.00    0.59900   0.95132   -1.000
 7015.00    0.61638   0.95093   -1.000
 7016.00    0.61331   0.94474   -1.000
 7017.00    0.60352   0.94414   -1.000
 7018.00    0.59184   0.94901   -1.000
 7019.00    0.57964   0.94566   -1.000
 7020.00    0.59790   0.92337   -1.000
 7021.00    0.62304   0.89602   -1.000
 7022.00    0.60573   0.89792   -1.000
 7023.00    0.58074   0.92955   -1.000
 7024.00    0.59357   0.95481   -1.000
 7025.00    0.61163   0.96249   -1.000
 7026.00    0.65459   0.96148   -1.000
 7027.00    0.70001   0.94998   -1.000
 7028.00    0.71732   0.92889   -1.000
 7029.00    0.73287   0.91576   -1.000
 7030.00    0.77199   0.92191   -1.000
 7031.00    0.81129   0.93658   -1.000
 7032.00    0.72131   0.94465   -1.000
 7033.00    0.63500   0.94830   -1.000
 7034.00    0.64914   0.95268   -1.000
 7035.00    0.66340   0.95688   -1.000
 7036.00    0.67937   0.95714   -1.000
 7037.00    0.68979   0.95204   -1.000
 7038.00    0.64906   0.94830   -1.000
 7039.00    0.61253   0.94803   -1.000
 7040.00    0.60422   0.95099   -1.000
 7041.00    0.60962   0.95635   -1.000
 7042.00    0.68669   0.94726   -1.000
 7043.00    0.76209   0.92467   -1.000
 7044.00    0.83052   0.92514   -1.000
 7045.00    0.86521   0.95462   -1.000
 7046.00    0.78252   0.98153   -1.000
 7047.00    0.70476   0.99122   -1.000
 7048.00    0.64140   0.98786   -1.000
 7049.00    0.60954   0.97455   -1.000
 7050.00    0.65629   0.96198   -2.000
 7051.00    0.66674   0.96449   -2.000
 7052.00    0.59910   0.97756   -2.000
 7053.00    0.58439   0.98881   -2.000
 7054.00    0.66854   0.99094   -2.000
 7055.00    0.72584   0.98482   -2.000
 7056.00    0.73934   0.97185   -2.000
 7057.00    0.71109   0.94794   -2.000
 7058.00    0.62314   0.92113   -2.000
 7059.00    0.58783   0.90677   -2.000
 7060.00    0.61874   0.90684   -2.000
 7061.00    0.59109   0.91827   -2.000
 7062.00    0.49849   0.93108   -2.000
 7063.00    0.23959   0.93182   -2.000
 7064.00   -0.18199   0.91663   -2.000
 7065.00   -0.07045   0.89982   -2.000
 7066.00    0.50092   0.89947   -2.000
 7067.00    0.68304   0.90979   -2.000
 7068.00    0.56940   0.91780   -2.000
 7069.00    0.62158   0.92538   -2.000
 7070.00    0.78448   0.92620   -2.000
 7071.00    0.86393   0.91410   -2.000
 7072.00    0.89459   0.89704   -2.000
 7073.00    1.01844   0.88429   -2.000
 7074.00    1.18981   0.88812   -2.000
 7075.00    1.06006   0.90936   -2.000
 7076.00    0.79736   0.92700   -2.000
 7077.00    0.78258   0.93080   -2.000
 7078.00    0.86182   0.93083   -2.000
 7079.00    0.80462   0.93089   -2.000
 7080.00    0.70348   0.92850   -2.000
 7081.00    0.69028   0.92661   -2.000
 7082.00    0.70076   0.92825   -2.000
 7083.00    0.75310   0.93161   -2.000
 7084.00    0.81468   0.93376   -2.000
 7085.00    0.78307   0.93719   -2.000
 7086.00    0.73509   0.93961   -2.000
 7087.00    0.80241   0.93034   -2.000
 7088.00    0.88517   0.90743   -2.000
 7089.00    0.79418   0.88155   -2.000
 7090.00    0.68669   0.87197   -2.000
 7091.00    0.80524   0.88126   -2.000
 7092.00    0.93706   0.88491   -2.000
 7093.00    0.80162   0.87785   -2.000
 7094.00    0.66119   0.87196   -2.000
 7095.00    0.73644   0.86811   -2.000
 7096.00    0.80663   0.86951   -2.000
 7097.00    0.75098   0.87465   -2.000
 7098.00    0.69498   0.87531   -2.000
 7099.00    0.63416   0.87628   -2.000
 7100.00    0.57438   0.87737   -2.000
 7101.00    0.52395   0.87759   -2.000
 7102.00    0.49569   0.87850   -2.000
 7103.00    0.61236   0.88409   -2.000
 7104.00    0.70338   0.89574   -2.000
 7105.00    0.66377   0.90050   -2.000
 7106.00    0.62893   0.89707   -2.000
 7107.00    0.61376   0.88900   -2.000
 7108.00    0.61015   0.88650   -2.000
 7109.00    0.64592   0.89442   -2.000
 7110.00    0.69254   0.90343   -2.000
 7111.00    0.77034   0.90118   -2.000
 7112.00    0.80444   0.89244   -2.000
 7113.00    0.73135   0.89086   -2.000
 7114.00    0.65779   0.89419   -2.000
 7115.00    0.58323   0.88824   -2.000
 7116.00    0.57309   0.87489   -2.000
 7117.00    0.68139   0.87171   -2.000
 7118.00    0.76522   0.88211   -2.000
 7119.00    0.80974   0.89181   -2.000
 7120.00    0.80976   0.89455   -2.000
 7121.00    0.74706   0.89740   -2.000
 7122.00    0.75706   0.89914   -2.000
 7123.00    0.85723   0.89812   -2.000
 7124.00    0.96643   0.89639   -2.000
 7125.00    1.08549   0.89426   -2.000
 7126.00    1.09194   0.88949   -2.000
 7127.00    0.98977   0.88195   -2.000
 7128.00    0.88250   0.88567   -2.000
 7129.00    0.77087   0.89498   -2.000
 7130.00    0.71517   0.88899   -2.000
 7131.00    0.70133   0.87580   -2.000
 7132.00    0.79278   0.87230   -2.000
 7133.00    0.95349   0.87694   -2.000
 7134.00    0.91741   0.87450   -2.000
 7135.00    0.76796   0.85817   -2.000
 7136.00    0.65486   0.84646   -2.000
 7137.00    0.55999   0.85587   -2.000
 7138.00    0.69872   0.87273   -2.000
 7139.00    0.93890   0.88498   -2.000
 7140.00    1.01277   0.89108   -2.000
 7141.00    1.02468   0.89242   -2.000
 7142.00    0.89339   0.89640   -2.000
 7143.00    0.71686   0.89390   -2.000
 7144.00    0.76764   0.88301   -2.000
 7145.00    0.87837   0.88181   -2.000
 7146.00    0.76372   0.89244   -2.000
 7147.00    0.60048   0.89655   -2.000
 7148.00    0.79874   0.89369   -2.000
 7149.00    1.05878   0.89282   -2.000
 7150.00    0.94512   0.89200   -2.000
 7151.00    0.78309   0.89095   -2.000
 7152.00    0.65609   0.87881   -2.000
 7153.00    0.53227   0.85609   -2.000
 7154.00    0.75037   0.85608   -2.000
 7155.00    0.98717   0.87675   -2.000
 7156.00    0.89116   0.89131   -2.000
 7157.00    0.78793   0.90280   -2.000
 7158.00    0.66228   0.91355   -2.000
 7159.00    0.55818   0.91335   -2.000
 7160.00    0.94337   0.90386   -2.000
 7161.00    1.30963   0.90450   -2.000
 7162.00    1.43745   0.91826   -2.000
 7163.00    1.51528   0.92162   -2.000
 7164.00    1.16668   0.91058   -2.000
 7165.00    0.84315   0.90148   -2.000
 7166.00    0.67854   0.90415   -2.000
 7167.00    0.57701   0.91139   -2.000
 7168.00    0.78871   0.89099   -2.000
 7169.00    1.00289   0.85744   -2.000
 7170.00    1.22706   0.83687   -2.000
 7171.00    1.36569   0.85045   -2.000
 7172.00    1.21850   0.88072   -2.000
 7173.00    1.03777   0.89825   -2.000
 7174.00    0.76244   0.89829   -2.000
 7175.00    0.59795   0.89436   -2.000
 7176.00    0.70081   0.89706   -2.000
 7177.00    0.77700   0.90581   -2.000
 7178.00    0.79764   0.91162   -2.000
 7179.00    0.81702   0.90842   -2.000
 7180.00    0.83410   0.89705   -2.000
 7181.00    0.85529   0.88427   -2.000
 7182.00    0.88301   0.88635   -2.000
 7183.00    0.88024   0.90001   -2.000
 7184.00    0.83513   0.89877   -2.000
 7185.00    0.80445   0.87700   -2.000
 7186.00    0.79144   0.85771   -2.000
 7187.00    0.85022   0.86314   -2.000
 7188.00    0.98639   0.88939   -2.000
 7189.00    1.03837   0.90655   -2.000
 7190.00    1.01031   0.90312   -2.000
 7191.00    0.92408   0.88713   -2.000
 7192.00    0.78910   0.86134   -2.000
 7193.00    0.73992   0.84659   -2.000
 7194.00    0.75408   0.85217   -2.000
 7195.00    0.72283   0.86683   -2.000
 7196.00    0.66213   0.88161   -2.000
 7197.00    0.60859   0.88233   -2.000
 7198.00    0.55910   0.87525   -2.000
 7199.00    0.63994   0.87566   -2.000
 7200.00    0.78514   0.88699   -2.000
 7201.00    0.91722   0.88999   -2.000
 7202.00    1.04369   0.87917   -2.000
 7203.00    1.07027   0.87946   -2.000
 7204.00    1.06031   0.89009   -2.000
 7205.00    0.90249   0.89372   -2.000
 7206.00    0.69887   0.88471   -2.000
 7207.00    0.66236   0.87326   -2.000
 7208.00    0.66897   0.87985   -2.000
 7209.00    0.66928   0.89842   -2.000
 7210.00    0.66825   0.90388   -2.000
 7211.00    0.69070   0.88257   -2.000
 7212.00    0.71704   0.84856   -2.000
 7213.00    0.80992   0.83813   -2.000
 7214.00    0.91112   0.85450   -2.000
 7215.00    0.92712   0.87860   -2.000
 7216.00    0.93574   0.89903   -2.000
 7217.00    0.78117   0.90109   -2.000
 7218.00    0.61831   0.88964   -2.000
