###################################################################
## OUTPUT of StarlightChains_v04.for    [Cid@UFSC - 01/Apr/2007] ##
###################################################################

## Some input info
KUG0210-078._29_34.txt                   [arq_obs]
Base.CB07.vall.4m                        [arq_base]
Masks.EmLines.NEW.gm                     [arq_masks]
StCv04.C11.config                        [arq_config]
   66                                    [N_base]
    0                                    [N_YAV_components = # of components with extra extinction!]
    0                                    [i_FitPowerLaw (1/0 = Yes/No)]
-9.99                                    [alpha_PowerLaw]
CCM                                      [red_law_option]
 1.458241                                [q_norm = A(l_norm)/A(V)]

## (Re)Sampling Parameters
 3741.00                                 [l_ini (A)]
 7218.00                                 [l_fin (A)]
    1.00                                 [dl    (A)]     (OBS: dl_cushion =    50.00 A)

## Normalization info
 4020.00                                 [l_norm (A) - for base]
 4010.00                                 [llow_norm (A) - window for f_obs]
 4060.00                                 [lupp_norm (A) - window for f_obs]
1.534285E-16                             [fobs_norm (in input units)]

## S/N
 3691.00                                 [llow_SN (A) - window for S/N]
 7268.00                                 [lupp_SN (A) - window for S/N]
   9.313                                 [S/N in S/N window]
   9.037                                 [S/N in norm. window]
   0.324                                 [S/N_err in S/N window]
   0.314                                 [S/N_err in norm. window]
  1.0000                                 [fscale_chi2]

## etc...
    -2007410                             [idum_orig]
  2432                                   [NOl_eff]
  2334                                   [Nl_eff]
    98    NSIGMA                         [Ntot_cliped & clip_method]
 15983380                                [Nglobal_steps]
   7                                     [N_chains]
  23                                     [NEX0s_base = N_base in EX0s-fits]
 0   0   1       97   2.0   6.514E+04    [Clip-Bug, RC-Crash & Burn-In warning-flags, n_censored_weights, wei_nsig_threshold & wei_limit]
   109    107.907    107.090      0.817  [idt_all, wdt_TotTime, wdt_UsrTime & wdt_SysTime (sec)]

## Synthesis Results - Best model ##

 1.19402E-03                             [chi2/Nl_eff]
     6.43604                             [adev (%)]

   106.35018                             [sum-of-x (%)]
 9.20448E-16                             [Flux_tot (units of input spectrum!)]
 7.73961E-12                             [Mini_tot (???)]
 4.20437E-12                             [Mcor_tot (???)]

 144.50                                  [v0_min  (km/s)]
 241.51                                  [vd_min  (km/s)]
 1.2881                                  [AV_min  (mag)]
 0.0000                                  [YAV_min (mag)]

# j     x_j(%)      Mini_j(%)     Mcor_j(%)     age_j(yr)     Z_j      (L/M)_j    YAV?  Mstars   component_j        a/Fe...       SSP_chi2r SSP_adev(%)   SSP_AV   SSP_x(%)
  1     12.0231     1.2290E-01    2.2623E-01    1.000000E+06  0.00400  1.094E-02    0   1.0000   age020_m42            0.0000     1.0141E-03     4.1548   3.0097    97.4587
  2      0.0000     0.0000E+00    0.0000E+00    3.160000E+06  0.00400  4.007E-02    0   0.9999   age045_m42            0.0000     1.9862E-03     5.3172   2.2578   105.0992
  3      0.0000     0.0000E+00    0.0000E+00    5.010000E+06  0.00400  2.539E-02    0   0.9488   age055_m42            0.0000     1.5270E-03     4.7126   2.5913   102.0712
  4      0.0000     0.0000E+00    0.0000E+00    6.610000E+06  0.00400  2.620E-02    0   0.9220   age061_m42            0.0000     2.1636E-03     5.3780   2.1893   105.1645
  5      0.0000     0.0000E+00    0.0000E+00    1.000000E+07  0.00400  1.322E-02    0   0.8862   age070_m42            0.0000     1.9735E-03     5.9134   1.9468   106.0438
  6      0.0000     0.0000E+00    0.0000E+00    1.445000E+07  0.00400  7.883E-03    0   0.8571   age078_m42            0.0000     1.6727E-03     5.4885   2.2756   103.2654
  7      0.0000     0.0000E+00    0.0000E+00    2.512000E+07  0.00400  5.251E-03    0   0.8174   age090_m42            0.0000     2.0655E-03     6.2376   1.8234   106.4393
  8      0.0000     0.0000E+00    0.0000E+00    4.000000E+07  0.00400  3.649E-03    0   0.7851   age104_m42            0.0000     2.2609E-03     6.3048   1.5868   107.6877
  9      0.0000     0.0000E+00    0.0000E+00    5.500000E+07  0.00400  3.098E-03    0   0.7629   age110_m42            0.0000     2.6852E-03     6.2566   1.7198   108.3555
 10      0.0000     0.0000E+00    0.0000E+00    1.015200E+08  0.00400  2.228E-03    0   0.7207   age116_m42            0.0000     3.1343E-03     6.3807   1.7280   108.9643
 11      0.0000     0.0000E+00    0.0000E+00    2.861200E+08  0.00400  1.093E-03    0   0.6648   age125_m42            0.0000     3.6094E-03     7.3863   1.1647   111.9739
 12      0.0000     0.0000E+00    0.0000E+00    5.088000E+08  0.00400  6.597E-04    0   0.6365   age130_m42            0.0000     4.2482E-03     7.3774   1.1360   113.6063
 13      0.0000     0.0000E+00    0.0000E+00    1.434000E+09  0.00400  2.132E-04    0   0.5798   age139_m42            0.0000     4.2908E-03     7.5784   0.1456   116.8397
 14      0.0000     0.0000E+00    0.0000E+00    4.250000E+09  0.00400  5.895E-05    0   0.5377   age158_m42            0.0000     3.4728E-03     7.3656  -0.3310   113.8780
 15      0.0000     0.0000E+00    0.0000E+00    7.500000E+09  0.00400  3.510E-05    0   0.5212   age171_m42            0.0000     3.6829E-03     7.8452  -0.5345   113.6686
 16      0.0000     0.0000E+00    0.0000E+00    1.300000E+10  0.00400  2.005E-05    0   0.5034   age193_m42            0.0000     3.9334E-03     8.2893  -0.7097   113.3472
 17      0.0000     0.0000E+00    0.0000E+00    1.800000E+10  0.00400  1.525E-05    0   0.4967   age213_m42            0.0000     3.7907E-03     8.1292  -0.7290   112.7658
 18      3.6393     3.2873E-02    6.0514E-02    1.000000E+06  0.00800  1.238E-02    0   1.0000   age020_m52            0.0000     1.0123E-03     4.1320   3.0074    97.6175
 19      1.5456     5.6226E-03    1.0315E-02    3.160000E+06  0.00800  3.074E-02    0   0.9966   age045_m52            0.0000     1.0786E-03     4.1520   2.9275    98.6136
 20      0.0000     0.0000E+00    0.0000E+00    5.010000E+06  0.00800  2.668E-02    0   0.9443   age055_m52            0.0000     1.3891E-03     4.5062   2.6799   100.9642
 21      0.2216     1.1604E-03    1.9602E-03    6.610000E+06  0.00800  2.136E-02    0   0.9177   age061_m52            0.0000     1.5647E-03     5.3958   1.4429   107.5705
 22      0.0000     0.0000E+00    0.0000E+00    1.000000E+07  0.00800  1.215E-02    0   0.8827   age070_m52            0.0000     1.7752E-03     6.1090   2.1404   105.2699
 23      0.0000     0.0000E+00    0.0000E+00    1.445000E+07  0.00800  8.717E-03    0   0.8552   age078_m52            0.0000     1.7653E-03     5.6084   2.2409   104.7215
 24      0.0000     0.0000E+00    0.0000E+00    2.512000E+07  0.00800  5.592E-03    0   0.8162   age090_m52            0.0000     2.1607E-03     6.4556   1.8878   107.6560
 25      0.0000     0.0000E+00    0.0000E+00    4.000000E+07  0.00800  3.896E-03    0   0.7841   age104_m52            0.0000     2.4635E-03     6.5777   1.7869   108.9525
 26      0.0000     0.0000E+00    0.0000E+00    1.015200E+08  0.00800  2.148E-03    0   0.7226   age116_m52            0.0000     2.9332E-03     6.4578   1.7028   109.6069
 27      0.0000     0.0000E+00    0.0000E+00    2.861200E+08  0.00800  9.925E-04    0   0.6683   age125_m52            0.0000     4.3251E-03     7.4775   1.2012   114.6347
 28      0.0000     0.0000E+00    0.0000E+00    9.047900E+08  0.00800  3.141E-04    0   0.6138   age135_m52            0.0000     5.0591E-03     8.5669   0.3613   121.1405
 29      0.0000     0.0000E+00    0.0000E+00    1.434000E+09  0.00800  1.719E-04    0   0.5853   age139_m52            0.0000     4.1210E-03     8.2088  -0.2308   119.3585
 30      0.0000     0.0000E+00    0.0000E+00    2.500000E+09  0.00800  7.872E-05    0   0.5600   age150_m52            0.0000     4.1578E-03     8.5538  -0.5319   117.5292
 31      0.0000     0.0000E+00    0.0000E+00    4.250000E+09  0.00800  4.336E-05    0   0.5426   age158_m52            0.0000     4.0847E-03     8.5328  -0.5484   116.4807
 32      0.0000     0.0000E+00    0.0000E+00    6.250000E+09  0.00800  3.159E-05    0   0.5319   age166_m52            0.0000     4.6610E-03     9.3508  -0.7728   117.3230
 33      0.0000     0.0000E+00    0.0000E+00    1.300000E+10  0.00800  1.361E-05    0   0.5073   age193_m52            0.0000     5.9083E-03     7.9597  -1.0000   109.6056
 34      0.0000     0.0000E+00    0.0000E+00    1.800000E+10  0.00800  9.886E-06    0   0.4990   age213_m52            0.0000     7.0880E-03     9.1067  -1.0000   105.7415
 35     18.5677     1.3448E-01    2.4756E-01    1.000000E+06  0.02000  1.544E-02    0   1.0000   age020_m62            0.0000     9.9918E-04     4.1069   3.0037    97.8316
 36      7.4381     2.2110E-02    4.0123E-02    3.160000E+06  0.02000  3.762E-02    0   0.9858   age045_m62            0.0000     1.0367E-03     4.1138   2.9408    98.7543
 37      0.0090     3.0420E-05    5.2314E-05    5.010000E+06  0.02000  3.296E-02    0   0.9342   age055_m62            0.0000     1.8053E-03     4.9307   2.5424   103.6387
 38      0.0000     0.0000E+00    0.0000E+00    8.710000E+06  0.02000  1.154E-02    0   0.8861   age067_m62            0.0000     1.7882E-03     8.8295   1.6690   105.3515
 39      0.0000     0.0000E+00    0.0000E+00    1.445000E+07  0.02000  7.663E-03    0   0.8472   age078_m62            0.0000     1.7407E-03     7.0263   1.8065   106.9524
 40      0.0000     0.0000E+00    0.0000E+00    2.512000E+07  0.02000  4.532E-03    0   0.8099   age090_m62            0.0000     1.9304E-03     7.4197   1.8011   106.5518
 41      0.0000     0.0000E+00    0.0000E+00    5.500000E+07  0.02000  2.733E-03    0   0.7595   age110_m62            0.0000     2.3635E-03     6.4114   1.7723   108.1027
 42      0.0000     0.0000E+00    0.0000E+00    1.609000E+08  0.02000  1.369E-03    0   0.6985   age120_m62            0.0000     3.6852E-03     6.9466   1.5803   112.1503
 43      0.0000     0.0000E+00    0.0000E+00    2.861200E+08  0.02000  9.013E-04    0   0.6714   age125_m62            0.0000     4.7910E-03     7.5208   1.3155   115.9164
 44      0.0000     0.0000E+00    0.0000E+00    5.088000E+08  0.02000  5.028E-04    0   0.6449   age130_m62            0.0000     5.5874E-03     8.3015   0.9008   120.4580
 45      0.0000     0.0000E+00    0.0000E+00    9.047900E+08  0.02000  2.428E-04    0   0.6179   age135_m62            0.0000     4.8390E-03     8.5927   0.2808   121.3416
 46      0.0000     0.0000E+00    0.0000E+00    1.434000E+09  0.02000  1.263E-04    0   0.5908   age139_m62            0.0000     4.3669E-03     8.6044  -0.1785   120.3424
 47      0.0000     0.0000E+00    0.0000E+00    2.500000E+09  0.02000  5.985E-05    0   0.5673   age150_m62            0.0000     4.5826E-03     9.3527  -0.5743   119.9020
 48      6.3513     2.1713E+01    2.1856E+01    4.250000E+09  0.02000  3.271E-05    0   0.5468   age158_m62            0.0000     5.4518E-03    10.5240  -0.9129   120.1588
 49      0.0000     0.0000E+00    0.0000E+00    1.000000E+10  0.02000  1.360E-05    0   0.5167   age181_m62            0.0000     7.3340E-03     8.8404  -1.0000   111.8695
 50      0.0000     0.0000E+00    0.0000E+00    1.800000E+10  0.02000  7.124E-06    0   0.5013   age213_m62            0.0000     9.3844E-03    10.7150  -1.0000   104.1978
 51     36.6909     1.5829E-01    2.9134E-01    1.000000E+06  0.05000  2.592E-02    0   0.9998   age020_m72            0.0000     9.4436E-04     4.0264   2.9992    97.7375
 52      0.0000     0.0000E+00    0.0000E+00    3.160000E+06  0.05000  4.845E-02    0   0.9577   age045_m72            0.0000     1.3128E-03     4.4119   2.8123   100.4713
 53      0.0000     0.0000E+00    0.0000E+00    5.010000E+06  0.05000  3.072E-02    0   0.9147   age055_m72            0.0000     1.4812E-03     5.9975   2.3725   103.4192
 54      0.0000     0.0000E+00    0.0000E+00    6.610000E+06  0.05000  1.455E-02    0   0.8877   age061_m72            0.0000     2.3601E-03    11.2621   1.7316   105.1590
 55      0.0000     0.0000E+00    0.0000E+00    1.000000E+07  0.05000  9.074E-03    0   0.8524   age070_m72            0.0000     1.6605E-03     6.7259   2.5484   103.1074
 56      0.0000     0.0000E+00    0.0000E+00    2.512000E+07  0.05000  4.250E-03    0   0.7902   age090_m72            0.0000     2.1206E-03     6.9858   2.2432   105.4218
 57      0.0000     0.0000E+00    0.0000E+00    4.000000E+07  0.05000  3.087E-03    0   0.7618   age104_m72            0.0000     2.4573E-03     7.5399   2.0185   107.1029
 58      0.0000     0.0000E+00    0.0000E+00    1.015200E+08  0.05000  1.700E-03    0   0.7096   age116_m72            0.0000     3.4857E-03     7.1738   1.7353   111.1910
 59      0.0000     0.0000E+00    0.0000E+00    2.861200E+08  0.05000  7.384E-04    0   0.6633   age125_m72            0.0000     5.2807E-03     7.9106   1.1656   118.2245
 60      0.0000     0.0000E+00    0.0000E+00    5.088000E+08  0.05000  3.819E-04    0   0.6372   age130_m72            0.0000     5.1512E-03     8.4513   0.6289   122.1017
 61      0.0000     0.0000E+00    0.0000E+00    9.047900E+08  0.05000  1.676E-04    0   0.6110   age135_m72            0.0000     4.7911E-03     9.3838  -0.1169   122.1830
 62      0.0000     0.0000E+00    0.0000E+00    1.434000E+09  0.05000  8.837E-05    0   0.5874   age139_m72            0.0000     4.9398E-03     9.7012  -0.5829   121.9735
 63     17.2178     4.5485E+01    4.6873E+01    2.500000E+09  0.05000  4.233E-05    0   0.5598   age150_m72            0.0000     5.7314E-03    11.0095  -0.9316   121.9567
 64      1.3971     1.0888E+01    1.0520E+01    6.250000E+09  0.05000  1.435E-05    0   0.5249   age166_m72            0.0000     7.8408E-03     9.5303  -1.0000   108.4352
 65      1.2485     2.1436E+01    1.9872E+01    1.300000E+10  0.05000  6.513E-06    0   0.5036   age193_m72            0.0000     1.0872E-02    12.8876  -1.0000   100.0166
 66      0.0000     0.0000E+00    0.0000E+00    1.800000E+10  0.05000  4.527E-06    0   0.4945   age213_m72            0.0000     1.2899E-02    15.0464  -1.0000    94.2592


## Synthesis Results - Average & Chains ##

# j      x_j: min, <> & last-chain-values for 1 ...  7 chains
  1     12.0231      6.0273      6.8667      7.1361      6.8389      7.5374      6.4822      6.6217      5.9295
  2      0.0000      0.2600      0.0367      0.0012      0.0000      0.0275      0.0000      0.0186      0.0224
  3      0.0000      0.6753      0.8647      0.2694      0.6962      0.1411      0.5299      0.7489      0.7763
  4      0.0000      0.2668      0.1264      0.0000      0.0675      0.0164      0.0000      0.0073      0.0070
  5      0.0000      0.2574      0.0790      0.0000      0.0228      0.0940      0.0000      0.0422      0.0308
  6      0.0000      0.2720      0.1381      0.0016      0.0194      0.0161      0.0005      0.1602      0.0545
  7      0.0000      0.2323      0.0883      0.1080      0.1206      0.0910      0.4784      0.0947      0.1183
  8      0.0000      0.2835      0.1285      0.0414      0.0185      0.0129      0.0000      0.2282      0.0000
  9      0.0000      0.2517      0.0044      0.0384      0.0218      0.0019      0.0000      0.0000      0.0146
 10      0.0000      0.2410      0.0080      0.0000      0.0000      0.0282      0.4930      0.0000      0.0008
 11      0.0000      0.2418      0.0151      0.0300      0.0565      0.0221      0.0822      0.0000      0.0146
 12      0.0000      0.2600      0.0000      0.0238      0.0542      0.0217      0.1365      0.1325      0.0072
 13      0.0000      0.2040      0.0300      0.0036      0.0410      0.0181      0.2796      0.0000      0.0000
 14      0.0000      0.3906      0.0014      0.0595      0.0437      0.0268      0.4842      0.1093      0.0162
 15      0.0000      0.2732      0.0218      0.0349      0.0033      0.0121      0.0950      0.0622      0.0373
 16      0.0000      0.2889      0.0627      0.0000      0.0994      0.0323      0.0496      0.2865      0.0000
 17      0.0000      0.8996      0.8725      0.3911      1.1041      0.1424      0.6925      1.3475      1.0808
 18      3.6393      7.5022      7.2089     16.0393      6.9980      6.9974      8.9029      7.2815      6.8430
 19      1.5456      9.4047     12.1263      9.9499     12.1580      8.0659     10.1174     11.0781     10.6245
 20      0.0000      0.3176      0.0000      0.0777      0.1771      0.1303      0.0160      0.0790      0.2335
 21      0.2216      1.8191      2.9684      0.2880      2.7901      0.2015      2.1889      2.4411      2.7666
 22      0.0000      0.1810      0.0895      0.0069      0.0350      0.0029      0.0000      0.1496      0.0159
 23      0.0000      0.4919      0.3879      0.2448      0.3519      0.1194      0.2411      0.3435      0.4485
 24      0.0000      0.3027      0.0100      0.0066      0.0218      0.0513      0.0889      0.3011      0.0337
 25      0.0000      0.5285      0.4726      0.2781      0.4289      0.1459      0.1176      0.2969      0.5285
 26      0.0000      0.2921      0.1211      0.0000      0.0000      0.0000      0.1009      0.0000      0.0078
 27      0.0000      0.2170      0.0627      0.0005      0.0582      0.0124      0.2576      0.0000      0.0342
 28      0.0000      0.2802      0.0074      0.0000      0.0000      0.0260      0.0706      0.0573      0.0345
 29      0.0000      0.2702      0.0422      0.0142      0.0547      0.0142      0.2189      0.0000      0.0000
 30      0.0000      0.2562      0.0000      0.0000      0.0306      0.0090      0.0691      0.0523      0.0368
 31      0.0000      1.3225      1.4167      1.1019      1.3932      0.1020      1.4742      1.2417      2.9563
 32      0.0000      0.3778      0.2536      0.2230      0.3389      0.1765      0.2102      0.4576      0.2625
 33      0.0000      1.4591      1.7551      0.8949      1.6386      1.5674      1.4183      1.6284      1.7199
 34      0.0000      0.3517      0.2343      0.2015      0.1991      0.1231      0.6115      0.2691      0.2257
 35     18.5677      4.1509      4.4156      4.4771      4.4593      4.7427      4.4214      4.2672      4.5840
 36      7.4381      4.3846      4.2120      9.9076      4.3104      2.2610      4.5098      4.6640      4.2609
 37      0.0090      0.4018      0.2712      0.3364      0.2880      0.1510      0.1097      0.2656      0.3306
 38      0.0000      2.8447      2.0792      0.7151      2.2269      9.2131      2.8250      3.0459      2.0997
 39      0.0000      0.2422      0.0000      0.0208      0.0159      0.0167      0.1108      0.0558      0.0000
 40      0.0000      0.2022      0.0562      0.0298      0.0747      0.0000      0.9284      0.0000      0.0000
 41      0.0000      0.2746      0.0420      0.0258      0.0474      0.0286      0.0000      0.0933      0.0037
 42      0.0000      0.3256      0.0000      0.0128      0.0110      0.0000      0.0000      0.0000      0.0384
 43      0.0000      0.2111      0.0519      0.0000      0.0764      0.0000      0.1473      0.0108      0.0473
 44      0.0000      0.2225      0.0595      0.0350      0.0000      0.0110      0.0000      0.1926      0.0156
 45      0.0000      0.2599      0.0071      0.0003      0.0132      0.0044      0.3273      0.1324      0.0247
 46      0.0000      0.2172      0.0000      0.0000      0.0709      0.0314      0.2071      0.4102      0.0273
 47      0.0000      0.3128      0.0000      0.0097      0.0858      0.0234      0.0062      0.0000      0.0189
 48      6.3513      0.4526      0.3183      0.2938      0.3514      0.2695      0.2415      0.0966      0.3525
 49      0.0000      6.1290      7.3803      6.3187      7.5396      7.1094      6.7405      7.3049      7.5412
 50      0.0000      4.1659      4.4994      4.7646      4.5010      5.1066      4.1381      4.1773      3.9297
 51     36.6909     10.3702     11.3506     10.5446     11.3432     11.2355     11.3747     10.7890     16.1282
 52      0.0000      5.3199      6.9522      1.8658      7.2602      3.9360      6.4026      6.3661      7.1275
 53      0.0000      0.2995      0.0221      0.0582      0.0258      0.0677      0.0000      0.1048      0.0396
 54      0.0000      4.7002      4.3174      0.9832      4.1899     13.6236      4.1180      4.6727      2.5076
 55      0.0000      1.3926      1.3327      3.5747      1.1872      0.0866      1.1752      1.9538      1.0998
 56      0.0000      1.1909      1.4345      0.8753      1.3899      0.1135      1.1741      1.0628      1.4033
 57      0.0000      0.2345      0.0742      0.0284      0.0465      0.0264      0.2963      0.0000      0.0363
 58      0.0000      0.2211      0.0259      0.0149      0.0217      0.0243      0.0000      0.2192      0.0114
 59      0.0000      0.2410      0.0241      0.0233      0.0382      0.0311      0.0000      0.1228      0.0102
 60      0.0000      0.2967      0.0371      0.0364      0.0000      0.0000      0.0000      0.1125      0.0390
 61      0.0000      0.2832      0.0780      0.0013      0.0134      0.0093      0.3489      0.4349      0.0213
 62      0.0000      0.2218      0.0000      0.0050      0.0227      0.0301      0.3070      0.0940      0.0167
 63     17.2178      0.8431      0.7363      0.7450      0.6802      0.7078      0.6251      0.4221      0.6923
 64      1.3971      3.6815      3.7851      5.9372      3.6732      4.3574      4.0419      3.6991      3.6785
 65      1.2485      3.3500      3.4951      3.9194      3.6870      4.3232      3.6268      3.7340      3.1649
 66      0.0000      4.4871      5.0716      5.4056      4.9999      5.6780      4.6455      4.7691      4.2763

# j      m_j: min, <> & last-chain-values for 1 ...  7 chains
  1  2.2623E-01  3.4762E-02  3.6727E-02  3.6644E-02  3.6288E-02  3.7506E-02  3.6074E-02  3.5949E-02  3.4260E-02
  2  0.0000E+00  4.0943E-04  5.3642E-05  1.6413E-06  0.0000E+00  3.7367E-05  0.0000E+00  2.7601E-05  3.5360E-05
  3  0.0000E+00  1.5921E-03  1.8908E-03  5.6550E-04  1.5102E-03  2.8710E-04  1.2056E-03  1.6621E-03  1.8337E-03
  4  0.0000E+00  5.9251E-04  2.6035E-04  0.0000E+00  1.3798E-04  3.1356E-05  0.0000E+00  1.5195E-05  1.5572E-05
  5  0.0000E+00  1.0886E-03  3.0989E-04  0.0000E+00  8.8560E-05  3.4312E-04  0.0000E+00  1.6799E-04  1.3063E-04
  6  0.0000E+00  1.8663E-03  8.7839E-04  9.7698E-06  1.2254E-04  9.5530E-05  3.1890E-06  1.0346E-03  3.7481E-04
  7  0.0000E+00  2.2815E-03  8.0396E-04  9.4402E-04  1.0899E-03  7.7109E-04  4.5342E-03  8.7514E-04  1.1644E-03
  8  0.0000E+00  3.8489E-03  1.6184E-03  5.0009E-04  2.3048E-04  1.5133E-04  0.0000E+00  2.9165E-03  0.0000E+00
  9  0.0000E+00  3.9101E-03  6.2959E-05  5.3167E-04  3.1227E-04  2.5253E-05  0.0000E+00  0.0000E+00  2.2766E-04
 10  0.0000E+00  4.9197E-03  1.5065E-04  0.0000E+00  0.0000E+00  4.9686E-04  9.7087E-03  0.0000E+00  1.5784E-05
 11  0.0000E+00  9.2778E-03  5.3567E-04  1.0266E-03  1.9947E-03  7.3064E-04  3.0442E-03  0.0000E+00  5.6025E-04
 12  0.0000E+00  1.5830E-02  0.0000E+00  1.2916E-03  3.0361E-03  1.1408E-03  8.0202E-03  7.5955E-03  4.4059E-04
 13  0.0000E+00  3.4996E-02  4.7672E-03  5.5385E-04  6.4688E-03  2.6769E-03  4.6293E-02  0.0000E+00  0.0000E+00
 14  0.0000E+00  2.2480E-01  7.4668E-04  3.0475E-02  2.3147E-02  1.3283E-02  2.6889E-01  5.9226E-02  9.3195E-03
 15  0.0000E+00  2.5597E-01  1.8906E-02  2.9101E-02  2.8082E-03  9.7723E-03  8.5907E-02  5.4849E-02  3.4990E-02
 16  0.0000E+00  4.5768E-01  9.2163E-02  0.0000E+00  1.4486E-01  4.4167E-02  7.5852E-02  4.2727E-01  0.0000E+00
 17  0.0000E+00  1.8488E+00  1.6629E+00  7.1565E-01  2.0875E+00  2.5241E-01  1.3733E+00  2.6066E+00  2.2252E+00
 18  6.0514E-02  3.8236E-02  3.4073E-02  7.2782E-02  3.2814E-02  3.0769E-02  4.3782E-02  3.4933E-02  3.4939E-02
 19  1.0315E-02  1.9238E-02  2.3004E-02  1.8121E-02  2.2881E-02  1.4235E-02  1.9970E-02  2.1331E-02  2.1773E-02
 20  0.0000E+00  7.0928E-04  0.0000E+00  1.5446E-04  3.6381E-04  2.5098E-04  3.4419E-05  1.6599E-04  5.2229E-04
 21  1.9602E-03  4.9312E-03  7.4624E-03  6.9505E-04  6.9585E-03  4.7138E-04  5.7255E-03  6.2291E-03  7.5133E-03
 22  0.0000E+00  8.2963E-04  3.8033E-04  2.8325E-05  1.4776E-04  1.1645E-05  0.0000E+00  6.4541E-04  7.3145E-05
 23  0.0000E+00  3.0449E-03  2.2270E-03  1.3491E-03  2.0041E-03  6.3780E-04  1.4399E-03  2.0016E-03  2.7811E-03
 24  0.0000E+00  2.7874E-03  8.5751E-05  5.4220E-05  1.8498E-04  4.0726E-04  7.8974E-04  2.6105E-03  3.1101E-04
 25  0.0000E+00  6.7111E-03  5.5653E-03  3.1438E-03  5.0109E-03  1.5990E-03  1.4413E-03  3.5494E-03  6.7233E-03
 26  0.0000E+00  6.2000E-03  2.3835E-03  0.0000E+00  0.0000E+00  0.0000E+00  2.0658E-03  0.0000E+00  1.6593E-04
 27  0.0000E+00  9.2195E-03  2.4722E-03  1.8225E-05  2.2738E-03  4.5413E-04  1.0562E-02  0.0000E+00  1.4539E-03
 28  0.0000E+00  3.4549E-02  8.4598E-04  0.0000E+00  0.0000E+00  2.7658E-03  8.4024E-03  6.6480E-03  4.2571E-03
 29  0.0000E+00  5.8054E-02  8.4032E-03  2.7067E-03  1.0818E-02  2.6326E-03  4.5369E-02  0.0000E+00  0.0000E+00
 30  0.0000E+00  1.1501E-01  0.0000E+00  0.0000E+00  1.2653E-02  3.4967E-03  2.9913E-02  2.2082E-02  1.6546E-02
 31  0.0000E+00  1.0442E+00  1.0373E+00  7.7460E-01  1.0120E+00  6.9451E-02  1.1232E+00  9.2286E-01  2.3384E+00
 32  0.0000E+00  4.0135E-01  2.4984E-01  2.1097E-01  3.3127E-01  1.6180E-01  2.1543E-01  4.5764E-01  2.7940E-01
 33  0.0000E+00  3.4316E+00  3.8279E+00  1.8738E+00  3.5455E+00  3.1804E+00  3.2185E+00  3.6050E+00  4.0522E+00
 34  0.0000E+00  1.1202E+00  6.9208E-01  5.7145E-01  5.8334E-01  3.3827E-01  1.8793E+00  8.0676E-01  7.2016E-01
 35  2.4756E-01  1.6963E-02  1.6734E-02  1.6289E-02  1.6765E-02  1.6722E-02  1.7434E-02  1.6414E-02  1.8767E-02
 36  4.0123E-02  7.2494E-03  6.4584E-03  1.4585E-02  6.5568E-03  3.2253E-03  7.1947E-03  7.2588E-03  7.0577E-03
 37  5.2314E-05  7.1848E-04  4.4976E-04  5.3562E-04  4.7384E-04  2.3306E-04  1.8928E-04  4.4711E-04  5.9230E-04
 38  0.0000E+00  1.3782E-02  9.3421E-03  3.0847E-03  9.9260E-03  3.8511E-02  1.3206E-02  1.3891E-02  1.0191E-02
 39  0.0000E+00  1.6893E-03  0.0000E+00  1.2922E-04  1.0199E-04  1.0079E-04  7.4605E-04  3.6643E-04  0.0000E+00
 40  0.0000E+00  2.2801E-03  5.8735E-04  2.9900E-04  7.7515E-04  0.0000E+00  1.0100E-02  0.0000E+00  0.0000E+00
 41  0.0000E+00  4.8143E-03  6.8302E-04  4.0341E-04  7.6518E-04  4.3291E-04  0.0000E+00  1.5400E-03  6.5788E-05
 42  0.0000E+00  1.0483E-02  0.0000E+00  3.6798E-04  3.2570E-04  0.0000E+00  0.0000E+00  0.0000E+00  1.2388E-03
 43  0.0000E+00  9.9211E-03  2.2637E-03  0.0000E+00  3.3045E-03  0.0000E+00  6.6809E-03  4.7778E-04  2.2294E-03
 44  0.0000E+00  1.8003E-02  4.4629E-03  2.5209E-03  0.0000E+00  7.6809E-04  0.0000E+00  1.4670E-02  1.2613E-03
 45  0.0000E+00  4.1727E-02  1.0537E-03  4.1975E-05  1.9455E-03  6.1196E-04  5.0709E-02  2.0016E-02  3.9680E-03
 46  0.0000E+00  6.4114E-02  0.0000E+00  0.0000E+00  1.9257E-02  7.9845E-03  5.8970E-02  1.1395E-01  8.0773E-03
 47  0.0000E+00  1.8709E-01  0.0000E+00  5.1418E-03  4.7223E-02  1.2075E-02  3.5526E-03  0.0000E+00  1.1316E-02
 48  2.1856E+01  4.7737E-01  3.1134E-01  2.7589E-01  3.4100E-01  2.4525E-01  2.4581E-01  9.5889E-02  3.7247E-01
 49  0.0000E+00  1.4692E+01  1.6407E+01  1.3486E+01  1.6628E+01  1.4704E+01  1.5591E+01  1.6483E+01  1.8110E+01
 50  0.0000E+00  1.8496E+01  1.8526E+01  1.8834E+01  1.8386E+01  1.9562E+01  1.7728E+01  1.7458E+01  1.7479E+01
 51  2.9134E-01  2.5239E-02  2.5619E-02  2.2849E-02  2.5399E-02  2.3592E-02  2.6712E-02  2.4717E-02  3.9323E-02
 52  0.0000E+00  6.6350E-03  8.0412E-03  2.0719E-03  8.3307E-03  4.2353E-03  7.7051E-03  7.4739E-03  8.9055E-03
 53  0.0000E+00  5.6260E-04  3.8482E-05  9.7370E-05  4.4645E-05  1.0966E-04  0.0000E+00  1.8525E-04  7.4549E-05
 54  0.0000E+00  1.8093E-02  1.5413E-02  3.3699E-03  1.4839E-02  4.5247E-02  1.5296E-02  1.6932E-02  9.6705E-03
 55  0.0000E+00  8.2539E-03  7.3254E-03  1.8865E-02  6.4737E-03  4.4263E-04  6.7209E-03  1.0901E-02  6.5307E-03
 56  0.0000E+00  1.3970E-02  1.5606E-02  9.1423E-03  1.5001E-02  1.1485E-03  1.3290E-02  1.1736E-02  1.6492E-02
 57  0.0000E+00  3.6515E-03  1.0708E-03  3.9363E-04  6.6665E-04  3.5472E-04  4.4511E-03  0.0000E+00  5.6577E-04
 58  0.0000E+00  5.8230E-03  6.3322E-04  3.4927E-04  5.2691E-04  5.5154E-04  0.0000E+00  5.4345E-03  3.0066E-04
 59  0.0000E+00  1.3662E-02  1.2674E-03  1.1780E-03  1.9933E-03  1.5218E-03  0.0000E+00  6.5527E-03  5.8150E-04
 60  0.0000E+00  3.1232E-02  3.6189E-03  3.4149E-03  0.0000E+00  0.0000E+00  0.0000E+00  1.1147E-02  4.1171E-03
 61  0.0000E+00  6.5152E-02  1.6635E-02  2.5655E-04  2.8304E-03  1.8497E-03  7.7427E-02  9.4164E-02  4.9171E-03
 62  0.0000E+00  9.3041E-02  0.0000E+00  1.8561E-03  8.7430E-03  1.0902E-02  1.2422E-01  3.7123E-02  7.0338E-03
 63  4.6873E+01  7.0350E-01  5.6977E-01  5.5346E-01  5.2219E-01  5.0957E-01  5.0326E-01  3.3156E-01  5.7874E-01
 64  1.0520E+01  8.4967E+00  8.1015E+00  1.2200E+01  7.7994E+00  8.6766E+00  9.0011E+00  8.0362E+00  8.5052E+00
 65  1.9872E+01  1.6344E+01  1.5813E+01  1.7025E+01  1.6549E+01  1.8197E+01  1.7073E+01  1.7148E+01  1.5469E+01
 66  0.0000E+00  3.0926E+01  3.2416E+01  3.3171E+01  3.1704E+01  3.3764E+01  3.0894E+01  3.0940E+01  2.9526E+01

# AV, chi2 & Mass for <> & i_chain = 1 ...  7 solutions
AV       1.2881      0.8007      0.8205      0.8370      0.8097      0.7302      0.8256      0.8113      0.8709
chi2 1.1940E-03  2.1241E-03  1.9955E-03  1.9273E-03  2.0094E-03  1.9685E-03  2.0076E-03  2.0028E-03  1.9701E-03
Mass 4.2044E-12  7.1278E-12  7.8926E-12  8.4053E-12  7.8413E-12  7.5151E-12  7.6384E-12  7.6804E-12  7.8184E-12
 144.50                                  [v0_min (km/s) before EX0s...]
 241.51                                  [vd_min (km/s) before EX0s...]


## Synthetic spectrum (Best Model) ##l_obs f_obs f_syn wei
 3478    [Nl_obs]
 3741.00    0.90999   0.94603    0.000
 3742.00    0.95272   0.95789    0.000
 3743.00    0.97119   0.96433    0.000
 3744.00    0.97893   0.96442    0.000
 3745.00    0.98042   0.95783    0.814
 3746.00    0.99666   0.94557    0.775
 3747.00    1.02039   0.92981    0.711
 3748.00    1.03676   0.91301    0.746
 3749.00    1.04990   0.89782    0.838
 3750.00    1.08197   0.88628    0.834
 3751.00    1.12118   0.87930    0.792
 3752.00    1.10881   0.87863    0.786
 3753.00    1.07990   0.88574    0.790
 3754.00    1.05775   0.89881    0.770
 3755.00    1.03743   0.91379    0.745
 3756.00    1.02016   0.92731    0.708
 3757.00    1.00357   0.93817    0.672
 3758.00    0.98114   0.94685    0.662
 3759.00    0.95771   0.95278    0.657
 3760.00    0.95650   0.95564    0.667
 3761.00    0.95825   0.95761    0.679
 3762.00    0.97124   0.95979    0.695
 3763.00    0.98528   0.96195    0.713
 3764.00    0.96638   0.96299    0.715
 3765.00    0.94559   0.96065    0.716
 3766.00    0.92804   0.95431    0.654
 3767.00    0.91060   0.94437    0.601
 3768.00    0.89669   0.93130    0.584
 3769.00    0.88206   0.91663    0.569
 3770.00    0.84987   0.90307    0.566
 3771.00    0.81737   0.89312    0.563
 3772.00    0.78076   0.88810    0.569
 3773.00    0.74622   0.88970    0.573
 3774.00    0.72994   0.89961    0.562
 3775.00    0.71768   0.91635    0.551
 3776.00    0.73152   0.93601    0.545
 3777.00    0.75128   0.95641    0.545
 3778.00    0.80106   0.97653    0.581
 3779.00    0.85120   0.99481    0.614
 3780.00    0.90280   1.01024    0.620
 3781.00    0.94804   1.02275    0.636
 3782.00    0.97171   1.03236    0.685
 3783.00    0.99840   1.03861    0.736
 3784.00    1.03370   1.04113    0.772
 3785.00    1.06429   1.04042    0.794
 3786.00    1.08337   1.03704    0.776
 3787.00    1.09484   1.03088    0.758
 3788.00    1.09029   1.02181    0.741
 3789.00    1.08249   1.01085    0.719
 3790.00    1.06874   0.99917    0.691
 3791.00    1.05439   0.98636    0.676
 3792.00    1.03907   0.97163    0.682
 3793.00    1.02729   0.95471    0.683
 3794.00    1.02046   0.93556    0.676
 3795.00    1.00631   0.91450    0.667
 3796.00    0.98311   0.89271    0.657
 3797.00    0.97408   0.87262    0.665
 3798.00    0.98050   0.85690    0.693
 3799.00    1.00330   0.84757    0.711
 3800.00    1.04184   0.84666    0.717
 3801.00    1.07234   0.85623    0.724
 3802.00    1.09603   0.87548    0.733
 3803.00    1.09660   0.89984    0.728
 3804.00    1.07991   0.92476    0.713
 3805.00    1.07168   0.94804    0.691
 3806.00    1.06900   0.96861    0.664
 3807.00    1.07415   0.98531    0.652
 3808.00    1.08381   0.99761    0.648
 3809.00    1.06976   1.00618    0.630
 3810.00    1.04387   1.01230    0.606
 3811.00    1.01775   1.01642    0.633
 3812.00    0.99153   1.01791    0.690
 3813.00    0.97657   1.01645    0.669
 3814.00    0.96579   1.01247    0.622
 3815.00    0.95438   1.00635    0.615
 3816.00    0.94277   0.99819    0.620
 3817.00    0.96362   0.98867    0.635
 3818.00    0.99298   0.97927    0.654
 3819.00    0.99424   0.97141    0.653
 3820.00    0.98948   0.96505    0.647
 3821.00    0.94636   0.95907    0.638
 3822.00    0.89674   0.95417    0.630
 3823.00    0.85428   0.95254    0.649
 3824.00    0.81273   0.95371    0.674
 3825.00    0.78311   0.95440    0.666
 3826.00    0.75456   0.95238    0.656
 3827.00    0.76993   0.94763    0.637
 3828.00    0.78766   0.94076    0.618
 3829.00    0.81754   0.93124    0.645
 3830.00    0.84756   0.91797    0.674
 3831.00    0.86870   0.90050    0.701
 3832.00    0.89018   0.87939    0.726
 3833.00    0.91915   0.85617    0.659
 3834.00    0.94535   0.83298    0.608
 3835.00    0.93710   0.81230    0.623
 3836.00    0.92935   0.79675    0.637
 3837.00    0.92572   0.78888    0.628
 3838.00    0.92458   0.79117    0.618
 3839.00    0.93901   0.80409    0.601
 3840.00    0.94970   0.82467    0.592
 3841.00    0.94195   0.84920    0.616
 3842.00    0.93936   0.87524    0.637
 3843.00    0.95742   0.90089    0.633
 3844.00    0.97487   0.92466    0.629
 3845.00    0.99030   0.94509    0.622
 3846.00    1.00323   0.96106    0.619
 3847.00    1.00910   0.97272    0.000
 3848.00    1.01372   0.98102    0.000
 3849.00    1.01534   0.98703    0.000
 3850.00    1.01588   0.99111    0.000
 3851.00    1.01417   0.99302    0.000
 3852.00    1.01211   0.99323    0.000
 3853.00    1.00940   0.99286    0.000
 3854.00    1.00787   0.99228    0.000
 3855.00    1.00819   0.99072    0.000
 3856.00    1.00339   0.98771    0.000
 3857.00    0.99149   0.98397    0.000
 3858.00    0.97524   0.98047    0.000
 3859.00    0.95369   0.97801    0.000
 3860.00    0.93564   0.97674    0.000
 3861.00    0.92135   0.97630    0.000
 3862.00    0.89688   0.97704    0.000
 3863.00    0.86277   0.97938    0.000
 3864.00    0.80259   0.98268    0.000
 3865.00    0.72062   0.98546    0.000
 3866.00    0.65341   0.98681    0.000
 3867.00    0.59705   0.98671    0.000
 3868.00    0.53857   0.98530    0.000
 3869.00    0.47873   0.98263    0.000
 3870.00    0.45389   0.97930    0.000
 3871.00    0.44884   0.97633    0.000
 3872.00    0.48877   0.97379    0.000
 3873.00    0.55083   0.97133    0.000
 3874.00    0.62519   0.96939    0.000
 3875.00    0.70478   0.96857    0.000
 3876.00    0.76397   0.96863    0.000
 3877.00    0.81573   0.96830    0.000
 3878.00    0.86053   0.96635    0.000
 3879.00    0.90318   0.96228    0.000
 3880.00    0.91565   0.95624    0.000
 3881.00    0.92038   0.94879    0.560
 3882.00    0.93147   0.93966    0.557
 3883.00    0.94388   0.92712    0.552
 3884.00    0.96510   0.91049    0.565
 3885.00    0.98776   0.89088    0.582
 3886.00    0.96624   0.86923    0.601
 3887.00    0.93925   0.84633    0.621
 3888.00    0.95627   0.82466    0.610
 3889.00    0.97706   0.80778    0.596
 3890.00    0.98110   0.79805    0.597
 3891.00    0.98431   0.79733    0.599
 3892.00    0.97994   0.80765    0.579
 3893.00    0.97522   0.82798    0.560
 3894.00    0.95599   0.85371    0.589
 3895.00    0.93698   0.88038    0.617
 3896.00    0.92253   0.90552    0.575
 3897.00    0.90591   0.92792    0.539
 3898.00    0.86352   0.94696    0.509
 3899.00    0.81980   0.96228    0.484
 3900.00    0.76527   0.97338    0.471
 3901.00    0.71094   0.98085    0.457
 3902.00    0.65789   0.98638    0.439
 3903.00    0.60657   0.99078    0.421
 3904.00    0.56359   0.99381    0.401
 3905.00    0.53049   0.99571    0.388
 3906.00    0.53604   0.99777    0.395
 3907.00    0.55570   1.00036    0.404
 3908.00    0.62132   1.00332    0.422
 3909.00    0.68993   1.00717    0.440
 3910.00    0.76678   1.01182    0.457
 3911.00    0.83321   1.01624    0.472
 3912.00    0.87504   1.01953    0.480
 3913.00    0.90614   1.02162    0.489
 3914.00    0.91537   1.02255    0.501
 3915.00    0.93160   1.02195    0.514
 3916.00    0.96028   1.01944    0.530
 3917.00    0.98560   1.01503    0.544
 3918.00    1.00569   1.00890    0.551
 3919.00    1.02087   1.00158    0.557
 3920.00    1.02935   0.99345    0.559
 3921.00    1.04312   0.98466    0.563
 3922.00    1.06328   0.97592    0.569
 3923.00    1.05648   0.96797    0.565
 3924.00    1.02116   0.96105    0.551
 3925.00    0.99285   0.95476    0.549
 3926.00    0.97109   0.94880    0.558
 3927.00    0.97823   0.94285    0.565
 3928.00    1.00917   0.93633    0.569
 3929.00    1.00342   0.92917    0.587
 3930.00    0.97108   0.92151    0.616
 3931.00    0.93075   0.91358    0.632
 3932.00    0.88533   0.90589    0.640
 3933.00    0.88509   0.89924    0.632
 3934.00    0.90998   0.89450    0.614
 3935.00    0.94262   0.89214    0.620
 3936.00    0.97899   0.89260    0.637
 3937.00    0.99430   0.89649    0.627
 3938.00    1.00079   0.90356    0.607
 3939.00    0.99597   0.91260    0.590
 3940.00    0.98711   0.92234    0.575
 3941.00    0.97528   0.93198    0.569
 3942.00    0.96256   0.94095    0.566
 3943.00    0.95387   0.94898    0.556
 3944.00    0.94618   0.95608    0.544
 3945.00    0.97583   0.96188    0.560
 3946.00    1.01309   0.96675    0.584
 3947.00    1.04198   0.97225    0.571
 3948.00    1.06953   0.97872    0.553
 3949.00    1.08448   0.98439    0.558
 3950.00    1.09791   0.98834    0.566
 3951.00    1.07347   0.99200    0.570
 3952.00    1.04595   0.99597    0.574
 3953.00    1.04040   0.99851    0.563
 3954.00    1.03585   0.99824    0.553
 3955.00    1.04878   0.99648    0.559
 3956.00    1.06170   0.99468    0.564
 3957.00    1.06198   0.99154    0.550
 3958.00    1.06175   0.98519    0.537
 3959.00    1.05183   0.97580    0.544
 3960.00    1.04069   0.96477    0.000
 3961.00    1.01592   0.95168    0.000
 3962.00    0.99132   0.93430    0.000
 3963.00    0.96807   0.91218    0.000
 3964.00    0.94414   0.88759    0.000
 3965.00    0.91623   0.86165    0.000
 3966.00    0.89495   0.83303    0.000
 3967.00    0.90481   0.80198    0.000
 3968.00    0.91393   0.77186    0.000
 3969.00    0.92027   0.74632    0.000
 3970.00    0.92825   0.72710    0.000
 3971.00    0.94148   0.71562    0.000
 3972.00    0.96639   0.71528    0.000
 3973.00    1.02292   0.72849    0.000
 3974.00    1.06048   0.75276    0.000
 3975.00    1.05397   0.78335    0.000
 3976.00    1.03517   0.81721    0.000
 3977.00    0.99168   0.85230    0.000
 3978.00    0.97104   0.88572    0.000
 3979.00    0.99035   0.91481    0.000
 3980.00    1.00534   0.93886    0.000
 3981.00    1.01369   0.95841    0.505
 3982.00    1.02964   0.97384    0.506
 3983.00    1.05580   0.98531    0.521
 3984.00    1.05842   0.99357    0.529
 3985.00    1.03317   1.00021    0.528
 3986.00    1.02375   1.00633    0.527
 3987.00    1.03085   1.01173    0.525
 3988.00    1.04810   1.01613    0.514
 3989.00    1.07471   1.02025    0.496
 3990.00    1.09000   1.02457    0.484
 3991.00    1.09610   1.02794    0.479
 3992.00    1.08755   1.02975    0.477
 3993.00    1.06855   1.03097    0.477
 3994.00    1.04588   1.03193    0.477
 3995.00    1.02093   1.03202    0.477
 3996.00    1.01673   1.03116    0.479
 3997.00    1.02390   1.03065    0.483
 3998.00    1.02369   1.03099    0.483
 3999.00    1.01995   1.03148    0.480
 4000.00    1.03502   1.03243    0.481
 4001.00    1.05781   1.03449    0.484
 4002.00    1.06975   1.03624    0.480
 4003.00    1.07787   1.03598    0.476
 4004.00    1.07493   1.03470    0.476
 4005.00    1.06870   1.03343    0.479
 4006.00    1.04940   1.03115    0.476
 4007.00    1.02689   1.02760    0.471
 4008.00    1.03573   1.02543    0.473
 4009.00    1.05081   1.02609    0.477
 4010.00    1.05122   1.02803    0.472
 4011.00    1.04934   1.03022    0.467
 4012.00    1.03219   1.03347    0.466
 4013.00    1.01328   1.03804    0.465
 4014.00    1.02080   1.04247    0.481
 4015.00    1.03036   1.04573    0.499
 4016.00    1.02884   1.04822    0.488
 4017.00    1.02685   1.05053    0.476
 4018.00    1.03179   1.05151    0.473
 4019.00    1.03723   1.05013    0.470
 4020.00    1.06230   1.04735    0.487
 4021.00    1.08534   1.04374    0.503
 4022.00    1.07271   1.03749    0.487
 4023.00    1.06044   1.02799    0.473
 4024.00    1.05207   1.01760    0.468
 4025.00    1.04196   1.00860    0.463
 4026.00    1.01875   1.00054    0.469
 4027.00    0.99861   0.99301    0.476
 4028.00    0.99616   0.98831    0.488
 4029.00    0.99112   0.98877    0.498
 4030.00    0.97422   0.99253    0.492
 4031.00    0.95359   0.99598    0.486
 4032.00    0.91898   0.99862    0.482
 4033.00    0.88164   1.00238    0.475
 4034.00    0.83573   1.00785    0.458
 4035.00    0.80238   1.01361    0.445
 4036.00    0.80243   1.01953    0.439
 4037.00    0.81325   1.02620    0.434
 4038.00    0.84865   1.03336    0.430
 4039.00    0.88743   1.03979    0.432
 4040.00    0.93291   1.04440    0.445
 4041.00    0.96125   1.04626    0.457
 4042.00    0.96009   1.04457    0.464
 4043.00    0.95646   1.04024    0.471
 4044.00    0.94913   1.03545    0.478
 4045.00    0.95469   1.03085    0.480
 4046.00    0.97738   1.02558    0.476
 4047.00    1.00000   1.02094    0.470
 4048.00    1.02256   1.02012    0.461
 4049.00    1.02914   1.02349    0.456
 4050.00    1.01928   1.02777    0.454
 4051.00    1.00512   1.03114    0.457
 4052.00    0.98705   1.03426    0.465
 4053.00    0.97954   1.03653    0.468
 4054.00    0.98047   1.03662    0.469
 4055.00    0.99429   1.03446    0.468
 4056.00    1.01718   1.03092    0.466
 4057.00    1.02098   1.02719    0.466
 4058.00    1.01298   1.02417    0.466
 4059.00    1.00190   1.02144    0.465
 4060.00    0.98915   1.01825    0.463
 4061.00    0.97932   1.01518    0.463
 4062.00    0.97086   1.01299    0.464
 4063.00    0.95783   1.01114    0.464
 4064.00    0.94295   1.00768    0.462
 4065.00    0.94411   1.00258    0.457
 4066.00    0.95079   0.99872    0.451
 4067.00    0.95583   0.99722    0.449
 4068.00    0.96040   0.99500    0.448
 4069.00    0.96545   0.99087    0.456
 4070.00    0.97060   0.98813    0.467
 4071.00    0.96371   0.98850    0.463
 4072.00    0.95449   0.98906    0.456
 4073.00    0.95288   0.98810    0.449
 4074.00    0.95242   0.98800    0.442
 4075.00    0.96799   0.99043    0.444
 4076.00    0.98532   0.99291    0.446
 4077.00    0.96267   0.99375    0.441
 4078.00    0.93708   0.99486    0.434
 4079.00    0.95615   0.99797    0.850
 4080.00    0.97692   1.00223   -1.000
 4081.00    0.99716   1.00658   -1.000
 4082.00    1.01616   1.01113   -1.000
 4083.00    0.98845   1.01563   -1.000
 4084.00    0.96184   1.01904   -1.000
 4085.00    0.95335   1.02089   -1.000
 4086.00    0.94573   1.02126   -1.000
 4087.00    0.94705   1.02078   -1.000
 4088.00    0.94819   1.02041   -1.000
 4089.00    0.94811   1.01979   -1.000
 4090.00    0.95031   1.01737   -1.000
 4091.00    0.96536   1.01396   -1.000
 4092.00    0.98088   1.01068    0.000
 4093.00    0.99852   1.00490    0.000
 4094.00    1.01024   0.99427    0.000
 4095.00    1.00023   0.98020    0.000
 4096.00    0.98406   0.96353    0.000
 4097.00    0.94896   0.94223    0.000
 4098.00    0.92662   0.91564    0.000
 4099.00    0.93765   0.88657    0.000
 4100.00    0.93838   0.85959    0.000
 4101.00    0.91599   0.83692    0.000
 4102.00    0.90612   0.81837    0.000
 4103.00    0.92060   0.80649    0.000
 4104.00    0.92679   0.80670    0.000
 4105.00    0.91890   0.81950    0.000
 4106.00    0.90863   0.83966    0.000
 4107.00    0.89481   0.86362    0.000
 4108.00    0.89616   0.89017    0.000
 4109.00    0.91731   0.91644    0.000
 4110.00    0.93137   0.93925    0.000
 4111.00    0.93725   0.95773    0.000
 4112.00    0.93278   0.97203    0.000
 4113.00    0.91779   0.98234   -1.000
 4114.00    0.91629   0.98989   -1.000
 4115.00    0.92687   0.99607   -1.000
 4116.00    0.92870   1.00005   -1.000
 4117.00    0.92363   1.00113   -1.000
 4118.00    0.90614   1.00148   -1.000
 4119.00    0.88003   1.00238   -1.000
 4120.00    0.88712   1.00210   -1.000
 4121.00    0.91442   1.00084   -1.000
 4122.00    0.91293   1.00123   -1.000
 4123.00    0.89616   1.00327   -1.000
 4124.00    0.89167   1.00530   -1.000
 4125.00    0.89284   1.00721   -1.000
 4126.00    0.89138   1.00947   -1.000
 4127.00    0.88888   1.01141   -1.000
 4128.00    0.88304   1.01164   -1.000
 4129.00    0.87607   1.01017   -1.000
 4130.00    0.89791   1.00775   -1.000
 4131.00    0.92795   1.00554   -1.000
 4132.00    0.90940   1.00344   -1.000
 4133.00    0.87943   1.00176   -1.000
 4134.00    0.87876   1.00124   -1.000
 4135.00    0.88361   1.00262   -1.000
 4136.00    0.87220   1.00553   -1.000
 4137.00    0.85842   1.00942   -1.000
 4138.00    0.85459   1.01322   -1.000
 4139.00    0.85180   1.01552   -1.000
 4140.00    0.87824   1.01583   -1.000
 4141.00    0.90671   1.01382   -1.000
 4142.00    0.87915   1.01013   -1.000
 4143.00    0.84965   1.00579   -1.000
 4144.00    0.87842   1.00031   -1.000
 4145.00    0.90581   0.99444   -1.000
 4146.00    0.88401   0.99169   -1.000
 4147.00    0.86323   0.99269   -1.000
 4148.00    0.85832   0.99399   -1.000
 4149.00    0.85375   0.99516   -1.000
 4150.00    0.85266   0.99729   -1.000
 4151.00    0.85136   0.99906   -1.000
 4152.00    0.84861   0.99939   -1.000
 4153.00    0.84943   0.99932   -1.000
 4154.00    0.86981   0.99861   -1.000
 4155.00    0.88206   0.99748   -1.000
 4156.00    0.85877   0.99743   -1.000
 4157.00    0.83712   0.99893   -1.000
 4158.00    0.82134   1.00068   -1.000
 4159.00    0.82540   1.00306    3.353
 4160.00    0.88933   1.00724    0.668
 4161.00    0.92807   1.01184    0.424
 4162.00    0.90215   1.01510    0.426
 4163.00    0.88633   1.01753    0.426
 4164.00    0.89282   1.01997    0.421
 4165.00    0.89625   1.02085    0.420
 4166.00    0.89381   1.01961    0.423
 4167.00    0.90256   1.01790    0.430
 4168.00    0.92997   1.01588    0.444
 4169.00    0.93508   1.01215    0.449
 4170.00    0.90751   1.00754    0.440
 4171.00    0.88814   1.00377    0.438
 4172.00    0.87931   1.00027    0.447
 4173.00    0.88047   0.99593    0.458
 4174.00    0.89296   0.99151    0.471
 4175.00    0.90764   0.98872    0.473
 4176.00    0.92451   0.98764    0.462
 4177.00    0.92116   0.98748    0.454
 4178.00    0.89996   0.98797    0.447
 4179.00    0.88502   0.98904    0.442
 4180.00    0.87493   0.99063    0.438
 4181.00    0.87511   0.99288    0.433
 4182.00    0.88230   0.99511    0.428
 4183.00    0.88775   0.99648    0.428
 4184.00    0.89214   0.99694    0.430
 4185.00    0.91256   0.99708    0.437
 4186.00    0.94137   0.99753    0.445
 4187.00    0.93729   0.99829    0.437
 4188.00    0.91829   0.99793    0.421
 4189.00    0.91759   0.99680    0.420
 4190.00    0.92401   0.99766    0.425
 4191.00    0.90410   1.00012    0.425
 4192.00    0.87543   1.00098    0.423
 4193.00    0.88310   0.99981    0.422
 4194.00    0.90089   0.99860    0.421
 4195.00    0.91121   0.99683    0.420
 4196.00    0.91982   0.99130    0.420
 4197.00    0.91918   0.98241    0.424
 4198.00    0.91684   0.97378    0.428
 4199.00    0.91938   0.96629    0.425
 4200.00    0.92261   0.95862    0.421
 4201.00    0.89121   0.95314    0.411
 4202.00    0.85628   0.95259    0.400
 4203.00    0.83317   0.95553    0.397
 4204.00    0.81082   0.96075    0.395
 4205.00    0.83440   0.96897    0.396
 4206.00    0.85936   0.97889    0.398
 4207.00    0.86685   0.98814    0.404
 4208.00    0.87529   0.99649    0.409
 4209.00    0.91151   1.00380    0.408
 4210.00    0.94507   1.00918    0.407
 4211.00    0.93997   1.01214    0.404
 4212.00    0.93611   1.01338    0.402
 4213.00    0.94406   1.01341    0.407
 4214.00    0.94868   1.01276    0.409
 4215.00    0.93042   1.01263    0.398
 4216.00    0.91244   1.01285    0.390
 4217.00    0.89597   1.01269    0.388
 4218.00    0.88474   1.01397    0.386
 4219.00    0.89584   1.01740    0.390
 4220.00    0.90237   1.01945    0.392
 4221.00    0.89274   1.01880    0.392
 4222.00    0.88114   1.01702    0.394
 4223.00    0.86367   1.01333    0.398
 4224.00    0.85210   1.00552    0.401
 4225.00    0.85542   0.99560    0.400
 4226.00    0.85588   0.98715    0.397
 4227.00    0.85013   0.98009    0.388
 4228.00    0.84418   0.97416    0.382
 4229.00    0.83785   0.97259    0.382
 4230.00    0.82864   0.97655    0.380
 4231.00    0.81471   0.98204    0.373
 4232.00    0.79932   0.98767    0.371
 4233.00    0.78182   0.99417    0.376
 4234.00    0.77816   0.99879    0.378
 4235.00    0.79209   1.00072    0.378
 4236.00    0.79821   1.00238    0.375
 4237.00    0.79558   1.00292    0.367
 4238.00    0.78858   1.00199    0.364
 4239.00    0.77727   1.00302    0.366
 4240.00    0.79057   1.00569    0.368
 4241.00    0.82530   1.00794    0.372
 4242.00    0.83889   1.01154    0.373
 4243.00    0.83629   1.01679    0.373
 4244.00    0.86092   1.02039    0.381
 4245.00    0.90389   1.02211    0.397
 4246.00    0.91116   1.02398    0.404
 4247.00    0.89736   1.02411    0.407
 4248.00    0.90382   1.02056    0.419
 4249.00    0.92071   1.01591    0.436
 4250.00    0.92926   1.01241    0.439
 4251.00    0.93409   1.00839    0.435
 4252.00    0.92012   1.00316    0.429
 4253.00    0.89894   1.00007    0.422
 4254.00    0.90441   0.99999    0.414
 4255.00    0.91857   0.99959    0.405
 4256.00    0.89398   0.99831    0.404
 4257.00    0.85883   0.99853    0.405
 4258.00    0.87755   0.99991    0.410
 4259.00    0.90834   1.00050    0.415
 4260.00    0.92713   1.00065    0.413
 4261.00    0.94377   1.00183    0.410
 4262.00    0.94680   1.00369    0.413
 4263.00    0.94797   1.00634    0.416
 4264.00    0.90884   1.01049    0.409
 4265.00    0.86578   1.01402    0.401
 4266.00    0.85835   1.01563    0.404
 4267.00    0.85309   1.01634    0.408
 4268.00    0.79936   1.01482    0.402
 4269.00    0.74457   1.00893    0.396
 4270.00    0.73824   1.00135    0.389
 4271.00    0.73210   0.99450    0.383
 4272.00    0.73114   0.98661    0.389
 4273.00    0.73170   0.97836    0.394
 4274.00    0.75314   0.97424    0.396
 4275.00    0.77757   0.97452    0.398
 4276.00    0.82923   0.97585    0.405
 4277.00    0.87455   0.97895    0.412
 4278.00    0.87768   0.98514    0.407
 4279.00    0.88099   0.99192    0.404
 4280.00    0.88521   0.99724    0.407
 4281.00    0.88745   1.00101    0.409
 4282.00    0.88143   1.00315   -2.000
 4283.00    0.88263   1.00379   -2.000
 4284.00    0.90879   1.00261   -2.000
 4285.00    0.93140   1.00014   -2.000
 4286.00    0.94366   0.99708   -2.000
 4287.00    0.94546   0.99254   -2.000
 4288.00    0.92131   0.98759   -2.000
 4289.00    0.91718   0.98384   -2.000
 4290.00    0.95586   0.98045   -2.000
 4291.00    0.98336   0.97688   -2.000
 4292.00    0.99013   0.97451   -2.000
 4293.00    0.98932   0.97420   -2.000
 4294.00    0.97619   0.97460   -2.000
 4295.00    0.95074   0.97405   -2.000
 4296.00    0.90776   0.97201   -2.000
 4297.00    0.88530   0.96897   -2.000
 4298.00    0.88853   0.96448    0.403
 4299.00    0.89535   0.95803    0.404
 4300.00    0.90613   0.95036    0.410
 4301.00    0.90028   0.94203    0.409
 4302.00    0.87825   0.93484    0.400
 4303.00    0.86317   0.92943    0.402
 4304.00    0.85405   0.92426    0.414
 4305.00    0.86764   0.91997    0.417
 4306.00    0.89837   0.91777    0.413
 4307.00    0.92252   0.91636    0.412
 4308.00    0.94229   0.91559    0.414
 4309.00    0.92794   0.91634    0.410
 4310.00    0.89373   0.91892    0.404
 4311.00    0.88934   0.92428    0.398
 4312.00    0.90007   0.93235    0.393
 4313.00    0.92307   0.94276    0.389
 4314.00    0.95146   0.95605    0.386
 4315.00    0.94712   0.97106    0.385
 4316.00    0.93046   0.98572    0.385
 4317.00    0.94787   1.00016    0.388
 4318.00    0.97618   1.01360    0.391
 4319.00    0.97373   1.02281    0.391
 4320.00    0.96306   1.02764    0.390
 4321.00    0.96797   1.02898    0.394
 4322.00    0.97630   1.02565    0.400
 4323.00    0.97396   1.01819    0.404
 4324.00    0.96977   1.00935    0.409
 4325.00    0.95681   1.00033    0.404
 4326.00    0.94269   0.99213    0.398
 4327.00    0.93714   0.98646    0.393
 4328.00    0.93239   0.98419    0.389
 4329.00    0.95916   0.98571    0.392
 4330.00    0.98773   0.98946    0.000
 4331.00    0.98450   0.99296    0.000
 4332.00    0.98070   0.99469    0.000
 4333.00    0.99579   0.99406    0.000
 4334.00    1.01026   0.98893    0.000
 4335.00    1.00955   0.97648    0.000
 4336.00    1.00928   0.95835    0.000
 4337.00    1.01476   0.93654    0.000
 4338.00    1.01737   0.90950    0.000
 4339.00    0.99502   0.88008    0.000
 4340.00    0.97359   0.85568    0.000
 4341.00    0.95810   0.83722    0.000
 4342.00    0.94747   0.82434    0.000
 4343.00    0.96140   0.82394    0.000
 4344.00    0.97348   0.83643    0.000
 4345.00    0.97798   0.85388    0.000
 4346.00    0.98209   0.87566    0.000
 4347.00    0.98488   0.90290    0.000
 4348.00    0.99466   0.92838    0.000
 4349.00    1.02442   0.94761    0.000
 4350.00    1.04307   0.96381    0.000
 4351.00    1.03463   0.97760    0.413
 4352.00    1.03163   0.98603    0.409
 4353.00    1.04007   0.99014    0.411
 4354.00    1.03916   0.99479    0.410
 4355.00    1.02119   1.00091    0.405
 4356.00    1.00073   1.00559    0.401
 4357.00    0.97628   1.00990    0.399
 4358.00    0.97019   1.01672    0.397
 4359.00    0.98981   1.02424    0.395
 4360.00    1.01185   1.02975    0.398
 4361.00    1.03685   1.03452    0.404
 4362.00    1.04232   1.04040    0.408
 4363.00    1.02654   1.04594    0.407
 4364.00    1.00708   1.04921    0.403
 4365.00    0.98410   1.05105    0.396
 4366.00    0.98262   1.05280    0.397
 4367.00    0.99935   1.05324    0.405
 4368.00    1.01235   1.05066    0.412
 4369.00    1.02258   1.04662    0.417
 4370.00    1.02725   1.04311    0.419
 4371.00    1.02830   1.03911    0.418
 4372.00    1.01798   1.03372    0.416
 4373.00    1.00116   1.02892    0.414
 4374.00    0.97839   1.02572    0.408
 4375.00    0.95264   1.02273    0.401
 4376.00    0.96296   1.01982    0.403
 4377.00    0.98884   1.01789    0.409
 4378.00    0.99850   1.01664    0.415
 4379.00    1.00216   1.01505    0.422
 4380.00    0.99785   1.01202    0.425
 4381.00    0.99104   1.00666    0.428
 4382.00    0.96926   0.99954    0.423
 4383.00    0.94356   0.99179    0.417
 4384.00    0.95551   0.98295    0.419
 4385.00    0.97551   0.97340    0.422
 4386.00    0.96774   0.96670    0.417
 4387.00    0.95527   0.96457    0.410
 4388.00    0.97731   0.96471    0.406
 4389.00    1.00377   0.96636    0.402
 4390.00    1.00084   0.97177    0.398
 4391.00    0.99530   0.98007    0.394
 4392.00    1.00950   0.98737    0.398
 4393.00    1.02476   0.99413    0.403
 4394.00    1.02816   1.00237    0.397
 4395.00    1.03133   1.00999    0.390
 4396.00    1.03573   1.01553    0.392
 4397.00    1.03911   1.02059    0.394
 4398.00    1.02004   1.02516    0.400
 4399.00    1.00145   1.02733    0.407
 4400.00    0.98879   1.02750    0.405
 4401.00    0.97702   1.02678    0.404
 4402.00    0.97276   1.02338    0.403
 4403.00    0.97113   1.01828    0.401
 4404.00    0.98595   1.01461    0.403
 4405.00    0.99877   1.01005    0.405
 4406.00    1.00172   1.00447    0.410
 4407.00    1.00325   1.00323    0.414
 4408.00    0.99908   1.00564    0.412
 4409.00    0.99882   1.00711    0.409
 4410.00    1.01146   1.01010    0.403
 4411.00    1.02244   1.01731    0.398
 4412.00    1.02875   1.02352    0.398
 4413.00    1.03410   1.02618    0.399
 4414.00    1.03717   1.02941    0.401
 4415.00    1.04545   1.03243    0.402
 4416.00    1.06452   1.03171    0.402
 4417.00    1.07270   1.03091    0.404
 4418.00    1.06126   1.03279    0.410
 4419.00    1.05247   1.03392    0.410
 4420.00    1.04781   1.03454    0.401
 4421.00    1.04422   1.03744    0.394
 4422.00    1.04210   1.04048    0.387
 4423.00    1.04029   1.04175    0.387
 4424.00    1.03888   1.04235    0.394
 4425.00    1.02948   1.04287    0.397
 4426.00    1.01154   1.04303    0.394
 4427.00    1.00930   1.04237    0.391
 4428.00    1.02190   1.04125    0.388
 4429.00    1.03509   1.04049    0.390
 4430.00    1.04876   1.03994    0.396
 4431.00    1.04945   1.03824    0.398
 4432.00    1.04061   1.03525    0.397
 4433.00    1.03819   1.03333    0.394
 4434.00    1.03990   1.03206    0.390
 4435.00    1.04301   1.02972    0.390
 4436.00    1.04692   1.02855    0.394
 4437.00    1.03063   1.02963    0.396
 4438.00    1.00443   1.03130    0.397
 4439.00    1.02145   1.03303    0.405
 4440.00    1.05681   1.03520    0.416
 4441.00    1.08337   1.03766    0.418
 4442.00    1.10674   1.03925    0.417
 4443.00    1.09367   1.04051    0.411
 4444.00    1.06939   1.04231    0.403
 4445.00    1.07075   1.04363    0.405
 4446.00    1.07868   1.04558    0.409
 4447.00    1.07523   1.04925    0.407
 4448.00    1.06943   1.05200    0.403
 4449.00    1.05575   1.05364    0.398
 4450.00    1.04078   1.05593    0.392
 4451.00    1.04026   1.05605    0.391
 4452.00    1.04151   1.05257    0.390
 4453.00    1.03487   1.04849    0.385
 4454.00    1.02755   1.04369    0.379
 4455.00    1.01199   1.03688    0.383
 4456.00    0.99603   1.02951    0.388
 4457.00    0.98192   1.02284    0.386
 4458.00    0.96817   1.01777    0.385
 4459.00    0.97521   1.01345    0.381
 4460.00    0.98169   1.00947    0.378
 4461.00    0.97710   1.00855    0.000
 4462.00    0.97410   1.00992    0.000
 4463.00    0.98976   1.01046    0.000
 4464.00    1.00419   1.01206    0.000
 4465.00    1.00851   1.01590    0.000
 4466.00    1.01606   1.01783    0.000
 4467.00    1.04331   1.01802    0.000
 4468.00    1.06369   1.01927    0.000
 4469.00    1.05110   1.01911    0.000
 4470.00    1.04447   1.01723    0.000
 4471.00    1.06108   1.01717    0.000
 4472.00    1.07149   1.01887    0.000
 4473.00    1.06170   1.02120    0.000
 4474.00    1.05800   1.02637    0.000
 4475.00    1.07109   1.03430    0.000
 4476.00    1.07478   1.04153    0.000
 4477.00    1.05634   1.04824    0.000
 4478.00    1.03798   1.05479    0.000
 4479.00    1.01979   1.05856    0.000
 4480.00    1.00485   1.05928    0.000
 4481.00    0.99566   1.05891    0.000
 4482.00    1.00529   1.05809    0.372
 4483.00    1.04413   1.05715    0.381
 4484.00    1.06502   1.05728    0.386
 4485.00    1.06146   1.05887    0.385
 4486.00    1.05452   1.06096    0.384
 4487.00    1.04352   1.06322    0.381
 4488.00    1.05382   1.06535    0.381
 4489.00    1.08664   1.06600    0.384
 4490.00    1.08518   1.06511    0.382
 4491.00    1.05173   1.06357    0.377
 4492.00    1.03938   1.06134    0.377
 4493.00    1.04439   1.05889    0.379
 4494.00    1.05242   1.05727    0.382
 4495.00    1.06264   1.05630    0.384
 4496.00    1.07041   1.05602    0.386
 4497.00    1.07664   1.05756    0.387
 4498.00    1.08072   1.06038    0.387
 4499.00    1.08362   1.06353    0.385
 4500.00    1.09216   1.06801    0.386
 4501.00    1.10343   1.07400    0.389
 4502.00    1.10376   1.07993    0.388
 4503.00    1.09952   1.08533    0.386
 4504.00    1.10058   1.09131    0.384
 4505.00    1.10352   1.09705    0.383
 4506.00    1.10112   1.10059    0.383
 4507.00    1.09711   1.10313    0.382
 4508.00    1.06885   1.10519    0.375
 4509.00    1.03450   1.10489    0.367
 4510.00    1.04876   1.10286    0.371
 4511.00    1.07290   1.10044    0.377
 4512.00    1.06450   1.09687    0.381
 4513.00    1.05091   1.09220    0.384
 4514.00    1.05527   1.08795    0.388
 4515.00    1.06177   1.08416    0.392
 4516.00    1.06665   1.08024    0.392
 4517.00    1.07141   1.07772    0.392
 4518.00    1.07408   1.07686    0.389
 4519.00    1.07664   1.07599    0.386
 4520.00    1.09883   1.07571    0.388
 4521.00    1.12094   1.07601    0.389
 4522.00    1.12709   1.07515    0.391
 4523.00    1.13115   1.07300    0.392
 4524.00    1.09584   1.06914    0.384
 4525.00    1.06309   1.06361    0.378
 4526.00    1.05905   1.05716    0.383
 4527.00    1.05439   1.04918    0.386
 4528.00    1.04485   1.04110    0.379
 4529.00    1.03875   1.03447    0.375
 4530.00    1.05301   1.02852    0.380
 4531.00    1.06686   1.02434    0.385
 4532.00    1.07872   1.02244    0.394
 4533.00    1.09040   1.02186    0.399
 4534.00    1.10136   1.02304    0.392
 4535.00    1.10428   1.02542    0.388
 4536.00    1.08160   1.02780    0.391
 4537.00    1.07162   1.03038    0.392
 4538.00    1.09597   1.03307    0.388
 4539.00    1.10614   1.03456    0.384
 4540.00    1.08344   1.03461    0.381
 4541.00    1.07689   1.03474    0.380
 4542.00    1.10270   1.03437    0.386
 4543.00    1.10840   1.03286    0.389
 4544.00    1.07899   1.03293    0.387
 4545.00    1.06386   1.03427    0.388
 4546.00    1.07054   1.03506    0.393
 4547.00    1.07721   1.03695    0.392
 4548.00    1.08385   1.03980    0.383
 4549.00    1.08454   1.04197    0.379
 4550.00    1.07819   1.04351    0.000
 4551.00    1.08108   1.04480    0.000
 4552.00    1.09360   1.04657    0.000
 4553.00    1.09152   1.04811    0.000
 4554.00    1.07602   1.04918    0.000
 4555.00    1.08514   1.05215    0.000
 4556.00    1.11422   1.05621    0.000
 4557.00    1.12186   1.06001    0.000
 4558.00    1.11421   1.06529    0.000
 4559.00    1.10596   1.07107    0.000
 4560.00    1.09733   1.07574    0.000
 4561.00    1.09064   1.07982    0.000
 4562.00    1.08501   1.08255    0.000
 4563.00    1.09284   1.08359    0.000
 4564.00    1.10708   1.08352    0.000
 4565.00    1.11855   1.08239    0.000
 4566.00    1.12888   1.08096    0.000
 4567.00    1.11625   1.07970    0.000
 4568.00    1.09557   1.07917    0.000
 4569.00    1.10027   1.07933    0.000
 4570.00    1.11247   1.07933    0.000
 4571.00    1.11070   1.08051    0.000
 4572.00    1.10552   1.08228    0.000
 4573.00    1.10443   1.08244    0.000
 4574.00    1.10416   1.08334    0.000
 4575.00    1.09490   1.08491    0.000
 4576.00    1.08426   1.08409    0.000
 4577.00    1.09854   1.08294    0.000
 4578.00    1.11566   1.08201    0.000
 4579.00    1.10447   1.07897    0.000
 4580.00    1.09111   1.07526    0.000
 4581.00    1.10841   1.07184    0.000
 4582.00    1.12699   1.06796    0.000
 4583.00    1.12587   1.06490    0.000
 4584.00    1.12439   1.06305    0.000
 4585.00    1.11509   1.06190    0.000
 4586.00    1.10769   1.06231    0.000
 4587.00    1.13339   1.06384    0.000
 4588.00    1.15516   1.06550    0.000
 4589.00    1.13488   1.06751    0.000
 4590.00    1.11969   1.06924    0.000
 4591.00    1.14294   1.07002    0.000
 4592.00    1.16004   1.06995    0.000
 4593.00    1.14187   1.06876    0.000
 4594.00    1.12296   1.06692    0.000
 4595.00    1.10072   1.06497    0.000
 4596.00    1.08587   1.06257    0.000
 4597.00    1.09863   1.06069    0.000
 4598.00    1.10525   1.05985    0.000
 4599.00    1.09262   1.05901    0.000
 4600.00    1.08447   1.05908    0.000
 4601.00    1.08818   1.06015    0.000
 4602.00    1.09790   1.06096    0.000
 4603.00    1.12132   1.06264    0.000
 4604.00    1.13818   1.06525    0.000
 4605.00    1.14209   1.06779    0.000
 4606.00    1.13908   1.07121    0.000
 4607.00    1.12417   1.07555    0.000
 4608.00    1.12290   1.07987    0.000
 4609.00    1.14217   1.08417    0.000
 4610.00    1.14156   1.08863    0.000
 4611.00    1.11464   1.09225    0.000
 4612.00    1.11353   1.09455    0.000
 4613.00    1.14248   1.09684    0.000
 4614.00    1.15512   1.09822    0.000
 4615.00    1.15099   1.09826    0.000
 4616.00    1.13635   1.09929    0.000
 4617.00    1.11219   1.09991    0.000
 4618.00    1.10988   1.09949    0.000
 4619.00    1.12501   1.10065    0.000
 4620.00    1.13635   1.10139    0.000
 4621.00    1.14503   1.10093    0.000
 4622.00    1.14338   1.10206    0.000
 4623.00    1.13536   1.10279    0.000
 4624.00    1.13278   1.10204    0.000
 4625.00    1.13315   1.10233    0.000
 4626.00    1.12657   1.10247    0.000
 4627.00    1.11674   1.10103    0.000
 4628.00    1.12824   1.09978    0.000
 4629.00    1.14833   1.09878    0.000
 4630.00    1.14742   1.09677    0.000
 4631.00    1.13928   1.09432    0.000
 4632.00    1.13306   1.09223    0.000
 4633.00    1.12741   1.08989    0.000
 4634.00    1.12013   1.08683    0.000
 4635.00    1.11246   1.08377    0.000
 4636.00    1.12309   1.08074    0.000
 4637.00    1.13725   1.07740    0.000
 4638.00    1.11381   1.07385    0.000
 4639.00    1.08472   1.07030    0.000
 4640.00    1.08080   1.06726    0.000
 4641.00    1.07966   1.06401    0.000
 4642.00    1.10258   1.06025    0.000
 4643.00    1.12725   1.05705    0.000
 4644.00    1.11412   1.05316    0.000
 4645.00    1.09956   1.04790    0.000
 4646.00    1.12605   1.04320    0.000
 4647.00    1.15160   1.03846    0.000
 4648.00    1.13495   1.03339    0.000
 4649.00    1.12040   1.03027    0.000
 4650.00    1.14021   1.02918    0.000
 4651.00    1.15676   1.02959    0.000
 4652.00    1.13999   1.03209    0.000
 4653.00    1.12305   1.03634    0.000
 4654.00    1.10483   1.04195    0.000
 4655.00    1.08908   1.04786    0.000
 4656.00    1.08716   1.05374    0.000
 4657.00    1.09178   1.06042    0.000
 4658.00    1.12553   1.06629    0.000
 4659.00    1.15216   1.07100    0.000
 4660.00    1.15267   1.07538    0.000
 4661.00    1.15525   1.07774    0.000
 4662.00    1.16417   1.07749    0.000
 4663.00    1.16053   1.07535    0.000
 4664.00    1.12412   1.07083    0.000
 4665.00    1.09986   1.06409    0.000
 4666.00    1.10283   1.05676    0.000
 4667.00    1.11061   1.04981    0.000
 4668.00    1.12774   1.04356    0.000
 4669.00    1.12365   1.03955    0.000
 4670.00    1.08361   1.03852    0.000
 4671.00    1.07926   1.03945    0.000
 4672.00    1.12786   1.04250    0.000
 4673.00    1.15055   1.04733    0.000
 4674.00    1.13944   1.05216    0.000
 4675.00    1.13797   1.05675    0.000
 4676.00    1.14755   1.06059    0.000
 4677.00    1.14070   1.06270    0.000
 4678.00    1.11720   1.06344    0.000
 4679.00    1.10289   1.06262    0.000
 4680.00    1.09679   1.05995    0.000
 4681.00    1.10897   1.05630    0.000
 4682.00    1.13552   1.05197    0.000
 4683.00    1.13482   1.04662    0.000
 4684.00    1.11523   1.04136    0.000
 4685.00    1.10339   1.03737    0.000
 4686.00    1.09627   1.03369    0.000
 4687.00    1.09690   1.03123    0.000
 4688.00    1.10166   1.03172    0.000
 4689.00    1.10220   1.03325    0.000
 4690.00    1.10080   1.03589    0.000
 4691.00    1.09864   1.04098    0.000
 4692.00    1.09617   1.04614    0.000
 4693.00    1.11639   1.05090    0.000
 4694.00    1.14427   1.05607    0.000
 4695.00    1.14222   1.05995    0.000
 4696.00    1.13168   1.06223    0.000
 4697.00    1.13163   1.06340    0.000
 4698.00    1.13404   1.06302    0.000
 4699.00    1.11414   1.06115    0.000
 4700.00    1.09005   1.05826    0.000
 4701.00    1.11282   1.05502    0.000
 4702.00    1.14240   1.05166    0.000
 4703.00    1.13723   1.04857    0.000
 4704.00    1.12839   1.04639    0.000
 4705.00    1.12493   1.04493    0.000
 4706.00    1.12185   1.04431    0.000
 4707.00    1.11331   1.04443    0.000
 4708.00    1.10458   1.04478    0.000
 4709.00    1.12959   1.04576    0.000
 4710.00    1.15345   1.04699    0.000
 4711.00    1.13845   1.04790    0.000
 4712.00    1.12435   1.04967    0.000
 4713.00    1.12409   1.05182    0.000
 4714.00    1.12277   1.05399    0.000
 4715.00    1.11100   1.05772    0.000
 4716.00    1.10049   1.06225    0.000
 4717.00    1.09889   1.06739    0.000
 4718.00    1.10169   1.07389    0.000
 4719.00    1.12843   1.08052    0.000
 4720.00    1.14846   1.08695    0.000
 4721.00    1.13917   1.09297    0.000
 4722.00    1.13173   1.09746    0.000
 4723.00    1.13093   1.10030    0.000
 4724.00    1.13330   1.10130    0.000
 4725.00    1.14521   1.10019    0.000
 4726.00    1.14610   1.09704    0.000
 4727.00    1.11876   1.09245    0.000
 4728.00    1.10454   1.08693    0.000
 4729.00    1.11924   1.08063    0.000
 4730.00    1.13310   1.07497    0.000
 4731.00    1.14534   1.07059    0.000
 4732.00    1.14773   1.06708    0.000
 4733.00    1.13372   1.06576    0.000
 4734.00    1.13017   1.06653    0.000
 4735.00    1.14194   1.06768    0.000
 4736.00    1.14777   1.07037    0.000
 4737.00    1.14594   1.07410    0.000
 4738.00    1.14787   1.07679    0.000
 4739.00    1.15404   1.08021    0.000
 4740.00    1.15592   1.08378    0.000
 4741.00    1.15352   1.08595    0.000
 4742.00    1.14632   1.08882    0.000
 4743.00    1.13491   1.09157    0.000
 4744.00    1.13476   1.09328    0.000
 4745.00    1.14336   1.09562    0.000
 4746.00    1.13894   1.09761    0.000
 4747.00    1.12565   1.09890    0.000
 4748.00    1.12115   1.10034    0.000
 4749.00    1.12191   1.10087    0.000
 4750.00    1.13539   1.10066    0.000
 4751.00    1.15550   1.10014    0.000
 4752.00    1.15665   1.09849    0.000
 4753.00    1.14922   1.09618    0.000
 4754.00    1.13606   1.09392    0.000
 4755.00    1.12068   1.09126    0.000
 4756.00    1.10974   1.08864    0.000
 4757.00    1.10027   1.08656    0.000
 4758.00    1.10632   1.08463    0.000
 4759.00    1.11669   1.08293    0.000
 4760.00    1.13548   1.08111    0.000
 4761.00    1.15619   1.07897    0.363
 4762.00    1.13962   1.07657    0.363
 4763.00    1.11622   1.07347    0.362
 4764.00    1.13403   1.07025    0.365
 4765.00    1.15764   1.06745    0.368
 4766.00    1.14233   1.06503    0.364
 4767.00    1.12307   1.06375    0.360
 4768.00    1.12631   1.06426    0.358
 4769.00    1.13100   1.06598    0.355
 4770.00    1.11361   1.06887    0.354
 4771.00    1.09558   1.07335    0.353
 4772.00    1.09864   1.07810    0.353
 4773.00    1.10257   1.08299    0.353
 4774.00    1.13201   1.08827    0.355
 4775.00    1.15693   1.09279    0.356
 4776.00    1.11668   1.09682    0.352
 4777.00    1.07744   1.10024    0.349
 4778.00    1.04774   1.10253    0.344
 4779.00    1.01532   1.10378    0.338
 4780.00    0.96428   1.10373    0.331
 4781.00    0.92139   1.10259    0.325
 4782.00    0.92161   1.10031    0.325
 4783.00    0.91987   1.09724    0.324
 4784.00    0.90981   1.09360    0.325
 4785.00    0.91063   1.08974    0.326
 4786.00    0.94968   1.08679    0.329
 4787.00    0.98423   1.08379    0.334
 4788.00    1.00551   1.08173    0.340
 4789.00    1.02343   1.08210    0.344
 4790.00    1.03287   1.08247    0.346
 4791.00    1.04484   1.08416    0.347
 4792.00    1.06227   1.08835    0.345
 4793.00    1.08003   1.09199    0.345
 4794.00    1.09842   1.09601    0.346
 4795.00    1.11698   1.10088    0.346
 4796.00    1.13580   1.10420    0.346
 4797.00    1.13939   1.10643    0.345
 4798.00    1.12102   1.10806    0.344
 4799.00    1.10868   1.10821    0.343
 4800.00    1.10399   1.10731    0.339
 4801.00    1.10048   1.10617    0.339
 4802.00    1.09828   1.10490    0.341
 4803.00    1.11026   1.10332    0.343
 4804.00    1.13622   1.10179    0.344
 4805.00    1.14105   1.10069    0.344
 4806.00    1.12755   1.09917    0.344
 4807.00    1.11170   1.09761    0.344
 4808.00    1.09407   1.09651    0.344
 4809.00    1.10576   1.09513    0.343
 4810.00    1.13717   1.09459    0.341
 4811.00    1.14795   1.09476    0.341
 4812.00    1.14657   1.09505    0.342
 4813.00    1.13516   1.09667    0.343
 4814.00    1.11859   1.09888    0.342
 4815.00    1.12802   1.10118    0.344
 4816.00    1.14903   1.10393    0.346
 4817.00    1.15526   1.10666    0.347
 4818.00    1.15583   1.10913    0.347
 4819.00    1.14739   1.11060    0.347
 4820.00    1.13602   1.11141    0.347
 4821.00    1.12764   1.11141    0.346
 4822.00    1.12008   1.10971    0.345
 4823.00    1.13203   1.10773    0.346
 4824.00    1.14834   1.10492    0.347
 4825.00    1.14911   1.10139    0.350
 4826.00    1.14711   1.09899    0.353
 4827.00    1.14939   1.09606    0.351
 4828.00    1.15225   1.09340    0.349
 4829.00    1.15535   1.09246    0.349
 4830.00    1.15847   1.09089    0.349
 4831.00    1.15465   1.08962    0.349
 4832.00    1.15041   1.08934    0.349
 4833.00    1.15530   1.08865    0.347
 4834.00    1.16037   1.08848    0.345
 4835.00    1.15499   1.08826    0.347
 4836.00    1.14994   1.08747    0.348
 4837.00    1.15341   1.08725    0.347
 4838.00    1.15565   1.08667    0.346
 4839.00    1.14122   1.08505    0.345
 4840.00    1.12714   1.08348    0.343
 4841.00    1.11619   1.08212    0.340
 4842.00    1.10726   1.08042    0.337
 4843.00    1.11176   1.07889    0.338
 4844.00    1.11611   1.07757    0.339
 4845.00    1.11971   1.07681    0.342
 4846.00    1.12590   1.07643    0.346
 4847.00    1.14288   1.07489    0.346
 4848.00    1.15456   1.07339    0.000
 4849.00    1.14795   1.07178    0.000
 4850.00    1.14353   1.06775    0.000
 4851.00    1.14546   1.06254    0.000
 4852.00    1.14682   1.05588    0.000
 4853.00    1.14678   1.04626    0.000
 4854.00    1.13896   1.03452    0.000
 4855.00    1.11456   1.01990    0.000
 4856.00    1.09327   1.00164    0.000
 4857.00    1.07777   0.98135    0.000
 4858.00    1.07566   0.95967    0.000
 4859.00    1.09523   0.93616    0.000
 4860.00    1.09998   0.91363    0.000
 4861.00    1.08369   0.89521    0.000
 4862.00    1.07852   0.88036    0.000
 4863.00    1.08722   0.87164    0.000
 4864.00    1.09372   0.87138    0.000
 4865.00    1.09779   0.87680    0.000
 4866.00    1.10141   0.88868    0.000
 4867.00    1.10461   0.90599    0.000
 4868.00    1.10403   0.92403    0.000
 4869.00    1.10021   0.94270    0.000
 4870.00    1.10394   0.96083    0.000
 4871.00    1.11335   0.97597    0.000
 4872.00    1.12537   0.98850    0.000
 4873.00    1.13910   0.99969    0.000
 4874.00    1.14837   1.00937    0.000
 4875.00    1.15503   1.01767    0.357
 4876.00    1.14961   1.02613    0.355
 4877.00    1.13806   1.03481    0.353
 4878.00    1.13585   1.04295    0.351
 4879.00    1.13771   1.04997    0.348
 4880.00    1.13833   1.05637    0.348
 4881.00    1.13846   1.06164    0.348
 4882.00    1.15125   1.06397    0.349
 4883.00    1.16807   1.06519    0.350
 4884.00    1.17081   1.06521    0.354
 4885.00    1.16979   1.06237    0.358
 4886.00    1.15891   1.05917    0.355
 4887.00    1.14587   1.05616    0.351
 4888.00    1.13420   1.05299    0.353
 4889.00    1.12276   1.05042    0.356
 4890.00    1.13588   1.04925    0.357
 4891.00    1.15223   1.05081    0.357
 4892.00    1.15430   1.05368    0.354
 4893.00    1.15506   1.05880    0.350
 4894.00    1.16702   1.06660    0.351
 4895.00    1.17961   1.07390    0.352
 4896.00    1.14795   1.08284    0.353
 4897.00    1.11570   1.09218    0.355
 4898.00    1.12949   1.09840    0.354
 4899.00    1.14271   1.10367    0.353
 4900.00    1.14254   1.10725    0.354
 4901.00    1.14247   1.10809    0.355
 4902.00    1.14374   1.10829    0.350
 4903.00    1.14389   1.10708    0.347
 4904.00    1.13440   1.10464    0.350
 4905.00    1.12509   1.10324    0.353
 4906.00    1.11692   1.10140    0.352
 4907.00    1.11227   1.09874    0.351
 4908.00    1.12531   1.09660    0.354
 4909.00    1.13973   1.09441    0.357
 4910.00    1.15976   1.09213    0.360
 4911.00    1.16983   1.08955    0.361
 4912.00    1.14624   1.08715    0.358
 4913.00    1.13686   1.08531    0.357
 4914.00    1.16792   1.08289    0.361
 4915.00    1.18045   1.08024    0.361
 4916.00    1.14791   1.07737    0.355
 4917.00    1.12772   1.07272    0.350
 4918.00    1.13344   1.06672    0.351
 4919.00    1.13256   1.05998    0.351
 4920.00    1.11963   1.05229    0.349
 4921.00    1.11133   1.04534    0.349
 4922.00    1.11044   1.03993    0.351
 4923.00    1.11528   1.03676    0.353
 4924.00    1.12815   1.03707    0.354
 4925.00    1.14448   1.04072    0.355
 4926.00    1.16507   1.04735    0.356
 4927.00    1.16606   1.05638    0.356
 4928.00    1.14577   1.06592    0.355
 4929.00    1.13385   1.07473    0.354
 4930.00    1.12994   1.08404    0.352
 4931.00    1.14225   1.09099    0.350
 4932.00    1.16827   1.09430    0.348
 4933.00    1.16207   1.09653    0.346
 4934.00    1.13193   1.09564    0.344
 4935.00    1.11388   1.09241    0.343
 4936.00    1.10374   1.08950    0.343
 4937.00    1.11489   1.08477    0.345
 4938.00    1.13822   1.07997    0.349
 4939.00    1.14096   1.07834    0.350
 4940.00    1.13345   1.07757    0.000
 4941.00    1.13219   1.07766    0.000
 4942.00    1.13362   1.08038    0.000
 4943.00    1.14019   1.08452    0.000
 4944.00    1.14867   1.09018    0.000
 4945.00    1.15706   1.09678    0.000
 4946.00    1.16542   1.10214    0.000
 4947.00    1.18340   1.10741    0.000
 4948.00    1.20389   1.11252    0.000
 4949.00    1.18965   1.11547    0.000
 4950.00    1.16801   1.11714    0.000
 4951.00    1.18391   1.11833    0.000
 4952.00    1.20613   1.11781    0.000
 4953.00    1.20046   1.11484    0.000
 4954.00    1.19126   1.11089    0.000
 4955.00    1.15702   1.10685    0.000
 4956.00    1.12056   1.10085    0.000
 4957.00    1.12847   1.09476    0.000
 4958.00    1.13873   1.08967    0.000
 4959.00    1.14816   1.08595    0.000
 4960.00    1.15732   1.08461    0.000
 4961.00    1.14645   1.08250    0.000
 4962.00    1.13613   1.08260    0.000
 4963.00    1.13771   1.08596    0.000
 4964.00    1.13937   1.08768    0.000
 4965.00    1.14178   1.08865    0.000
 4966.00    1.14430   1.08908    0.000
 4967.00    1.14763   1.08918    0.000
 4968.00    1.14970   1.08962    0.000
 4969.00    1.14399   1.08855    0.000
 4970.00    1.13836   1.08849    0.000
 4971.00    1.13314   1.09001    0.000
 4972.00    1.13059   1.09106    0.000
 4973.00    1.13868   1.09321    0.000
 4974.00    1.14725   1.09477    0.000
 4975.00    1.15740   1.09558    0.000
 4976.00    1.16049   1.09621    0.000
 4977.00    1.14387   1.09420    0.000
 4978.00    1.13662   1.09065    0.000
 4979.00    1.15182   1.08559    0.000
 4980.00    1.16443   1.07884    0.000
 4981.00    1.17172   1.07161    0.000
 4982.00    1.16930   1.06370    0.000
 4983.00    1.14947   1.05673    0.000
 4984.00    1.13669   1.05165    0.000
 4985.00    1.13499   1.04846    0.000
 4986.00    1.13189   1.04700    0.000
 4987.00    1.12686   1.04748    0.000
 4988.00    1.12820   1.05131    0.000
 4989.00    1.13728   1.05585    0.000
 4990.00    1.14216   1.06000    0.000
 4991.00    1.14255   1.06580    0.000
 4992.00    1.13894   1.06993    0.000
 4993.00    1.13155   1.07295    0.000
 4994.00    1.13148   1.07581    0.000
 4995.00    1.13748   1.07611    0.000
 4996.00    1.13779   1.07675    0.000
 4997.00    1.13393   1.07617    0.000
 4998.00    1.13338   1.07293    0.000
 4999.00    1.13496   1.07029    0.000
 5000.00    1.13939   1.06620    0.000
 5001.00    1.14541   1.06066    0.000
 5002.00    1.15084   1.05562    0.000
 5003.00    1.15598   1.04985    0.000
 5004.00    1.16222   1.04466    0.000
 5005.00    1.16893   1.04043    0.000
 5006.00    1.16414   1.03670    0.000
 5007.00    1.15518   1.03461    0.000
 5008.00    1.14483   1.03315    0.000
 5009.00    1.13405   1.03203    0.000
 5010.00    1.13938   1.03079    0.000
 5011.00    1.14884   1.02949    0.000
 5012.00    1.14662   1.02889    0.000
 5013.00    1.14197   1.02646    0.000
 5014.00    1.13143   1.02301    0.000
 5015.00    1.11991   1.02045    0.000
 5016.00    1.11349   1.01728    0.000
 5017.00    1.10770   1.01541    0.000
 5018.00    1.12009   1.01461    0.000
 5019.00    1.13401   1.01481    0.000
 5020.00    1.12488   1.01755    0.000
 5021.00    1.11462   1.02049    0.000
 5022.00    1.13438   1.02405    0.000
 5023.00    1.15423   1.02846    0.000
 5024.00    1.15182   1.03327    0.000
 5025.00    1.14945   1.03848    0.000
 5026.00    1.14805   1.04224    0.000
 5027.00    1.14558   1.04659    0.000
 5028.00    1.13063   1.05167    0.000
 5029.00    1.11949   1.05566    0.350
 5030.00    1.13913   1.06041    0.350
 5031.00    1.15716   1.06379    0.349
 5032.00    1.16543   1.06657    0.346
 5033.00    1.16996   1.07028    0.344
 5034.00    1.15655   1.07120    0.345
 5035.00    1.14535   1.07008    0.346
 5036.00    1.14275   1.06789    0.350
 5037.00    1.14115   1.06337    0.352
 5038.00    1.14274   1.05859    0.349
 5039.00    1.14094   1.05246    0.346
 5040.00    1.12982   1.04526    0.342
 5041.00    1.12640   1.04145    0.340
 5042.00    1.14108   1.03902    0.342
 5043.00    1.15314   1.03799    0.343
 5044.00    1.15990   1.03985    0.339
 5045.00    1.16239   1.04225    0.338
 5046.00    1.15730   1.04716    0.339
 5047.00    1.15133   1.05289    0.340
 5048.00    1.14397   1.05650    0.341
 5049.00    1.14269   1.05984    0.342
 5050.00    1.14966   1.06226    0.340
 5051.00    1.15424   1.06384    0.341
 5052.00    1.15595   1.06496    0.344
 5053.00    1.15175   1.06623    0.345
 5054.00    1.14130   1.06899    0.342
 5055.00    1.14225   1.07225    0.339
 5056.00    1.15382   1.07601    0.334
 5057.00    1.15872   1.08070    0.334
 5058.00    1.15816   1.08537    0.338
 5059.00    1.15878   1.08983    0.339
 5060.00    1.16027   1.09305    0.340
 5061.00    1.15993   1.09484    0.338
 5062.00    1.15844   1.09606    0.335
 5063.00    1.15698   1.09487    0.336
 5064.00    1.15553   1.09206    0.338
 5065.00    1.15217   1.08869    0.339
 5066.00    1.14789   1.08415    0.340
 5067.00    1.14541   1.07983    0.337
 5068.00    1.14369   1.07493    0.333
 5069.00    1.13062   1.07057    0.329
 5070.00    1.11352   1.06821    0.326
 5071.00    1.12684   1.06601    0.329
 5072.00    1.14932   1.06419    0.334
 5073.00    1.16743   1.06276    0.337
 5074.00    1.18444   1.06178    0.339
 5075.00    1.17620   1.06053    0.339
 5076.00    1.16284   1.05808    0.339
 5077.00    1.14841   1.05561    0.341
 5078.00    1.13381   1.05262    0.342
 5079.00    1.12144   1.04887    0.335
 5080.00    1.10935   1.04491    0.327
 5081.00    1.11065   1.04177    0.326
 5082.00    1.11303   1.03984    0.326
 5083.00    1.10327   1.03843    0.322
 5084.00    1.09297   1.03854    0.319
 5085.00    1.05935   1.04094    0.320
 5086.00    1.02642   1.04503    0.320
 5087.00    1.04159   1.04961    0.313
 5088.00    1.05654   1.05467    0.308
 5089.00    1.06733   1.06024    0.308
 5090.00    1.07802   1.06572    0.309
 5091.00    1.08758   1.07047    0.314
 5092.00    1.09816   1.07392    0.319
 5093.00    1.11665   1.07635    0.324
 5094.00    1.13382   1.07744    0.329
 5095.00    1.14323   1.07666    0.335
 5096.00    1.14688   1.07467    0.340
 5097.00    1.12363   1.07166    0.335
 5098.00    1.10219   1.06751    0.331
 5099.00    1.08766   1.06337    0.327
 5100.00    1.07867   1.05937    0.324
 5101.00    1.08727   1.05629    0.325
 5102.00    1.09165   1.05428    0.326
 5103.00    1.08466   1.05240    0.326
 5104.00    1.08218   1.05180    0.328
 5105.00    1.09011   1.05202    0.336
 5106.00    1.10230   1.05172    0.340
 5107.00    1.12297   1.05158    0.338
 5108.00    1.13655   1.05117    0.337
 5109.00    1.13775   1.05072    0.334
 5110.00    1.13093   1.05164    0.332
 5111.00    1.11186   1.05232    0.332
 5112.00    1.10360   1.05390    0.334
 5113.00    1.10983   1.05722    0.339
 5114.00    1.12183   1.06018    0.342
 5115.00    1.14064   1.06442    0.344
 5116.00    1.15374   1.06882    0.345
 5117.00    1.16091   1.07196    0.347
 5118.00    1.16207   1.07495    0.348
 5119.00    1.15772   1.07583    0.349
 5120.00    1.15140   1.07491    0.349
 5121.00    1.14349   1.07294    0.349
 5122.00    1.13999   1.06852    0.346
 5123.00    1.13961   1.06306    0.342
 5124.00    1.12819   1.05683    0.341
 5125.00    1.10986   1.05015    0.343
 5126.00    1.10669   1.04460    0.341
 5127.00    1.11180   1.03959    0.338
 5128.00    1.10941   1.03581    0.338
 5129.00    1.10346   1.03401    0.340
 5130.00    1.12452   1.03362    0.342
 5131.00    1.15664   1.03475    0.345
 5132.00    1.16435   1.03676    0.341
 5133.00    1.16354   1.03895    0.335
 5134.00    1.15374   1.04194    0.338
 5135.00    1.14131   1.04428    0.342
 5136.00    1.13398   1.04601    0.343
 5137.00    1.12790   1.04695    0.342
 5138.00    1.13019   1.04584    0.342
 5139.00    1.13413   1.04526    0.341
 5140.00    1.13361   1.04360    0.338
 5141.00    1.13241   1.04067    0.334
 5142.00    1.12336   1.03868    0.335
 5143.00    1.11342   1.03562    0.337
 5144.00    1.10432   1.03359    0.337
 5145.00    1.09529   1.03271    0.337
 5146.00    1.10424   1.03061    0.339
 5147.00    1.11394   1.02941    0.341
 5148.00    1.11487   1.02916    0.338
 5149.00    1.11593   1.02862    0.335
 5150.00    1.12512   1.02889    0.333
 5151.00    1.13436   1.02924    0.332
 5152.00    1.14449   1.02963    0.338
 5153.00    1.15291   1.03147    0.343
 5154.00    1.14321   1.03369    0.339
 5155.00    1.13454   1.03618    0.336
 5156.00    1.13362   1.03962    0.334
 5157.00    1.13302   1.04319    0.332
 5158.00    1.13423   1.04632    0.335
 5159.00    1.13678   1.04925    0.336
 5160.00    1.14537   1.05036    0.335
 5161.00    1.15224   1.04935    0.334
 5162.00    1.15267   1.04631    0.334
 5163.00    1.15060   1.03968    0.334
 5164.00    1.14070   1.03080    0.337
 5165.00    1.13015   1.01953    0.341
 5166.00    1.11789   1.00547    0.348
 5167.00    1.10743   0.99110    0.353
 5168.00    1.10108   0.97679    0.351
 5169.00    1.09825   0.96415    0.350
 5170.00    1.10236   0.95401    0.351
 5171.00    1.10393   0.94579    0.352
 5172.00    1.10114   0.94120    0.351
 5173.00    1.09838   0.94070    0.349
 5174.00    1.09566   0.94430    0.343
 5175.00    1.10136   0.95085    0.341
 5176.00    1.11817   0.95846    0.343
 5177.00    1.12082   0.96666    0.342
 5178.00    1.10698   0.97506    0.336
 5179.00    1.08287   0.98247    0.332
 5180.00    1.04821   0.98756    0.331
 5181.00    1.03657   0.98987    0.331
 5182.00    1.04577   0.98905    0.332
 5183.00    1.04599   0.98692    0.333
 5184.00    1.03905   0.98476    0.336
 5185.00    1.04910   0.98310    0.337
 5186.00    1.07105   0.98374    0.338
 5187.00    1.08227   0.98516    0.336
 5188.00    1.08688   0.98860    0.334
 5189.00    1.09179   0.99452    0.336
 5190.00    1.09686   1.00057    0.000
 5191.00    1.10920   1.00723    0.000
 5192.00    1.12493   1.01253    0.000
 5193.00    1.12871   1.01654    0.000
 5194.00    1.12768   1.02049    0.000
 5195.00    1.13657   1.02363    0.000
 5196.00    1.14887   1.02611    0.000
 5197.00    1.14126   1.02884    0.000
 5198.00    1.12788   1.03177    0.000
 5199.00    1.14497   1.03447    0.000
 5200.00    1.16932   1.03717    0.000
 5201.00    1.15836   1.03833    0.000
 5202.00    1.14059   1.03834    0.000
 5203.00    1.13615   1.03699    0.000
 5204.00    1.13370   1.03356    0.000
 5205.00    1.13217   1.02923    0.000
 5206.00    1.13074   1.02407    0.000
 5207.00    1.12835   1.01890    0.000
 5208.00    1.12589   1.01510    0.000
 5209.00    1.13842   1.01227    0.000
 5210.00    1.15151   1.01169    0.000
 5211.00    1.14231   1.01379    0.335
 5212.00    1.13333   1.01736    0.333
 5213.00    1.13631   1.02310    0.330
 5214.00    1.13980   1.02914    0.329
 5215.00    1.15176   1.03543    0.331
 5216.00    1.16208   1.04191    0.333
 5217.00    1.15576   1.04755    0.331
 5218.00    1.15029   1.05270    0.330
 5219.00    1.15105   1.05627    0.332
 5220.00    1.15223   1.05867    0.333
 5221.00    1.15576   1.05946    0.331
 5222.00    1.15611   1.05895    0.329
 5223.00    1.14231   1.05711    0.330
 5224.00    1.13567   1.05361    0.331
 5225.00    1.15522   1.04905    0.337
 5226.00    1.16911   1.04350    0.340
 5227.00    1.16565   1.03887    0.335
 5228.00    1.15981   1.03508    0.333
 5229.00    1.14782   1.03291    0.335
 5230.00    1.13779   1.03295    0.336
 5231.00    1.13217   1.03366    0.331
 5232.00    1.13185   1.03670    0.328
 5233.00    1.14179   1.04094    0.329
 5234.00    1.14764   1.04573    0.328
 5235.00    1.14657   1.05203    0.325
 5236.00    1.14877   1.05738    0.324
 5237.00    1.15583   1.06296    0.327
 5238.00    1.16036   1.06863    0.327
 5239.00    1.16159   1.07339    0.324
 5240.00    1.16093   1.07846    0.322
 5241.00    1.15808   1.08236    0.321
 5242.00    1.15343   1.08538    0.321
 5243.00    1.14694   1.08733    0.323
 5244.00    1.15118   1.08762    0.324
 5245.00    1.16498   1.08670    0.325
 5246.00    1.16796   1.08435    0.326
 5247.00    1.16243   1.08108    0.326
 5248.00    1.15273   1.07704    0.326
 5249.00    1.14013   1.07258    0.324
 5250.00    1.14069   1.06879    0.325
 5251.00    1.14922   1.06516    0.328
 5252.00    1.14349   1.06264    0.331
 5253.00    1.13019   1.06137    0.333
 5254.00    1.13275   1.06100    0.333
 5255.00    1.14260   1.06253    0.332
 5256.00    1.15247   1.06397    0.331
 5257.00    1.16235   1.06601    0.331
 5258.00    1.16123   1.06794    0.332
 5259.00    1.15640   1.06787    0.333
 5260.00    1.15174   1.06617    0.333
 5261.00    1.14713   1.06175    0.333
 5262.00    1.14197   1.05524    0.336
 5263.00    1.13669   1.04663    0.339
 5264.00    1.13886   1.03582    0.344
 5265.00    1.14242   1.02410    0.349
 5266.00    1.13593   1.01281    0.355
 5267.00    1.12798   1.00246    0.361
 5268.00    1.12305   0.99373    0.361
 5269.00    1.11844   0.98752    0.360
 5270.00    1.11556   0.98403    0.359
 5271.00    1.11279   0.98417    0.357
 5272.00    1.13830   0.98754    0.354
 5273.00    1.16475   0.99366    0.351
 5274.00    1.17144   1.00105    0.350
 5275.00    1.17733   1.00951    0.349
 5276.00    1.15853   1.01930    0.341
 5277.00    1.14103   1.02996    0.335
 5278.00    1.14322   1.04071    0.338
 5279.00    1.14621   1.04915    0.341
 5280.00    1.15696   1.05622    0.335
 5281.00    1.16558   1.06219    0.330
 5282.00    1.15928   1.06696    0.329
 5283.00    1.15344   1.07173    0.328
 5284.00    1.15010   1.07595    0.322
 5285.00    1.15070   1.07982    0.319
 5286.00    1.16840   1.08434    0.323
 5287.00    1.17876   1.08919    0.326
 5288.00    1.16285   1.09441    0.326
 5289.00    1.15325   1.09974    0.325
 5290.00    1.16261   1.10423    0.324
 5291.00    1.16886   1.10814    0.322
 5292.00    1.16716   1.11029    0.319
 5293.00    1.16603   1.11031    0.318
 5294.00    1.16618   1.10816    0.322
 5295.00    1.16806   1.10431    0.325
 5296.00    1.17325   1.09930    0.325
 5297.00    1.17074   1.09324    0.324
 5298.00    1.15541   1.08741    0.323
 5299.00    1.15225   1.08226    0.324
 5300.00    1.16684   1.07893    0.326
 5301.00    1.17909   1.07762    0.327
 5302.00    1.18835   1.07780    0.326
 5303.00    1.19241   1.08028    0.325
 5304.00    1.19061   1.08470    0.323
 5305.00    1.18374   1.09102    0.322
 5306.00    1.17184   1.09778    0.321
 5307.00    1.17241   1.10374    0.321
 5308.00    1.18395   1.10944    0.322
 5309.00    1.18409   1.11467    0.321
 5310.00    1.17540   1.11895    0.318
 5311.00    1.17051   1.12168    0.319
 5312.00    1.16821   1.12269    0.321
 5313.00    1.17202   1.12252    0.324
 5314.00    1.17947   1.12147    0.329
 5315.00    1.17447   1.11968    0.325
 5316.00    1.16299   1.11712    0.317
 5317.00    1.15438   1.11373    0.317
 5318.00    1.14708   1.10985    0.319
 5319.00    1.15972   1.10591    0.324
 5320.00    1.18010   1.10160    0.329
 5321.00    1.15955   1.09675    0.328
 5322.00    1.12546   1.09099    0.326
 5323.00    1.11588   1.08443    0.326
 5324.00    1.11310   1.07819    0.328
 5325.00    1.12151   1.07095    0.330
 5326.00    1.13247   1.06350    0.331
 5327.00    1.14908   1.05609    0.331
 5328.00    1.16673   1.04987    0.330
 5329.00    1.16625   1.04526    0.330
 5330.00    1.16323   1.04283    0.330
 5331.00    1.17270   1.04373    0.331
 5332.00    1.18344   1.04658    0.332
 5333.00    1.19382   1.05092    0.330
 5334.00    1.20419   1.05555    0.327
 5335.00    1.17280   1.06237    0.322
 5336.00    1.14025   1.06988    0.317
 5337.00    1.14199   1.07564    0.320
 5338.00    1.14392   1.07945    0.322
 5339.00    1.15119   1.08124    0.323
 5340.00    1.15798   1.08248    0.323
 5341.00    1.15798   1.08283    0.320
 5342.00    1.15668   1.08217    0.317
 5343.00    1.14334   1.08177    0.315
 5344.00    1.13354   1.08120    0.313
 5345.00    1.14784   1.08094    0.312
 5346.00    1.15701   1.08096    0.310
 5347.00    1.13900   1.08151    0.311
 5348.00    1.12551   1.08384    0.311
 5349.00    1.13122   1.08635    0.312
 5350.00    1.14005   1.08936    0.314
 5351.00    1.15978   1.09336    0.318
 5352.00    1.17385   1.09790    0.320
 5353.00    1.17125   1.10381    0.315
 5354.00    1.17154   1.10980    0.312
 5355.00    1.17913   1.11563    0.311
 5356.00    1.18372   1.12182    0.310
 5357.00    1.18187   1.12718    0.308
 5358.00    1.17723   1.13132    0.308
 5359.00    1.16736   1.13359    0.308
 5360.00    1.16405   1.13431    0.308
 5361.00    1.17148   1.13337    0.308
 5362.00    1.16811   1.13052    0.309
 5363.00    1.14921   1.12609    0.310
 5364.00    1.14159   1.12037    0.313
 5365.00    1.14826   1.11405    0.317
 5366.00    1.14700   1.10686    0.318
 5367.00    1.13690   1.09996    0.318
 5368.00    1.13218   1.09296   -2.000
 5369.00    1.13274   1.08663   -2.000
 5370.00    1.13299   1.08144   -2.000
 5371.00    1.13296   1.07725   -2.000
 5372.00    1.13778   1.07572   -2.000
 5373.00    1.14629   1.07582   -2.000
 5374.00    1.14893   1.07819   -2.000
 5375.00    1.14762   1.08154   -2.000
 5376.00    1.15339   1.08559   -2.000
 5377.00    1.16332   1.09047   -2.000
 5378.00    1.17353   1.09550   -2.000
 5379.00    1.18389   1.10068   -2.000
 5380.00    1.17882   1.10437   -2.000
 5381.00    1.16689   1.10691   -2.000
 5382.00    1.16944   1.10803   -2.000
 5383.00    1.17753   1.10829    0.324
 5384.00    1.18054   1.10800    0.323
 5385.00    1.18191   1.10707    0.322
 5386.00    1.16630   1.10566    0.319
 5387.00    1.14608   1.10344    0.314
 5388.00    1.14469   1.10076    0.312
 5389.00    1.14751   1.09740    0.310
 5390.00    1.14977   1.09362    0.312
 5391.00    1.15192   1.08953    0.315
 5392.00    1.14737   1.08505    0.317
 5393.00    1.14192   1.08033    0.319
 5394.00    1.14699   1.07579    0.318
 5395.00    1.15308   1.07115    0.316
 5396.00    1.14926   1.06679    0.321
 5397.00    1.14485   1.06339    0.326
 5398.00    1.14836   1.06032    0.321
 5399.00    1.15202   1.05811    0.316
 5400.00    1.14565   1.05633    0.311
 5401.00    1.14012   1.05458    0.306
 5402.00    1.15611   1.05239    0.309
 5403.00    1.17067   1.04938    0.311
 5404.00    1.16591   1.04621    0.314
 5405.00    1.15930   1.04252    0.315
 5406.00    1.13616   1.03858    0.310
 5407.00    1.11802   1.03476    0.307
 5408.00    1.13298   1.03163    0.309
 5409.00    1.14758   1.02882    0.311
 5410.00    1.16026   1.02729    0.313
 5411.00    1.17010   1.02745    0.313
 5412.00    1.16812   1.03001    0.308
 5413.00    1.16375   1.03482    0.305
 5414.00    1.15115   1.04094    0.308
 5415.00    1.14696   1.04824    0.310
 5416.00    1.16707   1.05576    0.311
 5417.00    1.18010   1.06392    0.311
 5418.00    1.17559   1.07170    0.310
 5419.00    1.16350   1.07849    0.309
 5420.00    1.13527   1.08404    0.305
 5421.00    1.12468   1.08815    0.305
 5422.00    1.14672   1.09092    0.309
 5423.00    1.15820   1.09226    0.312
 5424.00    1.15262   1.09270    0.312
 5425.00    1.14832   1.09212    0.312
 5426.00    1.14585   1.09109    0.312
 5427.00    1.14699   1.08956    0.312
 5428.00    1.15264   1.08710    0.313
 5429.00    1.15503   1.08436    0.314
 5430.00    1.15383   1.08112    0.316
 5431.00    1.15361   1.07799    0.316
 5432.00    1.15433   1.07575    0.314
 5433.00    1.16611   1.07333    0.316
 5434.00    1.18735   1.07180    0.321
 5435.00    1.18479   1.07110    0.322
 5436.00    1.16431   1.07197    0.318
 5437.00    1.15612   1.07515    0.316
 5438.00    1.15608   1.07904    0.315
 5439.00    1.15743   1.08425    0.313
 5440.00    1.15960   1.08947    0.310
 5441.00    1.16471   1.09433    0.311
 5442.00    1.17132   1.09867    0.313
 5443.00    1.16639   1.10146    0.311
 5444.00    1.15642   1.10291    0.308
 5445.00    1.15790   1.10223    0.306
 5446.00    1.16366   1.10005    0.305
 5447.00    1.17503   1.09724    0.308
 5448.00    1.18820   1.09380    0.312
 5449.00    1.17900   1.09102    0.312
 5450.00    1.16386   1.08830    0.311
 5451.00    1.15613   1.08597    0.308
 5452.00    1.15002   1.08401    0.303
 5453.00    1.14378   1.08234    0.306
 5454.00    1.13753   1.08114    0.309
 5455.00    1.15930   1.08026    0.311
 5456.00    1.18475   1.07982    0.314
 5457.00    1.18626   1.07963    0.310
 5458.00    1.18557   1.07993    0.306
 5459.00    1.17329   1.08012    0.306
 5460.00    1.16036   1.08057    0.307
 5461.00    1.16468   1.08082    0.305
 5462.00    1.16935   1.08114    0.302
 5463.00    1.17089   1.08194    0.301
 5464.00    1.17242   1.08246    0.300
 5465.00    1.17359   1.08310    0.302
 5466.00    1.17484   1.08357    0.303
 5467.00    1.17713   1.08350    0.304
 5468.00    1.17862   1.08322    0.305
 5469.00    1.17318   1.08255    0.304
 5470.00    1.17020   1.08172    0.303
 5471.00    1.18297   1.08036    0.307
 5472.00    1.19090   1.07815    0.310
 5473.00    1.17455   1.07568    0.307
 5474.00    1.15979   1.07238    0.305
 5475.00    1.15146   1.06838    0.308
 5476.00    1.14181   1.06474    0.310
 5477.00    1.12772   1.06139    0.308
 5478.00    1.11839   1.05872   -2.000
 5479.00    1.12262   1.05724   -2.000
 5480.00    1.12797   1.05653   -2.000
 5481.00    1.13601   1.05700   -2.000
 5482.00    1.13770   1.05797   -2.000
 5483.00    1.12609   1.06041   -2.000
 5484.00    1.09975   1.06360   -2.000
 5485.00    1.04659   1.06679   -2.000
 5486.00    0.97442   1.07025   -2.000
 5487.00    0.87200   1.07312   -2.000
 5488.00    0.87919   1.07563   -2.000
 5489.00    1.03951   1.07740   -2.000
 5490.00    1.15662   1.07945   -2.000
 5491.00    1.22062   1.08099   -2.000
 5492.00    1.25888   1.08195   -2.000
 5493.00    1.26924   1.08271   -2.000
 5494.00    1.25373   1.08307   -2.000
 5495.00    1.21348   1.08338   -2.000
 5496.00    1.17832   1.08345   -2.000
 5497.00    1.14744   1.08387   -2.000
 5498.00    1.13735   1.08384   -2.000
 5499.00    1.14269   1.08355   -2.000
 5500.00    1.13687   1.08315   -2.000
 5501.00    1.12377   1.08213   -2.000
 5502.00    1.12713   1.08076    0.300
 5503.00    1.13988   1.07925    0.298
 5504.00    1.14261   1.07768    0.301
 5505.00    1.14035   1.07562    0.306
 5506.00    1.14683   1.07368    0.307
 5507.00    1.15707   1.07207    0.305
 5508.00    1.15120   1.07021    0.303
 5509.00    1.13940   1.06883    0.301
 5510.00    1.12799   1.06744    0.298
 5511.00    1.11671   1.06639    0.296
 5512.00    1.11616   1.06578    0.296
 5513.00    1.11840   1.06538    0.297
 5514.00    1.12058   1.06580    0.301
 5515.00    1.12276   1.06690    0.305
 5516.00    1.14026   1.06901    0.304
 5517.00    1.16034   1.07186    0.302
 5518.00    1.14650   1.07491    0.302
 5519.00    1.12837   1.07863    0.303
 5520.00    1.13393   1.08208    0.303
 5521.00    1.14159   1.08528    0.303
 5522.00    1.13567   1.08803    0.304
 5523.00    1.12904   1.08973    0.306
 5524.00    1.13516   1.09040    0.305
 5525.00    1.14133   1.08985    0.304
 5526.00    1.13364   1.08842    0.302
 5527.00    1.12647   1.08610    0.301
 5528.00    1.13082   1.08364    0.303
 5529.00    1.13490   1.08125    0.306
 5530.00    1.13563   1.07950    0.305
 5531.00    1.13715   1.07842    0.305
 5532.00    1.14533   1.07785    0.306
 5533.00    1.15322   1.07793    0.307
 5534.00    1.15929   1.07833    0.307
 5535.00    1.16155   1.07959    0.307
 5536.00    1.14521   1.08090    0.304
 5537.00    1.13097   1.08278    0.302
 5538.00    1.12505   1.08509    0.300
 5539.00    1.12533   1.08704    0.299
 5540.00    1.14609   1.08910    0.299
 5541.00    1.15969   1.09095    0.297
 5542.00    1.15335   1.09274    0.293
 5543.00    1.15316   1.09431    0.290
 5544.00    1.16766   1.09581    0.291
 5545.00    1.17532   1.09733    0.292
 5546.00    1.16891   1.09873    0.292
 5547.00    1.16309   1.10022    0.293
 5548.00    1.15831   1.10170    0.299
 5549.00    1.15880   1.10322    0.301
 5550.00    1.16757   1.10442    0.298
 5551.00    1.16258   1.10530    0.295
 5552.00    1.13864   1.10584    0.292
 5553.00    1.12437   1.10600    0.291
 5554.00    1.12181   1.10554    0.292
 5555.00    1.13160   1.10466    0.295
 5556.00    1.15460   1.10348    0.298
 5557.00    1.16235   1.10184    0.300
 5558.00    1.15574   1.09995    0.300
 5559.00    1.14730   1.09773    0.298
 5560.00    1.13733   1.09558    0.294
 5561.00    1.13846   1.09314    0.292
 5562.00    1.14771   1.09067    0.294
 5563.00    1.15295   1.08836    0.296
 5564.00    1.15561   1.08590    0.299
 5565.00    1.15187   1.08363    0.300
 5566.00    1.14455   1.08141    0.301
 5567.00    1.14015   1.07947    0.301
 5568.00    1.13719   1.07783    0.301
 5569.00    1.13479   1.07656    0.303
 5570.00    1.13263   1.07600    0.305
 5571.00    1.13679   1.07546    0.305
 5572.00    1.14324   1.07580    0.305
 5573.00    1.14799   1.07654    0.305
 5574.00    1.15223   1.07738    0.305
 5575.00    1.14328   1.07889    0.305
 5576.00    1.13097   1.08057    0.304
 5577.00    1.14560   1.08203    0.307
 5578.00    1.16581   1.08335    0.310
 5579.00    1.16754   1.08459    0.307
 5580.00    1.16625   1.08486    0.302
 5581.00    1.15802   1.08438    0.302
 5582.00    1.14894   1.08323    0.302
 5583.00    1.13788   1.08075    0.300
 5584.00    1.12665   1.07724    0.298
 5585.00    1.11896   1.07270    0.296
 5586.00    1.11143   1.06720    0.294
 5587.00    1.12747   1.06140    0.300
 5588.00    1.14329   1.05541    0.306
 5589.00    1.12465   1.05040    0.305
 5590.00    1.10726   1.04574    0.303
 5591.00    1.11454   1.04282    0.305
 5592.00    1.12097   1.04078    0.307
 5593.00    1.11754   1.04041    0.302
 5594.00    1.11522   1.04110    0.298
 5595.00    1.12181   1.04320    0.302
 5596.00    1.12725   1.04575    0.304
 5597.00    1.12574   1.04863    0.302
 5598.00    1.12599   1.05153    0.301
 5599.00    1.13457   1.05387    0.301
 5600.00    1.14131   1.05608    0.302
 5601.00    1.14089   1.05813    0.303
 5602.00    1.14212   1.06019    0.303
 5603.00    1.14869   1.06283    0.302
 5604.00    1.15116   1.06606    0.301
 5605.00    1.14235   1.07007    0.300
 5606.00    1.13782   1.07452    0.298
 5607.00    1.14330   1.07927    0.296
 5608.00    1.14930   1.08411    0.294
 5609.00    1.15634   1.08834    0.292
 5610.00    1.15662   1.09200    0.291
 5611.00    1.14494   1.09429    0.292
 5612.00    1.13759   1.09528    0.293
 5613.00    1.13693   1.09459    0.296
 5614.00    1.13616   1.09211    0.298
 5615.00    1.13526   1.08870    0.299
 5616.00    1.12714   1.08448    0.300
 5617.00    1.11039   1.08020    0.301
 5618.00    1.10887   1.07642    0.300
 5619.00    1.12337   1.07291    0.298
 5620.00    1.11770   1.07028    0.296
 5621.00    1.09327   1.06829    0.293
 5622.00    1.09168   1.06718    0.294
 5623.00    1.10880   1.06637    0.299
 5624.00    1.11059   1.06620    0.298
 5625.00    1.10134   1.06662    0.294
 5626.00    1.10024   1.06755    0.293
 5627.00    1.10430   1.06928    0.294
 5628.00    1.11965   1.07135    0.293
 5629.00    1.14124   1.07368    0.290
 5630.00    1.14975   1.07628    0.289
 5631.00    1.15197   1.07884    0.289
 5632.00    1.14203   1.08104    0.289
 5633.00    1.12704   1.08262    0.289
 5634.00    1.12571   1.08346    0.288
 5635.00    1.12924   1.08346    0.285
 5636.00    1.12495   1.08266    0.283
 5637.00    1.11832   1.08124    0.281
 5638.00    1.11877   1.07920    0.281
 5639.00    1.12097   1.07709    0.280
 5640.00    1.13098   1.07487    0.281
 5641.00    1.14256   1.07310    0.281
 5642.00    1.13689   1.07164    0.281
 5643.00    1.12850   1.07088    0.280
 5644.00    1.13368   1.07089    0.279
 5645.00    1.14047   1.07127    0.278
 5646.00    1.14398   1.07237    0.280
 5647.00    1.14723   1.07355    0.282
 5648.00    1.14149   1.07503    0.282
 5649.00    1.13535   1.07634    0.282
 5650.00    1.13380   1.07752    0.285
 5651.00    1.13224   1.07824    0.288
 5652.00    1.12735   1.07847    0.289
 5653.00    1.12268   1.07809    0.290
 5654.00    1.12239   1.07674    0.293
 5655.00    1.12184   1.07491    0.297
 5656.00    1.11854   1.07225    0.298
 5657.00    1.11525   1.06915    0.298
 5658.00    1.11204   1.06590    0.294
 5659.00    1.11036   1.06275    0.292
 5660.00    1.11759   1.05999    0.296
 5661.00    1.12420   1.05820    0.299
 5662.00    1.12794   1.05705    0.297
 5663.00    1.13134   1.05687    0.295
 5664.00    1.13337   1.05754    0.295
 5665.00    1.13367   1.05921    0.293
 5666.00    1.12846   1.06145    0.288
 5667.00    1.12757   1.06422    0.285
 5668.00    1.13831   1.06713    0.286
 5669.00    1.14362   1.07040    0.286
 5670.00    1.13642   1.07407    0.286
 5671.00    1.12913   1.07766    0.285
 5672.00    1.12165   1.08124    0.284
 5673.00    1.11932   1.08468    0.283
 5674.00    1.12594   1.08796    0.282
 5675.00    1.13423   1.09078    0.283
 5676.00    1.14505   1.09302    0.285
 5677.00    1.15206   1.09449    0.287
 5678.00    1.15399   1.09525    0.290
 5679.00    1.15336   1.09509    0.289
 5680.00    1.14971   1.09408    0.284
 5681.00    1.14204   1.09218    0.280
 5682.00    1.13019   1.08981    0.278
 5683.00    1.12417   1.08703    0.278
 5684.00    1.12348   1.08414    0.278
 5685.00    1.13138   1.08152    0.279
 5686.00    1.14623   1.07914    0.280
 5687.00    1.14038   1.07754    0.278
 5688.00    1.11982   1.07643    0.275
 5689.00    1.10760   1.07648    0.277
 5690.00    1.10056   1.07708    0.281
 5691.00    1.11150   1.07867    0.281
 5692.00    1.13222   1.08039    0.280
 5693.00    1.13590   1.08242    0.280
 5694.00    1.13150   1.08433    0.283
 5695.00    1.13161   1.08572    0.285
 5696.00    1.13356   1.08661    0.287
 5697.00    1.13113   1.08637    0.288
 5698.00    1.12717   1.08559    0.289
 5699.00    1.12831   1.08360    0.288
 5700.00    1.13095   1.08101    0.287
 5701.00    1.13240   1.07775    0.286
 5702.00    1.13355   1.07405    0.286
 5703.00    1.12124   1.07018    0.284
 5704.00    1.10627   1.06616    0.281
 5705.00    1.09809   1.06215    0.280
 5706.00    1.09095   1.05821    0.279
 5707.00    1.10472   1.05450    0.278
 5708.00    1.12087   1.05114    0.277
 5709.00    1.11963   1.04867    0.279
 5710.00    1.11706   1.04690    0.281
 5711.00    1.11939   1.04631    0.278
 5712.00    1.12192   1.04717    0.275
 5713.00    1.11960   1.04916    0.274
 5714.00    1.11762   1.05269    0.273
 5715.00    1.13130   1.05728    0.272
 5716.00    1.14431   1.06274    0.270
 5717.00    1.14604   1.06875    0.273
 5718.00    1.14762   1.07515    0.276
 5719.00    1.14773   1.08134    0.273
 5720.00    1.14732   1.08736    0.271
 5721.00    1.14293   1.09275    0.270
 5722.00    1.14084   1.09737    0.269
 5723.00    1.15192   1.10116    0.269
 5724.00    1.15945   1.10400    0.270
 5725.00    1.15085   1.10589    0.270
 5726.00    1.14224   1.10683    0.271
 5727.00    1.13358   1.10718    0.273
 5728.00    1.12798   1.10684    0.274
 5729.00    1.13190   1.10626    0.273
 5730.00    1.13486   1.10534    0.273
 5731.00    1.13534   1.10441    0.276
 5732.00    1.13549   1.10361    0.277
 5733.00    1.13492   1.10297    0.273
 5734.00    1.13414   1.10282    0.271
 5735.00    1.13298   1.10273    0.273
 5736.00    1.13798   1.10290    0.275
 5737.00    1.15353   1.10309    0.279
 5738.00    1.16143   1.10333    0.280
 5739.00    1.15785   1.10358    0.278
 5740.00    1.14935   1.10364    0.000
 5741.00    1.13434   1.10373    0.000
 5742.00    1.12933   1.10345    0.000
 5743.00    1.13594   1.10325    0.000
 5744.00    1.14443   1.10275    0.000
 5745.00    1.15485   1.10232    0.000
 5746.00    1.15663   1.10157    0.000
 5747.00    1.15060   1.10051    0.000
 5748.00    1.14576   1.09934    0.000
 5749.00    1.14185   1.09787    0.000
 5750.00    1.14196   1.09642    0.000
 5751.00    1.14489   1.09471    0.000
 5752.00    1.14460   1.09294    0.000
 5753.00    1.14232   1.09109    0.000
 5754.00    1.14188   1.08960    0.000
 5755.00    1.14241   1.08848    0.000
 5756.00    1.14147   1.08777    0.000
 5757.00    1.13985   1.08756    0.000
 5758.00    1.13102   1.08739    0.000
 5759.00    1.11931   1.08755    0.000
 5760.00    1.12019   1.08766    0.000
 5761.00    1.12539   1.08807    0.000
 5762.00    1.13388   1.08851    0.000
 5763.00    1.14333   1.08950    0.000
 5764.00    1.14171   1.09062    0.000
 5765.00    1.13745   1.09232    0.000
 5766.00    1.14380   1.09423    0.000
 5767.00    1.15220   1.09635    0.000
 5768.00    1.14631   1.09851    0.000
 5769.00    1.13829   1.10050    0.000
 5770.00    1.14297   1.10218    0.000
 5771.00    1.14903   1.10322    0.000
 5772.00    1.14691   1.10378    0.000
 5773.00    1.14421   1.10347    0.000
 5774.00    1.14241   1.10259    0.000
 5775.00    1.14065   1.10098    0.000
 5776.00    1.14689   1.09868    0.000
 5777.00    1.15275   1.09580    0.000
 5778.00    1.14397   1.09215    0.000
 5779.00    1.13548   1.08793    0.000
 5780.00    1.13162   1.08302    0.000
 5781.00    1.12766   1.07800    0.000
 5782.00    1.12264   1.07279    0.000
 5783.00    1.11765   1.06812    0.000
 5784.00    1.11287   1.06391    0.000
 5785.00    1.10986   1.06083    0.000
 5786.00    1.11666   1.05889    0.000
 5787.00    1.12278   1.05829    0.000
 5788.00    1.12591   1.05925    0.000
 5789.00    1.12751   1.06114    0.000
 5790.00    1.12353   1.06408    0.000
 5791.00    1.11829   1.06771   -2.000
 5792.00    1.10919   1.07168   -2.000
 5793.00    1.09925   1.07589   -2.000
 5794.00    1.08712   1.08003   -2.000
 5795.00    1.08202   1.08378   -2.000
 5796.00    1.09258   1.08716   -2.000
 5797.00    1.10096   1.08985   -2.000
 5798.00    1.10509   1.09242   -2.000
 5799.00    1.10649   1.09415   -2.000
 5800.00    1.10327   1.09605   -2.000
 5801.00    1.10334   1.09711   -2.000
 5802.00    1.10828   1.09831   -2.000
 5803.00    1.11659   1.09866   -2.000
 5804.00    1.12928   1.09925   -2.000
 5805.00    1.14034   1.09919   -2.000
 5806.00    1.14954   1.09928   -2.000
 5807.00    1.15240   1.09916   -2.000
 5808.00    1.14884   1.09896   -2.000
 5809.00    1.14666   1.09891   -2.000
 5810.00    1.14570   1.09855   -2.000
 5811.00    1.14598   1.09867    0.000
 5812.00    1.14725   1.09833    0.000
 5813.00    1.13898   1.09875    0.000
 5814.00    1.12413   1.09856    0.000
 5815.00    1.12484   1.09927    0.000
 5816.00    1.13497   1.09953    0.000
 5817.00    1.14240   1.10080    0.000
 5818.00    1.14841   1.10191    0.000
 5819.00    1.15080   1.10382    0.000
 5820.00    1.15155   1.10572    0.000
 5821.00    1.14695   1.10790    0.000
 5822.00    1.14025   1.11017    0.000
 5823.00    1.13534   1.11229    0.000
 5824.00    1.13103   1.11449    0.000
 5825.00    1.13180   1.11619    0.000
 5826.00    1.13400   1.11787    0.000
 5827.00    1.13564   1.11890    0.000
 5828.00    1.13715   1.11982    0.000
 5829.00    1.14026   1.12017    0.000
 5830.00    1.14367   1.12031    0.000
 5831.00    1.14989   1.12009    0.000
 5832.00    1.15652   1.11962    0.000
 5833.00    1.15553   1.11891    0.000
 5834.00    1.15375   1.11808    0.000
 5835.00    1.13962   1.11725    0.000
 5836.00    1.12464   1.11645    0.000
 5837.00    1.12389   1.11579    0.000
 5838.00    1.12362   1.11537    0.000
 5839.00    1.13001   1.11513    0.000
 5840.00    1.13649   1.11512    0.000
 5841.00    1.14529   1.11525    0.000
 5842.00    1.15335   1.11538    0.000
 5843.00    1.15022   1.11532    0.000
 5844.00    1.14730   1.11497    0.000
 5845.00    1.14635   1.11419    0.000
 5846.00    1.14373   1.11288    0.000
 5847.00    1.12947   1.11108    0.000
 5848.00    1.11635   1.10872    0.000
 5849.00    1.10945   1.10596    0.000
 5850.00    1.10444   1.10273    0.000
 5851.00    1.10763   1.09922    0.000
 5852.00    1.11134   1.09535    0.000
 5853.00    1.11693   1.09149    0.000
 5854.00    1.11775   1.08757    0.000
 5855.00    1.10429   1.08385    0.000
 5856.00    1.09596   1.08033    0.000
 5857.00    1.10073   1.07720    0.000
 5858.00    1.10193   1.07473    0.000
 5859.00    1.09531   1.07283    0.000
 5860.00    1.09312   1.07202    0.000
 5861.00    1.09938   1.07166    0.000
 5862.00    1.10741   1.07232    0.000
 5863.00    1.11839   1.07335    0.000
 5864.00    1.12545   1.07509    0.000
 5865.00    1.12683   1.07700    0.000
 5866.00    1.12793   1.07916    0.000
 5867.00    1.12866   1.08124    0.000
 5868.00    1.12898   1.08317    0.000
 5869.00    1.12883   1.08476    0.000
 5870.00    1.12709   1.08598    0.000
 5871.00    1.12376   1.08637    0.000
 5872.00    1.12162   1.08637    0.000
 5873.00    1.12053   1.08535    0.000
 5874.00    1.12014   1.08389    0.000
 5875.00    1.12028   1.08190    0.000
 5876.00    1.11612   1.07931    0.000
 5877.00    1.10902   1.07723    0.000
 5878.00    1.11263   1.07412    0.000
 5879.00    1.12260   1.07227    0.000
 5880.00    1.12058   1.06905    0.000
 5881.00    1.11230   1.06705    0.000
 5882.00    1.10620   1.06346    0.000
 5883.00    1.10108   1.06023    0.000
 5884.00    1.09741   1.05515    0.000
 5885.00    1.09430   1.04928    0.000
 5886.00    1.09137   1.04145    0.000
 5887.00    1.08851   1.03214    0.000
 5888.00    1.07892   1.02107    0.000
 5889.00    1.06746   1.00882    0.000
 5890.00    1.05332   0.99649    0.000
 5891.00    1.03857   0.98448    0.000
 5892.00    1.03923   0.97397    0.000
 5893.00    1.04270   0.96538    0.000
 5894.00    1.04445   0.95897    0.000
 5895.00    1.04596   0.95533    0.000
 5896.00    1.05219   0.95499    0.000
 5897.00    1.05890   0.95759    0.000
 5898.00    1.07251   0.96333    0.000
 5899.00    1.08656   0.97147    0.000
 5900.00    1.08717   0.98147    0.000
 5901.00    1.08738   0.99270    0.248
 5902.00    1.08854   1.00462    0.246
 5903.00    1.08968   1.01657    0.243
 5904.00    1.09016   1.02794    0.245
 5905.00    1.09091   1.03844    0.247
 5906.00    1.09556   1.04761    0.247
 5907.00    1.09909   1.05541    0.246
 5908.00    1.09220   1.06173    0.246
 5909.00    1.08633   1.06661    0.245
 5910.00    1.08728   1.07023    0.249
 5911.00    1.08903   1.07260    0.251
 5912.00    1.09496   1.07411    0.250
 5913.00    1.10046   1.07465    0.248
 5914.00    1.10417   1.07484    0.249
 5915.00    1.10357   1.07445    0.250
 5916.00    1.08788   1.07425    0.249
 5917.00    1.07753   1.07394    0.249
 5918.00    1.08284   1.07400    0.249
 5919.00    1.08819   1.07432    0.249
 5920.00    1.09365   1.07497    0.248
 5921.00    1.09600   1.07592    0.247
 5922.00    1.09166   1.07704    0.246
 5923.00    1.08837   1.07828    0.245
 5924.00    1.08707   1.07942    0.243
 5925.00    1.08800   1.08048    0.243
 5926.00    1.09258   1.08117    0.243
 5927.00    1.09628   1.08157    0.243
 5928.00    1.09872   1.08163    0.242
 5929.00    1.09718   1.08132    0.242
 5930.00    1.09062   1.08096    0.243
 5931.00    1.09036   1.08041    0.242
 5932.00    1.09712   1.07996    0.241
 5933.00    1.10055   1.07953    0.241
 5934.00    1.10071   1.07923    0.241
 5935.00    1.09962   1.07920    0.241
 5936.00    1.09744   1.07927    0.240
 5937.00    1.09553   1.07969    0.240
 5938.00    1.09383   1.08011    0.242
 5939.00    1.09293   1.08067    0.243
 5940.00    1.09256   1.08107    0.243
 5941.00    1.09297   1.08156    0.242
 5942.00    1.09383   1.08183    0.241
 5943.00    1.09884   1.08214    0.242
 5944.00    1.10597   1.08228    0.245
 5945.00    1.11139   1.08234    0.245
 5946.00    1.11605   1.08218    0.245
 5947.00    1.11726   1.08187    0.246
 5948.00    1.11716   1.08132    0.247
 5949.00    1.11148   1.08069    0.248
 5950.00    1.10400   1.07990    0.250
 5951.00    1.09827   1.07906    0.250
 5952.00    1.09302   1.07816    0.249
 5953.00    1.09809   1.07739    0.247
 5954.00    1.10545   1.07672    0.245
 5955.00    1.10532   1.07634    0.244
 5956.00    1.10387   1.07627    0.243
 5957.00    1.10076   1.07655    0.242
 5958.00    1.09743   1.07723    0.242
 5959.00    1.09224   1.07836    0.241
 5960.00    1.08687   1.07981    0.240
 5961.00    1.08986   1.08160    0.238
 5962.00    1.09334   1.08349    0.237
 5963.00    1.09866   1.08555    0.236
 5964.00    1.10401   1.08752    0.236
 5965.00    1.10572   1.08942    0.236
 5966.00    1.10718   1.09123    0.236
 5967.00    1.10194   1.09277    0.237
 5968.00    1.09733   1.09420    0.238
 5969.00    1.10114   1.09527    0.237
 5970.00    1.10480   1.09614    0.237
 5971.00    1.10712   1.09655    0.237
 5972.00    1.10903   1.09665    0.237
 5973.00    1.10823   1.09619    0.238
 5974.00    1.10650   1.09530    0.238
 5975.00    1.10002   1.09386    0.237
 5976.00    1.09468   1.09205    0.237
 5977.00    1.09406   1.08987    0.238
 5978.00    1.09338   1.08755    0.239
 5979.00    1.09252   1.08518    0.241
 5980.00    1.09154   1.08284    0.243
 5981.00    1.09022   1.08064    0.242
 5982.00    1.08934   1.07861    0.241
 5983.00    1.08952   1.07680    0.243
 5984.00    1.08986   1.07536    0.244
 5985.00    1.09053   1.07431    0.243
 5986.00    1.09146   1.07367    0.241
 5987.00    1.09287   1.07354    0.239
 5988.00    1.09543   1.07380    0.238
 5989.00    1.09985   1.07449    0.238
 5990.00    1.10183   1.07549    0.237
 5991.00    1.10034   1.07673    0.237
 5992.00    1.09817   1.07812    0.236
 5993.00    1.09514   1.07942    0.233
 5994.00    1.09299   1.08063    0.232
 5995.00    1.09179   1.08143    0.232
 5996.00    1.09438   1.08189    0.231
 5997.00    1.10064   1.08188    0.231
 5998.00    1.09881   1.08155    0.231
 5999.00    1.09009   1.08084    0.232
 6000.00    1.08293   1.07992    0.232
 6001.00    1.07693   1.07875    0.232
 6002.00    1.07388   1.07742    0.231
 6003.00    1.07276   1.07608    0.229
 6004.00    1.06939   1.07464    0.229
 6005.00    1.06472   1.07327    0.230
 6006.00    1.06247   1.07190    0.231
 6007.00    1.06145   1.07054    0.233
 6008.00    1.06514   1.06936    0.234
 6009.00    1.07087   1.06835    0.234
 6010.00    1.07847   1.06748    0.237
 6011.00    1.08676   1.06682    0.243
 6012.00    1.08165   1.06616    0.243
 6013.00    1.07229   1.06570    0.242
 6014.00    1.06723   1.06520    0.243
 6015.00    1.06331   1.06482    0.245
 6016.00    1.06680   1.06435    0.244
 6017.00    1.07188   1.06398    0.242
 6018.00    1.07678   1.06353    0.242
 6019.00    1.08165   1.06321    0.243
 6020.00    1.07837   1.06307    0.240
 6021.00    1.07402   1.06313    0.237
 6022.00    1.06894   1.06366    0.236
 6023.00    1.06380   1.06446    0.235
 6024.00    1.06163   1.06590    0.234
 6025.00    1.05964   1.06766    0.232
 6026.00    1.06960   1.06995    0.233
 6027.00    1.07985   1.07261    0.233
 6028.00    1.09194   1.07555    0.232
 6029.00    1.10339   1.07873    0.231
 6030.00    1.10014   1.08192    0.231
 6031.00    1.09689   1.08514    0.230
 6032.00    1.09359   1.08813    0.229
 6033.00    1.09020   1.09095    0.228
 6034.00    1.08599   1.09341    0.229
 6035.00    1.08230   1.09554    0.229
 6036.00    1.08185   1.09728    0.229
 6037.00    1.08059   1.09863    0.229
 6038.00    1.07530   1.09967    0.228
 6039.00    1.07064   1.10034    0.228
 6040.00    1.06854   1.10090    0.229
 6041.00    1.06721   1.10117    0.231
 6042.00    1.06852   1.10158    0.233
 6043.00    1.06985   1.10184    0.235
 6044.00    1.07128   1.10231    0.235
 6045.00    1.07282   1.10274    0.236
 6046.00    1.07463   1.10329    0.236
 6047.00    1.07725   1.10378    0.237
 6048.00    1.08153   1.10418    0.238
 6049.00    1.08775   1.10445    0.237
 6050.00    1.09748   1.10439    0.236
 6051.00    1.10254   1.10409    0.234
 6052.00    1.10016   1.10333    0.232
 6053.00    1.09462   1.10231    0.231
 6054.00    1.08467   1.10094    0.230
 6055.00    1.08199   1.09938    0.230
 6056.00    1.08825   1.09775    0.229
 6057.00    1.09224   1.09608    0.229
 6058.00    1.09377   1.09457    0.228
 6059.00    1.09147   1.09317    0.228
 6060.00    1.08549   1.09199    0.228
 6061.00    1.08080   1.09100    0.228
 6062.00    1.07719   1.09021    0.229
 6063.00    1.07599   1.08969    0.230
 6064.00    1.07658   1.08936    0.231
 6065.00    1.07828   1.08946    0.230
 6066.00    1.08071   1.08993    0.228
 6067.00    1.08214   1.09086    0.229
 6068.00    1.08302   1.09225    0.231
 6069.00    1.08493   1.09400    0.231
 6070.00    1.08735   1.09606    0.231
 6071.00    1.08346   1.09817    0.232
 6072.00    1.07685   1.10024    0.235
 6073.00    1.07649   1.10190    0.235
 6074.00    1.07843   1.10310    0.234
 6075.00    1.08249   1.10349    0.234
 6076.00    1.08721   1.10318    0.235
 6077.00    1.08437   1.10195    0.235
 6078.00    1.07955   1.10009    0.235
 6079.00    1.07593   1.09759    0.233
 6080.00    1.07255   1.09474    0.230
 6081.00    1.07569   1.09165    0.229
 6082.00    1.07991   1.08861    0.229
 6083.00    1.08202   1.08573    0.230
 6084.00    1.08386   1.08315    0.231
 6085.00    1.08060   1.08099    0.228
 6086.00    1.07689   1.07922    0.226
 6087.00    1.07082   1.07789    0.226
 6088.00    1.06464   1.07690    0.227
 6089.00    1.06326   1.07622    0.224
 6090.00    1.06209   1.07585    0.221
 6091.00    1.06936   1.07569    0.223
 6092.00    1.07645   1.07579    0.225
 6093.00    1.07988   1.07602    0.225
 6094.00    1.08284   1.07648    0.226
 6095.00    1.08014   1.07690    0.228
 6096.00    1.07723   1.07738    0.230
 6097.00    1.07260   1.07769    0.230
 6098.00    1.06937   1.07782    0.230
 6099.00    1.07480   1.07765    0.231
 6100.00    1.08038   1.07710    0.232
 6101.00    1.08660   1.07623    0.234
 6102.00    1.09062   1.07503    0.236
 6103.00    1.08594   1.07398    0.235
 6104.00    1.08170   1.07284    0.234
 6105.00    1.07889   1.07226    0.234
 6106.00    1.07737   1.07189    0.234
 6107.00    1.07945   1.07227    0.232
 6108.00    1.08139   1.07304    0.231
 6109.00    1.08301   1.07447    0.231
 6110.00    1.08318   1.07609    0.231
 6111.00    1.08038   1.07800    0.230
 6112.00    1.07784   1.07982    0.229
 6113.00    1.07575   1.08143    0.226
 6114.00    1.07390   1.08265    0.224
 6115.00    1.07246   1.08325    0.224
 6116.00    1.07151   1.08333    0.224
 6117.00    1.07124   1.08267    0.224
 6118.00    1.07124   1.08149    0.224
 6119.00    1.07156   1.07964    0.225
 6120.00    1.06981   1.07755    0.225
 6121.00    1.06585   1.07508    0.226
 6122.00    1.06237   1.07279    0.226
 6123.00    1.05937   1.07063    0.224
 6124.00    1.05772   1.06889    0.224
 6125.00    1.05720   1.06762    0.224
 6126.00    1.05872   1.06685    0.224
 6127.00    1.06172   1.06661    0.225
 6128.00    1.06559   1.06665    0.225
 6129.00    1.07000   1.06700    0.226
 6130.00    1.06689   1.06720    0.225
 6131.00    1.05955   1.06726    0.225
 6132.00    1.05383   1.06676    0.226
 6133.00    1.04891   1.06578    0.228
 6134.00    1.04451   1.06408    0.229
 6135.00    1.04033   1.06196    0.231
 6136.00    1.04281   1.05935    0.231
 6137.00    1.04770   1.05691    0.232
 6138.00    1.05208   1.05465    0.232
 6139.00    1.05632   1.05311    0.232
 6140.00    1.05761   1.05230    0.232
 6141.00    1.05815   1.05254    0.232
 6142.00    1.06347   1.05380    0.231
 6143.00    1.06978   1.05593    0.231
 6144.00    1.07089   1.05875    0.228
 6145.00    1.07116   1.06180    0.225
 6146.00    1.07071   1.06498    0.223
 6147.00    1.07017   1.06769    0.220
 6148.00    1.06127   1.07006    0.220
 6149.00    1.05167   1.07156    0.221
 6150.00    1.04478   1.07253    0.219
 6151.00    1.03802   1.07255    0.218
 6152.00    1.04067   1.07207    0.219
 6153.00    1.04337   1.07072    0.220
 6154.00    1.04162   1.06891    0.221
 6155.00    1.04001   1.06638    0.223
 6156.00    1.04120   1.06332    0.227
 6157.00    1.04220   1.05958    0.232
 6158.00    1.04098   1.05525    0.233
 6159.00    1.04017   1.05036    0.234
 6160.00    1.04261   1.04498    0.233
 6161.00    1.04417   1.03941    0.233
 6162.00    1.04040   1.03387    0.234
 6163.00    1.03621   1.02868    0.234
 6164.00    1.03000   1.02413    0.233
 6165.00    1.02615   1.02042    0.231
 6166.00    1.03143   1.01781    0.232
 6167.00    1.03755   1.01626    0.232
 6168.00    1.04637   1.01586    0.231
 6169.00    1.05228   1.01644    0.231
 6170.00    1.05019   1.01797    0.230
 6171.00    1.04794   1.02020    0.229
 6172.00    1.04531   1.02296    0.226
 6173.00    1.04337   1.02618    0.225
 6174.00    1.04284   1.02963    0.226
 6175.00    1.03847   1.03331    0.226
 6176.00    1.02734   1.03700    0.224
 6177.00    1.01736   1.04071    0.221
 6178.00    1.00913   1.04426    0.218
 6179.00    1.00205   1.04754    0.217
 6180.00    0.99651   1.05051    0.218
 6181.00    0.99666   1.05294    0.219
 6182.00    1.00361   1.05490    0.218
 6183.00    1.01006   1.05606    0.219
 6184.00    1.01600   1.05664    0.222
 6185.00    1.01819   1.05632    0.223
 6186.00    1.01689   1.05540    0.223
 6187.00    1.01723   1.05369    0.225
 6188.00    1.01890   1.05159    0.228
 6189.00    1.01710   1.04909    0.229
 6190.00    1.01282   1.04662    0.227
 6191.00    1.01103   1.04427    0.227
 6192.00    1.01081   1.04244    0.228
 6193.00    1.01312   1.04115    0.231
 6194.00    1.01682   1.04072    0.235
 6195.00    1.00482   1.04093    0.243
 6196.00    0.98527   1.04200   -2.000
 6197.00    0.95671   1.04348   -2.000
 6198.00    0.92442   1.04555   -2.000
 6199.00    0.92413   1.04768   -2.000
 6200.00    0.93518   1.05004   -2.000
 6201.00    0.98555   1.05222   -2.000
 6202.00    1.04770   1.05437   -2.000
 6203.00    1.09593   1.05625   -2.000
 6204.00    1.14071   1.05790   -2.000
 6205.00    1.13968   1.05925   -2.000
 6206.00    1.12943   1.06016   -2.000
 6207.00    1.09954   1.06065   -2.000
 6208.00    1.06655   1.06042    0.228
 6209.00    1.05377   1.05962    0.227
 6210.00    1.04337   1.05790    0.227
 6211.00    1.04036   1.05554    0.223
 6212.00    1.03795   1.05230    0.218
 6213.00    1.03409   1.04861    0.221
 6214.00    1.03018   1.04438    0.224
 6215.00    1.02282   1.04011    0.226
 6216.00    1.01537   1.03584    0.227
 6217.00    1.00498   1.03199    0.228
 6218.00    0.99524   1.02862    0.228
 6219.00    0.99738   1.02598    0.227
 6220.00    1.00034   1.02407    0.225
 6221.00    1.01230   1.02289    0.227
 6222.00    1.02277   1.02237    0.228
 6223.00    1.02166   1.02229    0.227
 6224.00    1.02091   1.02256    0.226
 6225.00    1.02224   1.02290    0.225
 6226.00    1.02330   1.02322    0.224
 6227.00    1.02313   1.02333    0.227
 6228.00    1.02227   1.02318    0.230
 6229.00    1.01882   1.02283    0.231
 6230.00    1.01696   1.02219    0.230
 6231.00    1.02012   1.02164    0.224
 6232.00    1.02184   1.02093    0.220
 6233.00    1.01965   1.02065    0.221
 6234.00    1.01861   1.02036    0.220
 6235.00    1.02020   1.02060    0.217
 6236.00    1.02085   1.02076    0.215
 6237.00    1.01962   1.02117    0.216
 6238.00    1.01806   1.02132    0.217
 6239.00    1.01593   1.02131    0.220
 6240.00    1.01343   1.02092    0.222
 6241.00    1.01039   1.02018    0.222
 6242.00    1.01132   1.01916    0.222
 6243.00    1.01758   1.01794    0.223
 6244.00    1.02165   1.01668    0.224
 6245.00    1.02314   1.01555    0.227
 6246.00    1.02273   1.01463    0.228
 6247.00    1.02034   1.01396    0.226
 6248.00    1.01906   1.01355    0.225
 6249.00    1.01879   1.01324    0.226
 6250.00    1.01757   1.01296    0.227
 6251.00    1.01558   1.01241    0.227
 6252.00    1.01148   1.01169    0.227
 6253.00    1.00588   1.01044    0.226
 6254.00    1.00318   1.00905    0.226
 6255.00    1.00229   1.00731    0.226
 6256.00    1.00407   1.00571    0.225
 6257.00    1.00731   1.00424    0.224
 6258.00    1.00514   1.00327    0.226
 6259.00    1.00040   1.00305    0.230
 6260.00    0.99049   1.00351    0.241
 6261.00    0.97849   1.00514    0.258
 6262.00    0.98425   1.00727    0.265
 6263.00    0.99620   1.01043    0.268
 6264.00    1.01978   1.01375    0.261
 6265.00    1.04678   1.01764    0.251
 6266.00    1.06168   1.02123    0.240
 6267.00    1.07363   1.02495    0.230
 6268.00    1.06685   1.02820    0.224
 6269.00    1.05640   1.03120    0.220
 6270.00    1.04620   1.03369    0.219
 6271.00    1.03604   1.03586    0.219
 6272.00    1.03971   1.03766    0.221
 6273.00    1.04495   1.03916    0.224
 6274.00    1.03944   1.04040    0.224
 6275.00    1.03312   1.04134    0.225
 6276.00    1.03198   1.04210    0.225
 6277.00    1.03105   1.04259    0.225
 6278.00    1.02525   1.04296    0.223
 6279.00    1.01959   1.04314    0.221
 6280.00    1.02171   1.04334    0.000
 6281.00    1.02371   1.04351    0.000
 6282.00    1.02364   1.04384    0.000
 6283.00    1.02350   1.04443    0.000
 6284.00    1.02261   1.04520    0.000
 6285.00    1.02256   1.04634    0.000
 6286.00    1.02877   1.04752    0.000
 6287.00    1.03423   1.04896    0.000
 6288.00    1.03543   1.05024    0.000
 6289.00    1.03595   1.05145    0.000
 6290.00    1.03339   1.05221    0.000
 6291.00    1.03086   1.05259    0.000
 6292.00    1.02837   1.05234    0.000
 6293.00    1.02395   1.05159    0.000
 6294.00    1.01352   1.05024    0.000
 6295.00    1.00623   1.04845    0.000
 6296.00    1.00722   1.04628    0.000
 6297.00    1.00869   1.04385    0.000
 6298.00    1.01125   1.04137    0.000
 6299.00    1.01336   1.03899    0.000
 6300.00    1.01461   1.03692    0.000
 6301.00    1.01604   1.03520    0.000
 6302.00    1.01776   1.03403    0.000
 6303.00    1.01951   1.03335    0.000
 6304.00    1.02130   1.03336    0.000
 6305.00    1.02196   1.03381    0.000
 6306.00    1.02112   1.03478    0.000
 6307.00    1.02024   1.03585    0.000
 6308.00    1.01930   1.03717    0.000
 6309.00    1.01950   1.03818    0.000
 6310.00    1.02088   1.03900    0.000
 6311.00    1.02105   1.03918    0.000
 6312.00    1.02013   1.03896    0.000
 6313.00    1.01525   1.03804    0.000
 6314.00    1.00723   1.03676    0.000
 6315.00    1.00518   1.03503    0.000
 6316.00    1.00731   1.03317    0.000
 6317.00    1.01371   1.03133    0.000
 6318.00    1.02272   1.02987    0.000
 6319.00    1.02538   1.02879    0.000
 6320.00    1.02463   1.02845    0.000
 6321.00    1.02514   1.02887    0.210
 6322.00    1.02622   1.03002    0.212
 6323.00    1.02917   1.03190    0.215
 6324.00    1.03288   1.03425    0.217
 6325.00    1.03462   1.03717    0.218
 6326.00    1.03570   1.04007    0.219
 6327.00    1.03086   1.04310    0.219
 6328.00    1.02432   1.04573    0.219
 6329.00    1.01990   1.04803    0.217
 6330.00    1.01599   1.04976    0.215
 6331.00    1.01696   1.05080    0.214
 6332.00    1.01887   1.05121    0.214
 6333.00    1.01626   1.05094    0.215
 6334.00    1.01298   1.05010    0.216
 6335.00    1.00649   1.04876    0.215
 6336.00    0.99966   1.04703    0.214
 6337.00    0.99992   1.04522    0.214
 6338.00    1.00068   1.04337    0.213
 6339.00    1.00516   1.04180    0.214
 6340.00    1.00978   1.04035    0.214
 6341.00    1.01020   1.03933    0.213
 6342.00    1.01069   1.03864    0.212
 6343.00    1.01419   1.03825    0.213
 6344.00    1.01734   1.03832    0.213
 6345.00    1.01481   1.03854    0.214
 6346.00    1.01249   1.03931    0.215
 6347.00    1.01238   1.04004    0.215
 6348.00    1.01295   1.04114    0.215
 6349.00    1.01855   1.04200    0.214
 6350.00    1.02374   1.04301    0.214
 6351.00    1.02673   1.04353    0.216
 6352.00    1.02857   1.04384    0.218
 6353.00    1.02541   1.04347    0.216
 6354.00    1.02216   1.04256    0.215
 6355.00    1.01859   1.04091    0.218
 6356.00    1.01401   1.03863    0.221
 6357.00    1.00633   1.03582    0.221
 6358.00    1.00121   1.03258    0.221
 6359.00    1.00275   1.02912    0.220
 6360.00    1.00506   1.02570    0.221
 6361.00    1.00908   1.02266    0.224
 6362.00    1.01093   1.02019    0.225
 6363.00    1.00856   1.01854    0.221
 6364.00    1.00741   1.01790    0.219
 6365.00    1.00831   1.01836    0.218
 6366.00    1.01001   1.01992    0.217
 6367.00    1.01288   1.02249    0.215
 6368.00    1.01396   1.02590    0.213
 6369.00    1.01272   1.02995    0.212
 6370.00    1.01395   1.03439    0.211
 6371.00    1.01801   1.03894    0.211
 6372.00    1.02065   1.04344    0.211
 6373.00    1.02186   1.04763    0.213
 6374.00    1.01993   1.05139    0.212
 6375.00    1.01520   1.05452    0.208
 6376.00    1.01237   1.05703    0.209
 6377.00    1.01104   1.05890    0.212
 6378.00    1.01115   1.06017    0.214
 6379.00    1.01226   1.06091    0.216
 6380.00    1.01423   1.06120    0.216
 6381.00    1.01673   1.06130    0.214
 6382.00    1.02022   1.06114    0.215
 6383.00    1.02425   1.06098    0.218
 6384.00    1.02185   1.06076    0.218
 6385.00    1.01650   1.06059    0.217
 6386.00    1.01292   1.06041    0.216
 6387.00    1.01004   1.06027    0.215
 6388.00    1.00958   1.06001    0.215
 6389.00    1.00994   1.05962    0.214
 6390.00    1.00747   1.05897    0.214
 6391.00    1.00421   1.05812    0.213
 6392.00    0.99512   1.05691    0.213
 6393.00    0.98468   1.05556    0.213
 6394.00    0.98089   1.05400    0.213
 6395.00    0.97835   1.05249    0.213
 6396.00    0.98735   1.05115    0.215
 6397.00    0.99802   1.04985    0.216
 6398.00    1.00657   1.04886    0.218
 6399.00    1.01489   1.04787    0.219
 6400.00    1.01504   1.04743    0.217
 6401.00    1.01464   1.04697    0.215
 6402.00    1.01346   1.04713    0.216
 6403.00    1.01227   1.04737    0.218
 6404.00    1.01745   1.04776    0.219
 6405.00    1.02263   1.04812    0.221
 6406.00    1.02779   1.04843    0.221
 6407.00    1.03204   1.04864    0.222
 6408.00    1.02241   1.04871    0.222
 6409.00    1.01272   1.04864    0.222
 6410.00    1.00240   1.04848    0.222
 6411.00    0.99320   1.04828    0.222
 6412.00    0.99178   1.04790    0.217
 6413.00    0.99166   1.04761    0.213
 6414.00    0.99859   1.04738    0.212
 6415.00    1.00459   1.04726    0.210
 6416.00    1.00662   1.04716    0.212
 6417.00    1.00779   1.04725    0.213
 6418.00    1.00590   1.04737    0.213
 6419.00    1.00506   1.04759    0.213
 6420.00    1.00730   1.04799    0.212
 6421.00    1.00913   1.04848    0.210
 6422.00    1.00991   1.04933    0.210
 6423.00    1.01130   1.05028    0.210
 6424.00    1.01403   1.05161    0.211
 6425.00    1.01563   1.05281    0.213
 6426.00    1.01506   1.05414    0.215
 6427.00    1.01396   1.05528    0.217
 6428.00    1.01200   1.05628    0.221
 6429.00    1.01375   1.05694    0.223
 6430.00    1.02089   1.05718    0.221
 6431.00    1.02330   1.05721    0.220
 6432.00    1.01964   1.05687    0.220
 6433.00    1.01616   1.05665    0.220
 6434.00    1.01286   1.05627    0.222
 6435.00    1.00951   1.05606    0.222
 6436.00    1.00612   1.05594    0.222
 6437.00    1.00093   1.05605    0.220
 6438.00    0.99414   1.05639    0.218
 6439.00    0.99096   1.05700    0.217
 6440.00    0.99055   1.05785    0.217
 6441.00    0.99405   1.05899    0.216
 6442.00    1.00021   1.06024    0.215
 6443.00    1.00408   1.06132    0.214
 6444.00    1.00660   1.06222    0.213
 6445.00    1.00320   1.06270    0.211
 6446.00    0.99671   1.06277    0.210
 6447.00    0.99098   1.06218    0.211
 6448.00    0.98560   1.06104    0.212
 6449.00    0.97458   1.05922    0.213
 6450.00    0.96138   1.05723    0.214
 6451.00    0.94520   1.05491    0.211
 6452.00    0.92805   1.05314    0.207
 6453.00    0.91075   1.05144    0.207
 6454.00    0.89341   1.05039    0.207
 6455.00    0.87479   1.04967    0.205
 6456.00    0.85587   1.04965    0.203
 6457.00    0.83757   1.05003    0.203
 6458.00    0.81938   1.05097    0.202
 6459.00    0.82208   1.05208    0.203
 6460.00    0.82767   1.05328    0.203
 6461.00    0.85354   1.05428    0.205
 6462.00    0.88144   1.05512    0.208
 6463.00    0.90295   1.05584    0.209
 6464.00    0.92406   1.05630    0.210
 6465.00    0.94007   1.05707    0.208
 6466.00    0.95591   1.05750    0.207
 6467.00    0.96756   1.05823    0.208
 6468.00    0.97897   1.05866    0.209
 6469.00    0.98403   1.05945    0.208
 6470.00    0.98854   1.05993    0.208
 6471.00    0.98521   1.06063    0.208
 6472.00    0.98247   1.06120    0.209
 6473.00    0.98525   1.06166    0.210
 6474.00    0.98850   1.06213    0.211
 6475.00    0.99499   1.06224    0.215
 6476.00    1.00113   1.06232    0.218
 6477.00    1.00540   1.06200    0.221
 6478.00    1.00898   1.06171    0.224
 6479.00    1.00964   1.06098    0.226
 6480.00    1.00864   1.06010    0.227
 6481.00    1.00181   1.05895    0.223
 6482.00    0.99435   1.05763    0.220
 6483.00    0.98502   1.05619    0.218
 6484.00    0.97831   1.05466    0.216
 6485.00    0.97815   1.05313    0.216
 6486.00    0.97803   1.05135    0.215
 6487.00    0.97802   1.04935    0.214
 6488.00    0.97776   1.04691    0.214
 6489.00    0.97705   1.04397    0.213
 6490.00    0.97620   1.04039    0.213
 6491.00    0.97510   1.03607    0.214
 6492.00    0.97478   1.03116    0.214
 6493.00    0.97556   1.02558    0.211
 6494.00    0.97431   1.01983    0.210
 6495.00    0.97050   1.01401    0.210
 6496.00    0.96956   1.00876    0.210
 6497.00    0.97179   1.00466    0.211
 6498.00    0.97452   1.00156    0.212
 6499.00    0.97776   1.00031    0.214
 6500.00    0.98011   1.00032    0.214
 6501.00    0.98169   1.00225    0.212
 6502.00    0.98379   1.00544    0.213
 6503.00    0.98628   1.00992    0.214
 6504.00    0.98685   1.01517    0.216
 6505.00    0.98615   1.02085    0.217
 6506.00    0.98748   1.02668    0.218
 6507.00    0.99000   1.03214    0.218
 6508.00    0.99293   1.03724    0.218
 6509.00    0.99605   1.04149    0.218
 6510.00    1.00081   1.04515    0.218
 6511.00    1.00630   1.04791    0.220
 6512.00    1.00635   1.05001    0.219
 6513.00    1.00432   1.05126    0.218
 6514.00    1.00557   1.05196    0.216
 6515.00    1.00787   1.05211    0.213
 6516.00    1.01015   1.05187    0.213
 6517.00    1.01242   1.05140    0.215
 6518.00    1.00732   1.05078    0.213
 6519.00    1.00058   1.05032    0.211
 6520.00    1.00009   1.04976    0.210
 6521.00    1.00071   1.04967    0.209
 6522.00    1.00410   1.04946    0.210
 6523.00    1.00787   1.04961    0.212
 6524.00    1.00883   1.04965    0.212
 6525.00    1.00953   1.04990    0.212
 6526.00    1.00879   1.05000    0.213
 6527.00    1.00795   1.05012    0.215
 6528.00    1.00930   1.05010    0.000
 6529.00    1.01066   1.05014    0.000
 6530.00    1.00447   1.05014    0.000
 6531.00    0.99869   1.05009    0.000
 6532.00    1.00291   1.05009    0.000
 6533.00    1.00670   1.05011    0.000
 6534.00    1.00468   1.05034    0.000
 6535.00    1.00227   1.05066    0.000
 6536.00    0.99637   1.05111    0.000
 6537.00    0.99117   1.05153    0.000
 6538.00    0.99053   1.05186    0.000
 6539.00    0.99072   1.05207    0.000
 6540.00    0.99506   1.05200    0.000
 6541.00    0.99936   1.05160    0.000
 6542.00    1.00344   1.05066    0.000
 6543.00    1.00758   1.04925    0.000
 6544.00    1.01195   1.04734    0.000
 6545.00    1.01616   1.04489    0.000
 6546.00    1.01991   1.04209    0.000
 6547.00    1.02047   1.03880    0.000
 6548.00    1.01319   1.03530    0.000
 6549.00    1.00546   1.03148    0.000
 6550.00    0.99678   1.02721    0.000
 6551.00    0.98919   1.02248    0.000
 6552.00    0.98361   1.01706    0.000
 6553.00    0.98116   1.01093    0.000
 6554.00    0.98376   1.00391    0.000
 6555.00    0.98449   0.99580    0.000
 6556.00    0.98260   0.98670    0.000
 6557.00    0.98126   0.97640    0.000
 6558.00    0.98059   0.96537    0.000
 6559.00    0.97788   0.95338    0.000
 6560.00    0.97294   0.94118    0.000
 6561.00    0.97344   0.92891    0.000
 6562.00    0.97920   0.91746    0.000
 6563.00    0.98131   0.90792    0.000
 6564.00    0.98033   0.90043    0.000
 6565.00    0.97978   0.89679    0.000
 6566.00    0.97954   0.89596    0.000
 6567.00    0.97746   0.89842    0.000
 6568.00    0.97416   0.90346    0.000
 6569.00    0.97257   0.91111    0.000
 6570.00    0.97197   0.92052    0.000
 6571.00    0.97200   0.93118    0.000
 6572.00    0.97234   0.94245    0.000
 6573.00    0.97875   0.95361    0.000
 6574.00    0.98779   0.96423    0.000
 6575.00    0.98816   0.97422    0.000
 6576.00    0.98529   0.98316    0.000
 6577.00    0.98274   0.99136    0.000
 6578.00    0.98029   0.99840    0.000
 6579.00    0.99166   1.00466    0.000
 6580.00    1.00668   1.00996    0.000
 6581.00    1.01934   1.01460    0.000
 6582.00    1.03149   1.01867    0.000
 6583.00    1.03688   1.02209    0.000
 6584.00    1.04111   1.02524    0.000
 6585.00    1.03673   1.02752    0.000
 6586.00    1.03123   1.02963    0.000
 6587.00    1.02145   1.03092    0.000
 6588.00    1.01129   1.03195    0.000
 6589.00    1.00091   1.03241    0.000
 6590.00    0.99052   1.03233    0.000
 6591.00    0.99073   1.03183    0.000
 6592.00    0.99109   1.03079    0.000
 6593.00    0.98443   1.02970    0.000
 6594.00    0.97788   1.02844    0.000
 6595.00    0.97373   1.02755    0.000
 6596.00    0.97029   1.02697    0.000
 6597.00    0.97591   1.02665    0.000
 6598.00    0.98173   1.02673    0.000
 6599.00    0.98935   1.02719    0.000
 6600.00    0.99493   1.02806    0.000
 6601.00    0.98753   1.02917    0.000
 6602.00    0.98209   1.03038    0.000
 6603.00    0.98642   1.03145    0.000
 6604.00    0.99037   1.03231    0.000
 6605.00    0.99282   1.03294    0.000
 6606.00    0.99233   1.03322    0.000
 6607.00    0.98199   1.03337    0.000
 6608.00    0.97563   1.03326    0.000
 6609.00    0.98055   1.03326    0.226
 6610.00    0.98384   1.03331    0.225
 6611.00    0.98319   1.03371    0.224
 6612.00    0.98283   1.03449    0.222
 6613.00    0.98309   1.03544    0.222
 6614.00    0.98300   1.03685    0.220
 6615.00    0.98230   1.03830    0.218
 6616.00    0.98037   1.04018    0.216
 6617.00    0.97649   1.04189    0.215
 6618.00    0.97875   1.04356    0.216
 6619.00    0.98956   1.04495    0.217
 6620.00    0.99808   1.04604    0.219
 6621.00    1.00381   1.04670    0.221
 6622.00    1.00244   1.04681    0.222
 6623.00    0.99341   1.04645    0.222
 6624.00    0.98701   1.04550    0.222
 6625.00    0.98312   1.04433    0.223
 6626.00    0.98091   1.04266    0.224
 6627.00    0.98011   1.04104    0.227
 6628.00    0.97870   1.03907    0.228
 6629.00    0.97685   1.03707    0.227
 6630.00    0.97590   1.03500    0.227
 6631.00    0.97554   1.03299    0.228
 6632.00    0.97499   1.03110    0.229
 6633.00    0.97433   1.02932    0.231
 6634.00    0.97149   1.02792    0.228
 6635.00    0.96758   1.02676    0.223
 6636.00    0.97002   1.02618    0.221
 6637.00    0.97517   1.02585    0.220
 6638.00    0.97631   1.02585    0.221
 6639.00    0.97598   1.02603    0.222
 6640.00    0.97324   1.02647    0.221
 6641.00    0.96975   1.02701    0.220
 6642.00    0.97068   1.02766    0.221
 6643.00    0.97274   1.02834    0.222
 6644.00    0.97180   1.02894    0.222
 6645.00    0.97022   1.02955    0.222
 6646.00    0.97203   1.03027    0.225
 6647.00    0.97441   1.03089    0.228
 6648.00    0.97231   1.03152    0.228
 6649.00    0.96965   1.03208    0.227
 6650.00    0.96602   1.03271    0.229
 6651.00    0.96229   1.03323    0.231
 6652.00    0.97041   1.03370    0.231
 6653.00    0.97913   1.03401    0.232
 6654.00    0.97396   1.03423    0.232
 6655.00    0.96857   1.03421    0.232
 6656.00    0.96477   1.03401    0.231
 6657.00    0.96153   1.03354    0.229
 6658.00    0.97009   1.03274    0.228
 6659.00    0.97719   1.03176    0.227
 6660.00    0.96670   1.03042    0.228
 6661.00    0.95703   1.02898    0.228
 6662.00    0.95407   1.02721    0.226
 6663.00    0.95181   1.02563    0.223
 6664.00    0.95383   1.02396    0.223
 6665.00    0.95360   1.02262    0.223
 6666.00    0.94244   1.02164    0.223
 6667.00    0.93515   1.02090    0.224
 6668.00    0.94314   1.02062    0.226
 6669.00    0.95075   1.02063    0.228
 6670.00    0.95709   1.02104    0.228
 6671.00    0.96292   1.02154    0.228
 6672.00    0.96730   1.02211    0.229
 6673.00    0.96635   1.02252    0.231
 6674.00    0.95273   1.02276    0.234
 6675.00    0.94345   1.02269    0.236
 6676.00    0.94311   1.02222    0.237
 6677.00    0.94471   1.02141    0.237
 6678.00    0.94980   1.02038    0.237
 6679.00    0.95419   1.01940    0.237
 6680.00    0.95748   1.01856    0.240
 6681.00    0.95933   1.01822    0.239
 6682.00    0.95919   1.01791    0.234
 6683.00    0.96172   1.01821    0.231
 6684.00    0.96749   1.01877    0.230
 6685.00    0.96746   1.01985    0.229
 6686.00    0.96126   1.02109    0.229
 6687.00    0.95937   1.02254    0.229
 6688.00    0.96152   1.02407    0.228
 6689.00    0.96451   1.02543    0.228
 6690.00    0.96819   1.02673    0.230
 6691.00    0.96637   1.02761    0.231
 6692.00    0.96052   1.02825    0.232
 6693.00    0.95470   1.02846    0.233
 6694.00    0.94891   1.02839    0.234
 6695.00    0.94538   1.02786    0.235
 6696.00    0.94313   1.02714    0.000
 6697.00    0.94942   1.02623    0.000
 6698.00    0.95987   1.02534    0.000
 6699.00    0.96539   1.02464    0.000
 6700.00    0.96884   1.02389    0.000
 6701.00    0.96240   1.02342    0.000
 6702.00    0.95240   1.02288    0.000
 6703.00    0.94296   1.02252    0.000
 6704.00    0.93369   1.02218    0.000
 6705.00    0.93991   1.02190    0.000
 6706.00    0.95005   1.02168    0.000
 6707.00    0.94374   1.02137    0.000
 6708.00    0.93404   1.02101    0.000
 6709.00    0.93922   1.02028    0.000
 6710.00    0.94681   1.01951    0.000
 6711.00    0.95434   1.01836    0.000
 6712.00    0.96186   1.01707    0.000
 6713.00    0.95882   1.01561    0.000
 6714.00    0.95490   1.01388    0.000
 6715.00    0.95874   1.01219    0.000
 6716.00    0.96296   1.01044    0.000
 6717.00    0.95735   1.00896    0.000
 6718.00    0.95180   1.00785    0.000
 6719.00    0.95724   1.00709    0.000
 6720.00    0.96185   1.00702    0.000
 6721.00    0.95017   1.00714    0.000
 6722.00    0.94005   1.00785    0.000
 6723.00    0.94789   1.00876    0.000
 6724.00    0.95456   1.01015    0.000
 6725.00    0.95193   1.01162    0.000
 6726.00    0.95066   1.01319    0.000
 6727.00    0.95763   1.01479    0.000
 6728.00    0.96226   1.01628    0.000
 6729.00    0.95579   1.01783    0.000
 6730.00    0.95363   1.01899    0.000
 6731.00    0.96807   1.02011    0.000
 6732.00    0.97521   1.02079    0.000
 6733.00    0.95884   1.02133    0.000
 6734.00    0.94883   1.02147    0.000
 6735.00    0.95617   1.02149    0.000
 6736.00    0.96032   1.02118    0.000
 6737.00    0.95701   1.02065    0.000
 6738.00    0.95149   1.01986    0.000
 6739.00    0.94151   1.01888    0.000
 6740.00    0.93402   1.01785    0.000
 6741.00    0.93094   1.01673    0.000
 6742.00    0.92630   1.01555    0.000
 6743.00    0.91927   1.01439    0.000
 6744.00    0.92319   1.01315    0.000
 6745.00    0.94193   1.01211    0.000
 6746.00    0.94269   1.01120    0.000
 6747.00    0.92205   1.01030    0.000
 6748.00    0.91395   1.00973    0.000
 6749.00    0.91902   1.00911    0.000
 6750.00    0.91918   1.00899    0.000
 6751.00    0.91478   1.00891    0.000
 6752.00    0.91448   1.00925    0.000
 6753.00    0.91754   1.00998    0.264
 6754.00    0.90638   1.01076    0.266
 6755.00    0.88500   1.01216    0.262
 6756.00    0.88963   1.01361    0.261
 6757.00    0.91065   1.01545    0.262
 6758.00    0.93689   1.01726    0.266
 6759.00    0.96600   1.01916    0.274
 6760.00    0.98574   1.02092    0.279
 6761.00    1.00099   1.02241    0.283
 6762.00    1.05142   1.02373    0.292
 6763.00    1.11640   1.02453    0.304
 6764.00    1.12095   1.02515    0.307
 6765.00    1.10412   1.02519    0.305
 6766.00    1.11786   1.02498    0.304
 6767.00    1.14072   1.02445    0.303
 6768.00    1.14390   1.02380    0.303
 6769.00    1.14221   1.02318    0.303
 6770.00    1.09414   1.02266    0.293
 6771.00    1.03676   1.02238    0.282
 6772.00    1.01169   1.02225    0.278
 6773.00    0.99170   1.02260    0.276
 6774.00    0.98150   1.02316    0.269
 6775.00    0.97244   1.02409    0.263
 6776.00    0.96772   1.02500    0.263
 6777.00    0.96334   1.02599    0.264
 6778.00    0.97554   1.02684    0.268
 6779.00    0.98846   1.02741    0.272
 6780.00    0.98804   1.02780    0.273
 6781.00    0.98766   1.02764    0.274
 6782.00    0.99513   1.02712    0.273
 6783.00    1.00279   1.02603    0.272
 6784.00    1.01383   1.02481    0.273
 6785.00    1.02352   1.02342    0.274
 6786.00    1.01850   1.02209    0.276
 6787.00    1.01328   1.02093    0.277
 6788.00    1.00658   1.01981    0.279
 6789.00    0.99805   1.01909    0.281
 6790.00    0.97885   1.01846    0.280
 6791.00    0.96616   1.01817    0.279
 6792.00    0.98357   1.01804    0.279
 6793.00    0.99815   1.01809    0.279
 6794.00    1.00206   1.01828    0.280
 6795.00    1.00207   1.01849    0.280
 6796.00    0.98975   1.01902    0.278
 6797.00    0.98216   1.01943    0.276
 6798.00    0.98718   1.02004    0.274
 6799.00    0.98828   1.02057    0.272
 6800.00    0.98034   1.02111    0.269
 6801.00    0.97515   1.02169    0.267
 6802.00    0.97542   1.02215    0.267
 6803.00    0.97129   1.02266    0.265
 6804.00    0.95955   1.02308    0.262
 6805.00    0.94963   1.02340    0.260
 6806.00    0.94248   1.02367    0.261
 6807.00    0.94406   1.02394    0.262
 6808.00    0.95726   1.02397    0.264
 6809.00    0.96371   1.02401    0.265
 6810.00    0.96225   1.02400    0.267
 6811.00    0.95600   1.02388    0.268
 6812.00    0.94481   1.02385    0.271
 6813.00    0.94755   1.02384    0.276
 6814.00    0.96301   1.02380    0.283
 6815.00    0.97270   1.02396    0.285
 6816.00    0.97775   1.02417    0.283
 6817.00    0.97671   1.02463    0.279
 6818.00    0.97135   1.02521    0.274
 6819.00    0.96831   1.02571    0.271
 6820.00    0.96673   1.02637    0.270
 6821.00    0.97524   1.02703    0.269
 6822.00    0.98922   1.02783    0.269
 6823.00    0.98384   1.02858    0.265
 6824.00    0.96933   1.02929    0.260
 6825.00    0.95916   1.02983    0.259
 6826.00    0.95076   1.03020    0.259
 6827.00    0.94782   1.03041    0.262
 6828.00    0.94679   1.03044    0.265
 6829.00    0.95299   1.03031    0.266
 6830.00    0.96131   1.03009    0.267
 6831.00    0.96874   1.02977    0.270
 6832.00    0.97596   1.02933    0.274
 6833.00    0.97915   1.02866    0.273
 6834.00    0.98155   1.02782    0.271
 6835.00    0.98067   1.02681    0.275
 6836.00    0.97930   1.02555    0.280
 6837.00    0.96337   1.02412    0.281
 6838.00    0.94582   1.02231    0.280
 6839.00    0.94688   1.02058    0.281
 6840.00    0.94933   1.01862    0.283
 6841.00    0.95074   1.01690    0.278
 6842.00    0.95211   1.01529    0.273
 6843.00    0.94843   1.01409    0.269
 6844.00    0.94462   1.01337    0.265
 6845.00    0.93755   1.01303    0.259
 6846.00    0.93154   1.01318    0.255
 6847.00    0.94328   1.01353    0.256
 6848.00    0.95343   1.01423    0.257
 6849.00    0.94688   1.01502    0.258
 6850.00    0.94267   1.01589    0.260
 6851.00    0.95592   1.01665    0.263
 6852.00    0.96643   1.01724    0.266
 6853.00    0.96144   1.01756    0.265
 6854.00    0.95587   1.01745    0.263
 6855.00    0.94772   1.01705    0.265
 6856.00    0.94009   1.01622    0.267
 6857.00    0.93437   1.01529    0.270
 6858.00    0.92784   1.01439    0.272
 6859.00    0.91879   1.01332    0.273
 6860.00    0.91321   1.01237    0.273
 6861.00    0.91675   1.01152    0.270
 6862.00    0.92135   1.01087    0.269
 6863.00    0.92834   1.01054    0.269
 6864.00    0.92963   1.01043    0.268
 6865.00    0.91976   1.01045    0.267
 6866.00    0.91216   1.01044    0.266
 6867.00    0.90842   1.01053    0.264
 6868.00    0.91120   1.01067    0.264
 6869.00    0.92372   1.01080    0.263
 6870.00    0.93514   1.01112    0.262
 6871.00    0.94515   1.01123    0.261
 6872.00    0.94619   1.01146    0.260
 6873.00    0.93687   1.01164    0.259
 6874.00    0.93218   1.01197    0.257
 6875.00    0.93223   1.01229    0.255
 6876.00    0.93394   1.01259    0.255
 6877.00    0.93715   1.01303    0.258
 6878.00    0.93828   1.01345    0.261
 6879.00    0.93775   1.01416    0.264
 6880.00    0.93880   1.01465    0.267
 6881.00    0.94095   1.01515    0.270
 6882.00    0.94519   1.01549    0.272
 6883.00    0.95070   1.01605    0.273
 6884.00    0.94100   1.01675    0.273
 6885.00    0.92318   1.01751    0.273
 6886.00    0.91704   1.01852    0.272
 6887.00    0.91633   1.01944    0.269
 6888.00    0.91688   1.02073    0.265
 6889.00    0.91794   1.02194    0.261
 6890.00    0.91355   1.02330    0.260
 6891.00    0.90732   1.02461    0.259
 6892.00    0.90534   1.02596    0.259
 6893.00    0.90459   1.02729    0.258
 6894.00    0.91634   1.02854    0.261
 6895.00    0.93105   1.02978    0.264
 6896.00    0.93402   1.03069    0.262
 6897.00    0.93476   1.03163    0.259
 6898.00    0.93648   1.03251    0.264
 6899.00    0.93834   1.03323    0.270
 6900.00    0.93899   1.03388    0.271
 6901.00    0.93951   1.03452    0.271
 6902.00    0.93983   1.03510    0.273
 6903.00    0.94014   1.03569    0.275
 6904.00    0.93228   1.03622    0.274
 6905.00    0.92413   1.03664    0.272
 6906.00    0.91937   1.03708    0.271
 6907.00    0.91499   1.03737    0.269
 6908.00    0.92365   1.03773    0.269
 6909.00    0.93161   1.03767    0.270
 6910.00    0.92847   1.03753    0.269
 6911.00    0.92538   1.03720    0.267
 6912.00    0.92273   1.03673    0.264
 6913.00    0.91928   1.03600    0.261
 6914.00    0.91004   1.03517    0.262
 6915.00    0.90241   1.03442    0.263
 6916.00    0.90363   1.03356    0.263
 6917.00    0.90603   1.03311    0.262
 6918.00    0.91361   1.03238    0.262
 6919.00    0.91955   1.03205    0.261
 6920.00    0.91954   1.03173    0.262
 6921.00    0.92005   1.03142    0.262
 6922.00    0.92216   1.03118    0.264
 6923.00    0.92257   1.03073    0.267
 6924.00    0.91856   1.03044    0.271
 6925.00    0.91404   1.02986    0.273
 6926.00    0.90840   1.02966    0.271
 6927.00    0.90698   1.02923    0.270
 6928.00    0.91368   1.02904    0.275
 6929.00    0.92146   1.02895    0.277
 6930.00    0.93105   1.02867    0.275
 6931.00    0.93464   1.02868    0.273
 6932.00    0.92939   1.02842    0.273
 6933.00    0.92641   1.02866    0.273
 6934.00    0.92638   1.02870    0.272
 6935.00    0.92386   1.02913    0.271
 6936.00    0.91850   1.02974    0.270
 6937.00    0.91641   1.03022    0.267
 6938.00    0.91761   1.03079    0.264
 6939.00    0.91836   1.03106    0.265
 6940.00    0.91872   1.03146    0.268
 6941.00    0.91664   1.03148    0.267
 6942.00    0.91265   1.03145    0.263
 6943.00    0.90559   1.03107    0.262
 6944.00    0.89642   1.03048    0.264
 6945.00    0.89060   1.03003    0.265
 6946.00    0.88681   1.02931    0.267
 6947.00    0.90311   1.02874    0.271
 6948.00    0.92997   1.02830    0.276
 6949.00    0.93366   1.02783    0.278
 6950.00    0.92677   1.02734    0.278
 6951.00    0.91914   1.02700    0.277
 6952.00    0.91122   1.02663    0.276
 6953.00    0.91370   1.02655    0.275
 6954.00    0.91967   1.02683    0.275
 6955.00    0.91435   1.02736    0.272
 6956.00    0.90587   1.02818    0.269
 6957.00    0.91185   1.02921    0.268
 6958.00    0.92117   1.03036    0.268
 6959.00    0.92251   1.03139    0.268
 6960.00    0.92237   1.03274    0.267
 6961.00    0.90762   1.03401    0.265
 6962.00    0.89078   1.03541    0.263
 6963.00    0.89466   1.03689    0.265
 6964.00    0.90069   1.03813    0.267
 6965.00    0.90217   1.03933    0.268
 6966.00    0.90335   1.04026    0.269
 6967.00    0.91605   1.04098    0.271
 6968.00    0.92912   1.04142    0.273
 6969.00    0.91358   1.04164    0.274
 6970.00    0.89884   1.04132    0.275
 6971.00    0.90843   1.04067    0.277
 6972.00    0.91691   1.03975    0.279
 6973.00    0.90908   1.03836    0.280
 6974.00    0.90030   1.03682    0.281
 6975.00    0.88231   1.03481    0.278
 6976.00    0.86725   1.03266    0.274
 6977.00    0.87259   1.03030    0.272
 6978.00    0.87750   1.02815    0.269
 6979.00    0.88012   1.02631    0.267
 6980.00    0.88492   1.02491    0.266
 6981.00    0.89909   1.02459    0.267
 6982.00    0.91093   1.02467    0.269
 6983.00    0.91454   1.02538    0.268
 6984.00    0.91644   1.02652    0.267
 6985.00    0.91324   1.02805    0.268
 6986.00    0.91249   1.02992    0.269
 6987.00    0.91796   1.03202    0.270
 6988.00    0.91931   1.03434    0.272
 6989.00    0.91164   1.03655    0.274
 6990.00    0.90410   1.03860    0.276
 6991.00    0.89680   1.04032    0.275
 6992.00    0.89682   1.04163    0.277
 6993.00    0.90899   1.04245    0.283
 6994.00    0.91200   1.04291    0.284
 6995.00    0.90170   1.04291    0.278
 6996.00    0.89837   1.04259    0.275
 6997.00    0.90392   1.04203    0.276
 6998.00    0.89864   1.04106    0.277
 6999.00    0.88119   1.03998    0.276
 7000.00    0.87169   1.03865    0.273
 7001.00    0.87007   1.03734    0.268
 7002.00    0.87667   1.03601    0.269
 7003.00    0.89046   1.03465    0.278
 7004.00    0.89193   1.03336    0.288
 7005.00    0.88389   1.03202    0.302
 7006.00    0.70257   1.03098    0.247
 7007.00    0.40383   1.03001    0.185
 7008.00    0.40972   1.02926    0.248
 7009.00    0.59650   1.02878    0.976
 7010.00    0.65802   1.02844   -1.000
 7011.00    0.65469   1.02815   -1.000
 7012.00    0.65649   1.02771   -1.000
 7013.00    0.66060   1.02736   -1.000
 7014.00    0.65940   1.02698   -1.000
 7015.00    0.65615   1.02639   -1.000
 7016.00    0.65780   1.02591   -1.000
 7017.00    0.66107   1.02547   -1.000
 7018.00    0.66062   1.02535   -1.000
 7019.00    0.65916   1.02555   -1.000
 7020.00    0.65555   1.02575   -1.000
 7021.00    0.65145   1.02601   -1.000
 7022.00    0.65103   1.02617   -1.000
 7023.00    0.65127   1.02639   -1.000
 7024.00    0.65537   1.02646   -1.000
 7025.00    0.66000   1.02700   -1.000
 7026.00    0.66705   1.02800   -1.000
 7027.00    0.67433   1.02910   -1.000
 7028.00    0.67296   1.03013   -1.000
 7029.00    0.67105   1.03104   -1.000
 7030.00    0.66702   1.03190   -1.000
 7031.00    0.66295   1.03266   -1.000
 7032.00    0.66408   1.03365   -1.000
 7033.00    0.66521   1.03478   -1.000
 7034.00    0.66626   1.03612   -1.000
 7035.00    0.66752   1.03760   -1.000
 7036.00    0.67177   1.03893   -1.000
 7037.00    0.67564   1.04023   -1.000
 7038.00    0.67595   1.04171   -1.000
 7039.00    0.67608   1.04322   -1.000
 7040.00    0.67500   1.04512   -1.000
 7041.00    0.67451   1.04741   -1.000
 7042.00    0.67715   1.04972   -1.000
 7043.00    0.68264   1.05186   -1.000
 7044.00    0.70015   1.05376   -1.000
 7045.00    0.71131   1.05551   -1.000
 7046.00    0.70042   1.05659   -1.000
 7047.00    0.69311   1.05780   -1.000
 7048.00    0.69631   1.05884   -1.000
 7049.00    0.70027   1.05908   -1.000
 7050.00    0.70613   1.05856   -2.000
 7051.00    0.70937   1.05682   -2.000
 7052.00    0.70695   1.05437   -2.000
 7053.00    0.70475   1.05115   -2.000
 7054.00    0.70295   1.04765   -2.000
 7055.00    0.70260   1.04413   -2.000
 7056.00    0.70460   1.04034   -2.000
 7057.00    0.70596   1.03660   -2.000
 7058.00    0.70639   1.03250   -2.000
 7059.00    0.71063   1.02845   -2.000
 7060.00    0.71966   1.02446   -2.000
 7061.00    0.72582   1.02078   -2.000
 7062.00    0.72879   1.01794   -2.000
 7063.00    0.73672   1.01570   -2.000
 7064.00    0.74949   1.01384   -2.000
 7065.00    0.74304   1.01230   -2.000
 7066.00    0.72000   1.01097   -2.000
 7067.00    0.70177   1.00961   -2.000
 7068.00    0.68719   1.00873   -2.000
 7069.00    0.69293   1.00855   -2.000
 7070.00    0.71222   1.00905   -2.000
 7071.00    0.72776   1.00991   -2.000
 7072.00    0.74109   1.01114   -2.000
 7073.00    0.74996   1.01243   -2.000
 7074.00    0.75655   1.01362   -2.000
 7075.00    0.75744   1.01492   -2.000
 7076.00    0.75581   1.01609   -2.000
 7077.00    0.75440   1.01739   -2.000
 7078.00    0.75306   1.01863   -2.000
 7079.00    0.74872   1.01943   -2.000
 7080.00    0.74341   1.01937   -2.000
 7081.00    0.74496   1.01863   -2.000
 7082.00    0.74836   1.01726   -2.000
 7083.00    0.73568   1.01495   -2.000
 7084.00    0.71943   1.01212   -2.000
 7085.00    0.71079   1.00889   -2.000
 7086.00    0.70349   1.00546   -2.000
 7087.00    0.70445   1.00196   -2.000
 7088.00    0.70652   0.99833   -2.000
 7089.00    0.70805   0.99460   -2.000
 7090.00    0.70954   0.99113   -2.000
 7091.00    0.69446   0.98791   -2.000
 7092.00    0.67841   0.98503   -2.000
 7093.00    0.67184   0.98318   -2.000
 7094.00    0.66561   0.98181   -2.000
 7095.00    0.67246   0.98117   -2.000
 7096.00    0.67859   0.98059   -2.000
 7097.00    0.66661   0.98063   -2.000
 7098.00    0.65517   0.98123   -2.000
 7099.00    0.65084   0.98173   -2.000
 7100.00    0.64567   0.98317   -2.000
 7101.00    0.63312   0.98395   -2.000
 7102.00    0.62233   0.98513   -2.000
 7103.00    0.62303   0.98612   -2.000
 7104.00    0.62479   0.98697   -2.000
 7105.00    0.63190   0.98795   -2.000
 7106.00    0.63505   0.98844   -2.000
 7107.00    0.62190   0.98902   -2.000
 7108.00    0.61104   0.98906   -2.000
 7109.00    0.60794   0.98894   -2.000
 7110.00    0.61071   0.98871   -2.000
 7111.00    0.63032   0.98836   -2.000
 7112.00    0.64154   0.98816   -2.000
 7113.00    0.63215   0.98812   -2.000
 7114.00    0.62853   0.98783   -2.000
 7115.00    0.63711   0.98771   -2.000
 7116.00    0.64715   0.98753   -2.000
 7117.00    0.65988   0.98764   -2.000
 7118.00    0.66693   0.98752   -2.000
 7119.00    0.66484   0.98718   -2.000
 7120.00    0.66569   0.98718   -2.000
 7121.00    0.67067   0.98683   -2.000
 7122.00    0.67843   0.98664   -2.000
 7123.00    0.68965   0.98590   -2.000
 7124.00    0.69424   0.98511   -2.000
 7125.00    0.69159   0.98427   -2.000
 7126.00    0.68748   0.98300   -2.000
 7127.00    0.68198   0.98190   -2.000
 7128.00    0.68492   0.98066   -2.000
 7129.00    0.69505   0.97962   -2.000
 7130.00    0.69275   0.97849   -2.000
 7131.00    0.68115   0.97764   -2.000
 7132.00    0.66642   0.97721   -2.000
 7133.00    0.64964   0.97718   -2.000
 7134.00    0.64592   0.97727   -2.000
 7135.00    0.64970   0.97787   -2.000
 7136.00    0.64988   0.97887   -2.000
 7137.00    0.64825   0.97975   -2.000
 7138.00    0.66346   0.98087   -2.000
 7139.00    0.68599   0.98190   -2.000
 7140.00    0.68778   0.98330   -2.000
 7141.00    0.68184   0.98453   -2.000
 7142.00    0.67061   0.98561   -2.000
 7143.00    0.65770   0.98655   -2.000
 7144.00    0.65044   0.98685   -2.000
 7145.00    0.64466   0.98737   -2.000
 7146.00    0.64064   0.98746   -2.000
 7147.00    0.63700   0.98723   -2.000
 7148.00    0.64091   0.98724   -2.000
 7149.00    0.64612   0.98723   -2.000
 7150.00    0.64441   0.98747   -2.000
 7151.00    0.64179   0.98783   -2.000
 7152.00    0.63845   0.98838   -2.000
 7153.00    0.63503   0.98911   -2.000
 7154.00    0.63787   0.98975   -2.000
 7155.00    0.64105   0.99059   -2.000
 7156.00    0.63468   0.99132   -2.000
 7157.00    0.62818   0.99207   -2.000
 7158.00    0.62803   0.99330   -2.000
 7159.00    0.62918   0.99380   -2.000
 7160.00    0.65945   0.99421   -2.000
 7161.00    0.68818   0.99448   -2.000
 7162.00    0.69751   0.99438   -2.000
 7163.00    0.70714   0.99415   -2.000
 7164.00    0.71936   0.99363   -2.000
 7165.00    0.72732   0.99361   -2.000
 7166.00    0.70823   0.99339   -2.000
 7167.00    0.69378   0.99365   -2.000
 7168.00    0.70234   0.99425   -2.000
 7169.00    0.70780   0.99499   -2.000
 7170.00    0.70082   0.99590   -2.000
 7171.00    0.69221   0.99677   -2.000
 7172.00    0.67818   0.99792   -2.000
 7173.00    0.66537   0.99900   -2.000
 7174.00    0.65601   1.00030   -2.000
 7175.00    0.65339   1.00126   -2.000
 7176.00    0.66706   1.00183   -2.000
 7177.00    0.67685   1.00208   -2.000
 7178.00    0.67857   1.00187   -2.000
 7179.00    0.67650   1.00145   -2.000
 7180.00    0.66758   1.00047   -2.000
 7181.00    0.65569   0.99912   -2.000
 7182.00    0.63911   0.99777   -2.000
 7183.00    0.63061   0.99637   -2.000
 7184.00    0.63333   0.99518   -2.000
 7185.00    0.63274   0.99382   -2.000
 7186.00    0.62812   0.99217   -2.000
 7187.00    0.62993   0.99060   -2.000
 7188.00    0.63868   0.98883   -2.000
 7189.00    0.63999   0.98772   -2.000
 7190.00    0.63422   0.98727   -2.000
 7191.00    0.62931   0.98684   -2.000
 7192.00    0.62511   0.98679   -2.000
 7193.00    0.62825   0.98636   -2.000
 7194.00    0.63679   0.98638   -2.000
 7195.00    0.63744   0.98674   -2.000
 7196.00    0.63298   0.98736   -2.000
 7197.00    0.62145   0.98877   -2.000
 7198.00    0.60591   0.98976   -2.000
 7199.00    0.62242   0.99098   -2.000
 7200.00    0.65477   0.99203   -2.000
 7201.00    0.66920   0.99268   -2.000
 7202.00    0.67598   0.99366   -2.000
 7203.00    0.67314   0.99436   -2.000
 7204.00    0.66678   0.99515   -2.000
 7205.00    0.63865   0.99561   -2.000
 7206.00    0.60376   0.99544   -2.000
 7207.00    0.59759   0.99544   -2.000
 7208.00    0.59884   0.99480   -2.000
 7209.00    0.59439   0.99482   -2.000
 7210.00    0.58874   0.99532   -2.000
 7211.00    0.59765   0.99561   -2.000
 7212.00    0.60897   0.99636   -2.000
 7213.00    0.61264   0.99638   -2.000
 7214.00    0.61536   0.99685   -2.000
 7215.00    0.61181   0.99746   -2.000
 7216.00    0.60771   0.99865   -2.000
 7217.00    0.60751   1.00052   -2.000
 7218.00    0.60752   1.00192   -2.000
