###################################################################
## OUTPUT of StarlightChains_v04.for    [Cid@UFSC - 01/Apr/2007] ##
###################################################################

## Some input info
KUG0210-078._47_30.txt                   [arq_obs]
Base.CB07.vall.4m                        [arq_base]
Masks.EmLines.NEW.gm                     [arq_masks]
StCv04.C11.config                        [arq_config]
   66                                    [N_base]
    0                                    [N_YAV_components = # of components with extra extinction!]
    0                                    [i_FitPowerLaw (1/0 = Yes/No)]
-9.99                                    [alpha_PowerLaw]
CCM                                      [red_law_option]
 1.458241                                [q_norm = A(l_norm)/A(V)]

## (Re)Sampling Parameters
 3741.00                                 [l_ini (A)]
 7218.00                                 [l_fin (A)]
    1.00                                 [dl    (A)]     (OBS: dl_cushion =    50.00 A)

## Normalization info
 4020.00                                 [l_norm (A) - for base]
 4010.00                                 [llow_norm (A) - window for f_obs]
 4060.00                                 [lupp_norm (A) - window for f_obs]
3.653310E-18                             [fobs_norm (in input units)]

## S/N
 3691.00                                 [llow_SN (A) - window for S/N]
 7268.00                                 [lupp_SN (A) - window for S/N]
   2.336                                 [S/N in S/N window]
   1.512                                 [S/N in norm. window]
   0.007                                 [S/N_err in S/N window]
   0.004                                 [S/N_err in norm. window]
  1.0000                                 [fscale_chi2]

## etc...
    -2007906                             [idum_orig]
  2382                                   [NOl_eff]
  2184                                   [Nl_eff]
   198    NSIGMA                         [Ntot_cliped & clip_method]
  5246500                                [Nglobal_steps]
   7                                     [N_chains]
   7                                     [NEX0s_base = N_base in EX0s-fits]
 0   0   1      198   2.0   2.285E+03    [Clip-Bug, RC-Crash & Burn-In warning-flags, n_censored_weights, wei_nsig_threshold & wei_limit]
    54     51.957     50.559      1.398  [idt_all, wdt_TotTime, wdt_UsrTime & wdt_SysTime (sec)]

## Synthesis Results - Best model ##

 1.52805E-05                             [chi2/Nl_eff]
    39.18374                             [adev (%)]

   130.00000                             [sum-of-x (%)]
 3.36256E-16                             [Flux_tot (units of input spectrum!)]
 1.78198E-14                             [Mini_tot (???)]
 1.78155E-14                             [Mcor_tot (???)]

 -42.20                                  [v0_min  (km/s)]
   0.00                                  [vd_min  (km/s)]
 3.1717                                  [AV_min  (mag)]
 0.0000                                  [YAV_min (mag)]

# j     x_j(%)      Mini_j(%)     Mcor_j(%)     age_j(yr)     Z_j      (L/M)_j    YAV?  Mstars   component_j        a/Fe...       SSP_chi2r SSP_adev(%)   SSP_AV   SSP_x(%)
  1     35.4738     4.7067E+01    4.7078E+01    1.000000E+06  0.00400  1.094E-02    0   1.0000   age020_m42            0.0000     1.0356E-05    39.0730   2.1706   199.8715
  2      0.0000     0.0000E+00    0.0000E+00    3.160000E+06  0.00400  4.007E-02    0   0.9999   age045_m42            0.0000     1.0542E-05    40.3756   1.5434   204.8409
  3      0.0000     0.0000E+00    0.0000E+00    5.010000E+06  0.00400  2.539E-02    0   0.9488   age055_m42            0.0000     1.0399E-05    39.6095   1.8183   203.7772
  4      0.3142     1.7409E-01    1.6055E-01    6.610000E+06  0.00400  2.620E-02    0   0.9220   age061_m42            0.0000     1.0520E-05    40.4362   1.4762   204.9328
  5      0.0000     0.0000E+00    0.0000E+00    1.000000E+07  0.00400  1.322E-02    0   0.8862   age070_m42            0.0000     1.0641E-05    41.6323   1.2173   208.2299
  6      0.0000     0.0000E+00    0.0000E+00    1.445000E+07  0.00400  7.883E-03    0   0.8571   age078_m42            0.0000     1.0517E-05    40.8038   1.5078   205.8957
  7      0.0000     0.0000E+00    0.0000E+00    2.512000E+07  0.00400  5.251E-03    0   0.8174   age090_m42            0.0000     1.0642E-05    41.7728   1.0990   208.6132
  8      0.0000     0.0000E+00    0.0000E+00    4.000000E+07  0.00400  3.649E-03    0   0.7851   age104_m42            0.0000     1.0651E-05    41.8177   0.8838   209.0788
  9      0.0000     0.0000E+00    0.0000E+00    5.500000E+07  0.00400  3.098E-03    0   0.7629   age110_m42            0.0000     1.0629E-05    41.4576   1.0433   208.1522
 10      0.0000     0.0000E+00    0.0000E+00    1.015200E+08  0.00400  2.228E-03    0   0.7207   age116_m42            0.0000     1.0651E-05    41.4478   1.0724   207.5649
 11      0.0000     0.0000E+00    0.0000E+00    2.861200E+08  0.00400  1.093E-03    0   0.6648   age125_m42            0.0000     1.0878E-05    42.9245   0.5368   210.4289
 12      0.0000     0.0000E+00    0.0000E+00    5.088000E+08  0.00400  6.597E-04    0   0.6365   age130_m42            0.0000     1.0844E-05    42.6040   0.5338   211.1506
 13      0.0000     0.0000E+00    0.0000E+00    1.434000E+09  0.00400  2.132E-04    0   0.5798   age139_m42            0.0000     1.0724E-05    42.7878  -0.4114   213.1180
 14      0.0000     0.0000E+00    0.0000E+00    4.250000E+09  0.00400  5.895E-05    0   0.5377   age158_m42            0.0000     1.0458E-05    41.2793  -0.9122   209.3206
 15      0.0000     0.0000E+00    0.0000E+00    7.500000E+09  0.00400  3.510E-05    0   0.5212   age171_m42            0.0000     1.0486E-05    42.0452  -1.0000   203.8504
 16      0.0000     0.0000E+00    0.0000E+00    1.300000E+10  0.00400  2.005E-05    0   0.5034   age193_m42            0.0000     1.0735E-05    44.0824  -1.0000   195.5358
 17      0.0000     0.0000E+00    0.0000E+00    1.800000E+10  0.00400  1.525E-05    0   0.4967   age213_m42            0.0000     1.0748E-05    44.4221  -1.0000   193.9103
 18      0.0000     0.0000E+00    0.0000E+00    1.000000E+06  0.00800  1.238E-02    0   1.0000   age020_m52            0.0000     1.0352E-05    39.0933   2.1664   200.3491
 19      0.0000     0.0000E+00    0.0000E+00    3.160000E+06  0.00800  3.074E-02    0   0.9966   age045_m52            0.0000     1.0322E-05    39.1133   2.0916   201.9089
 20      0.0000     0.0000E+00    0.0000E+00    5.010000E+06  0.00800  2.668E-02    0   0.9443   age055_m52            0.0000     1.0343E-05    39.4007   1.8846   203.3896
 21      0.0000     0.0000E+00    0.0000E+00    6.610000E+06  0.00800  2.136E-02    0   0.9177   age061_m52            0.0000     1.0570E-05    41.7902   0.7088   211.3640
 22      0.0000     0.0000E+00    0.0000E+00    1.000000E+07  0.00800  1.215E-02    0   0.8827   age070_m52            0.0000     1.0623E-05    41.7680   1.3799   209.2328
 23      0.0000     0.0000E+00    0.0000E+00    1.445000E+07  0.00800  8.717E-03    0   0.8552   age078_m52            0.0000     1.0521E-05    41.0516   1.4826   207.9850
 24      0.0000     0.0000E+00    0.0000E+00    2.512000E+07  0.00800  5.592E-03    0   0.8162   age090_m52            0.0000     1.0623E-05    41.9386   1.1656   210.7419
 25      0.0000     0.0000E+00    0.0000E+00    4.000000E+07  0.00800  3.896E-03    0   0.7841   age104_m52            0.0000     1.0609E-05    41.8756   1.0880   211.0546
 26      0.0000     0.0000E+00    0.0000E+00    1.015200E+08  0.00800  2.148E-03    0   0.7226   age116_m52            0.0000     1.0602E-05    41.6586   1.0355   209.5578
 27      0.0000     0.0000E+00    0.0000E+00    2.861200E+08  0.00800  9.925E-04    0   0.6683   age125_m52            0.0000     1.0766E-05    42.6302   0.5993   213.1312
 28      0.0000     0.0000E+00    0.0000E+00    9.047900E+08  0.00800  3.141E-04    0   0.6138   age135_m52            0.0000     1.0658E-05    42.7858  -0.1753   218.9029
 29      0.0000     0.0000E+00    0.0000E+00    1.434000E+09  0.00800  1.719E-04    0   0.5853   age139_m52            0.0000     1.0463E-05    42.2655  -0.7902   217.1915
 30      0.0000     0.0000E+00    0.0000E+00    2.500000E+09  0.00800  7.872E-05    0   0.5600   age150_m52            0.0000     1.0394E-05    41.9603  -1.0000   209.8758
 31      0.0000     0.0000E+00    0.0000E+00    4.250000E+09  0.00800  4.336E-05    0   0.5426   age158_m52            0.0000     1.0413E-05    42.1138  -1.0000   207.4820
 32      0.0000     0.0000E+00    0.0000E+00    6.250000E+09  0.00800  3.159E-05    0   0.5319   age166_m52            0.0000     1.0700E-05    44.4164  -1.0000   198.3134
 33      0.0000     0.0000E+00    0.0000E+00    1.300000E+10  0.00800  1.361E-05    0   0.5073   age193_m52            0.0000     1.2178E-05    51.1580  -1.0000   174.7401
 34      0.0000     0.0000E+00    0.0000E+00    1.800000E+10  0.00800  9.886E-06    0   0.4990   age213_m52            0.0000     1.2753E-05    52.4562  -1.0000   168.3625
 35      0.0000     0.0000E+00    0.0000E+00    1.000000E+06  0.02000  1.544E-02    0   1.0000   age020_m62            0.0000     1.0353E-05    39.1606   2.1582   201.1275
 36      0.0000     0.0000E+00    0.0000E+00    3.160000E+06  0.02000  3.762E-02    0   0.9858   age045_m62            0.0000     1.0312E-05    39.1240   2.0947   203.1020
 37      0.0000     0.0000E+00    0.0000E+00    5.010000E+06  0.02000  3.296E-02    0   0.9342   age055_m62            0.0000     1.0399E-05    39.6822   1.7887   205.2461
 38      0.0000     0.0000E+00    0.0000E+00    8.710000E+06  0.02000  1.154E-02    0   0.8861   age067_m62            0.0000     1.0972E-05    44.4908   0.8387   216.0504
 39      0.0000     0.0000E+00    0.0000E+00    1.445000E+07  0.02000  7.663E-03    0   0.8472   age078_m62            0.0000     1.0690E-05    42.6704   1.0355   213.3513
 40      0.0000     0.0000E+00    0.0000E+00    2.512000E+07  0.02000  4.532E-03    0   0.8099   age090_m62            0.0000     1.0701E-05    42.6467   1.0349   212.1629
 41      0.0000     0.0000E+00    0.0000E+00    5.500000E+07  0.02000  2.733E-03    0   0.7595   age110_m62            0.0000     1.0567E-05    41.6466   1.0600   210.4777
 42      0.0000     0.0000E+00    0.0000E+00    1.609000E+08  0.02000  1.369E-03    0   0.6985   age120_m62            0.0000     1.0679E-05    42.1419   0.9406   212.0989
 43      0.0000     0.0000E+00    0.0000E+00    2.861200E+08  0.02000  9.013E-04    0   0.6714   age125_m62            0.0000     1.0761E-05    42.5427   0.7181   215.2580
 44      0.0000     0.0000E+00    0.0000E+00    5.088000E+08  0.02000  5.028E-04    0   0.6449   age130_m62            0.0000     1.0705E-05    42.3957   0.3577   218.6743
 45      0.0000     0.0000E+00    0.0000E+00    9.047900E+08  0.02000  2.428E-04    0   0.6179   age135_m62            0.0000     1.0432E-05    41.7979  -0.2572   219.2398
 46      0.0000     0.0000E+00    0.0000E+00    1.434000E+09  0.02000  1.263E-04    0   0.5908   age139_m62            0.0000     1.0278E-05    41.2488  -0.7276   218.1252
 47      0.0000     0.0000E+00    0.0000E+00    2.500000E+09  0.02000  5.985E-05    0   0.5673   age150_m62            0.0000     1.0289E-05    41.8438  -1.0000   211.6898
 48      0.0000     0.0000E+00    0.0000E+00    4.250000E+09  0.02000  3.271E-05    0   0.5468   age158_m62            0.0000     1.0874E-05    45.3773  -1.0000   195.9143
 49      0.0000     0.0000E+00    0.0000E+00    1.000000E+10  0.02000  1.360E-05    0   0.5167   age181_m62            0.0000     1.2148E-05    50.1430  -1.0000   177.8775
 50      0.0000     0.0000E+00    0.0000E+00    1.800000E+10  0.02000  7.124E-06    0   0.5013   age213_m62            0.0000     1.3294E-05    52.8271  -1.0000   165.7511
 51     94.2120     5.2759E+01    5.2761E+01    1.000000E+06  0.05000  2.592E-02    0   0.9998   age020_m72            0.0000     1.0352E-05    39.2559   2.1404   202.0082
 52      0.0000     0.0000E+00    0.0000E+00    3.160000E+06  0.05000  4.845E-02    0   0.9577   age045_m72            0.0000     1.0258E-05    38.8234   1.9970   203.9598
 53      0.0000     0.0000E+00    0.0000E+00    5.010000E+06  0.05000  3.072E-02    0   0.9147   age055_m72            0.0000     1.0495E-05    41.2357   1.5617   209.3637
 54      0.0000     0.0000E+00    0.0000E+00    6.610000E+06  0.05000  1.455E-02    0   0.8877   age061_m72            0.0000     1.1377E-05    46.5387   0.8615   218.4601
 55      0.0000     0.0000E+00    0.0000E+00    1.000000E+07  0.05000  9.074E-03    0   0.8524   age070_m72            0.0000     1.0601E-05    41.6500   1.7257   209.0045
 56      0.0000     0.0000E+00    0.0000E+00    2.512000E+07  0.05000  4.250E-03    0   0.7902   age090_m72            0.0000     1.0588E-05    41.5604   1.4804   209.0345
 57      0.0000     0.0000E+00    0.0000E+00    4.000000E+07  0.05000  3.087E-03    0   0.7618   age104_m72            0.0000     1.0693E-05    42.2257   1.2794   210.3427
 58      0.0000     0.0000E+00    0.0000E+00    1.015200E+08  0.05000  1.700E-03    0   0.7096   age116_m72            0.0000     1.0715E-05    42.3427   1.0752   211.8541
 59      0.0000     0.0000E+00    0.0000E+00    2.861200E+08  0.05000  7.384E-04    0   0.6633   age125_m72            0.0000     1.0649E-05    42.3419   0.5891   217.5014
 60      0.0000     0.0000E+00    0.0000E+00    5.088000E+08  0.05000  3.819E-04    0   0.6372   age130_m72            0.0000     1.0394E-05    41.7528   0.0859   221.4250
 61      0.0000     0.0000E+00    0.0000E+00    9.047900E+08  0.05000  1.676E-04    0   0.6110   age135_m72            0.0000     1.0110E-05    40.6389  -0.6611   220.9462
 62      0.0000     0.0000E+00    0.0000E+00    1.434000E+09  0.05000  8.837E-05    0   0.5874   age139_m72            0.0000     1.0244E-05    41.8490  -1.0000   214.5615
 63      0.0000     0.0000E+00    0.0000E+00    2.500000E+09  0.05000  4.233E-05    0   0.5598   age150_m72            0.0000     1.0851E-05    45.2821  -1.0000   197.6157
 64      0.0000     0.0000E+00    0.0000E+00    6.250000E+09  0.05000  1.435E-05    0   0.5249   age166_m72            0.0000     1.2628E-05    51.5062  -1.0000   172.3349
 65      0.0000     0.0000E+00    0.0000E+00    1.300000E+10  0.05000  6.513E-06    0   0.5036   age193_m72            0.0000     1.4466E-05    55.0204  -1.0000   159.1111
 66      0.0000     0.0000E+00    0.0000E+00    1.800000E+10  0.05000  4.527E-06    0   0.4945   age213_m72            0.0000     1.5686E-05    56.6462  -1.0000   150.2158


## Synthesis Results - Average & Chains ##

# j      x_j: min, <> & last-chain-values for 1 ...  7 chains
  1     35.4738     10.2200      3.2381      9.4874      3.1172     25.2467      9.6724      7.8859      9.0175
  2      0.0000      0.1675      0.0119      0.0417      0.0060      0.0263      0.1062      0.0876      0.1091
  3      0.0000      0.1538      0.0150      0.0742      0.0002      0.0767      0.0000      0.1095      0.0035
  4      0.3142      0.1455      0.0173      0.0055      0.0794      0.0431      0.0271      0.0430      0.0000
  5      0.0000      0.1394      0.0284      0.0629      0.0000      0.0100      0.0394      0.0217      0.0363
  6      0.0000      0.1225      0.0167      0.0479      0.0245      0.0272      0.0389      0.0937      0.0389
  7      0.0000      0.1993      0.0155      0.0171      0.0018      0.0679      0.0617      0.0085      0.0290
  8      0.0000      0.2000      0.0116      0.0064      0.0000      0.0372      0.0886      0.0428      0.0105
  9      0.0000      0.2950      0.0163      0.0136      0.0348      0.0096      0.0113      0.0000      0.0060
 10      0.0000      0.1231      0.0093      0.0000      0.0000      0.0078      0.0000      0.0834      0.0004
 11      0.0000      0.2125      0.0127      0.0000      0.0146      0.0423      0.1354      0.0000      0.0833
 12      0.0000      0.1483      0.0123      0.0000      0.0110      0.0000      0.0799      0.0000      0.0000
 13      0.0000      0.1592      0.0138      0.0994      0.0109      0.2545      0.0000      0.0568      0.0524
 14      0.0000      0.2036      0.0162      0.0197      0.0001      0.0000      0.0073      0.0737      0.0000
 15      0.0000      0.1902      0.0205      0.0332      0.0338      0.0512      0.0196      0.0000      0.2629
 16      0.0000      0.1793      0.0267      0.0087      0.0021      0.0584      0.0256      0.0000      0.2060
 17      0.0000      0.2407      0.0114      0.0314      0.0000      0.0930      0.0015      0.0162      0.0530
 18      0.0000      0.2119      0.0199      0.2185      0.0000      0.0560      0.0432      0.0000      0.0044
 19      0.0000      0.1771      0.0191      0.0000      0.0000      0.0032      0.1948      0.0000      0.0151
 20      0.0000      0.2007      0.0275      0.0005      0.0092      0.0271      0.0090      0.1436      0.0804
 21      0.0000      0.2319      0.0303      0.0318      0.0145      0.0898      0.0154      0.0818      0.1050
 22      0.0000      0.2367      0.0240      0.0032      0.0093      0.1534      0.0048      0.0992      0.0655
 23      0.0000      0.2414      0.0156      0.0299      0.0447      0.0917      0.0648      0.0417      0.0232
 24      0.0000      0.3054      0.0108      0.0816      0.0740      0.0000      0.0796      0.0252      0.1887
 25      0.0000      0.1936      0.0163      0.0272      0.0525      0.0483      0.0000      0.0968      0.0322
 26      0.0000      0.1754      0.0163      0.0037      0.0807      0.0798      0.0000      0.0000      0.1292
 27      0.0000      0.2562      0.0478      0.0029      0.0178      0.1275      0.0000      0.0111      0.0246
 28      0.0000      0.2217      0.0239      0.0000      0.0000      0.0154      0.0513      0.0114      0.0508
 29      0.0000      0.1637      0.0166      0.0800      0.0569      0.0656      0.0319      0.0120      0.0162
 30      0.0000      0.1654      0.0251      0.0000      0.0053      0.0196      0.0000      0.0526      0.0138
 31      0.0000      0.1901      0.0193      0.0414      0.0000      0.0193      0.0812      0.0044      0.0000
 32      0.0000      0.1903      0.0115      0.0131      0.0101      0.0049      0.0000      0.1398      0.0456
 33      0.0000      0.2169      0.0126      0.0289      0.0304      0.0142      0.0264      0.0848      0.0000
 34      0.0000      0.1731      0.0242      0.0164      0.0000      0.0092      0.0932      0.0342      0.0160
 35      0.0000      0.1607      0.0316      0.0125      0.0022      0.0000      0.0485      0.0403      0.0000
 36      0.0000      0.2321      0.0236      0.1592      0.0273      0.1719      0.0089      0.0749      0.0822
 37      0.0000      0.1546      0.0166      0.0622      0.0347      0.0030      0.0070      0.0148      0.0238
 38      0.0000      0.1356      0.0152      0.0483      0.0216      0.0000      0.0445      0.0052      0.0266
 39      0.0000      0.2419      0.0120      0.0685      0.0603      0.0242      0.0949      0.0356      0.0111
 40      0.0000      0.1553      0.0280      0.0146      0.0000      0.0000      0.0218      0.0261      0.0146
 41      0.0000      0.1556      0.0119      0.0562      0.0000      0.1801      0.0167      0.0535      0.0338
 42      0.0000      0.1608      0.0180      0.0224      0.0021      0.0382      0.0292      0.0000      0.0000
 43      0.0000      0.1999      0.0195      0.0383      0.0720      0.0000      0.0000      0.1312      0.0187
 44      0.0000      0.1739      0.0086      0.0143      0.0508      0.0379      0.0300      0.1223      0.0526
 45      0.0000      0.1981      0.0096      0.0707      0.0250      0.0000      0.0762      0.0220      0.0000
 46      0.0000      0.1879      0.0174      0.0179      0.0316      0.0217      0.0366      0.0463      0.0367
 47      0.0000      0.2479      0.0179      0.0391      0.0162      0.0219      0.0000      0.0003      0.0000
 48      0.0000      0.2133      0.0165      0.0516      0.0027      0.0074      0.0734      0.0468      0.0000
 49      0.0000      0.1929      0.0211      0.1357      0.0316      0.0000      0.0721      0.0655      0.0000
 50      0.0000      0.1693      0.0317      0.0063      0.0219      0.0000      0.0549      0.0000      0.1900
 51     94.2120    107.1956    125.5235    118.0672    125.7055    101.8543    117.9463    119.5692    118.3583
 52      0.0000      0.2005      0.0324      0.0208      0.0171      0.1601      0.0343      0.0212      0.0736
 53      0.0000      0.2286      0.0171      0.0027      0.0183      0.0000      0.1122      0.0420      0.0169
 54      0.0000      0.1476      0.0148      0.0000      0.0008      0.0000      0.0000      0.0000      0.0543
 55      0.0000      0.1574      0.0312      0.0000      0.0000      0.0627      0.0318      0.0226      0.0000
 56      0.0000      0.1541      0.0135      0.0799      0.0000      0.0216      0.0087      0.1357      0.0041
 57      0.0000      0.2346      0.0161      0.0644      0.0179      0.0185      0.0720      0.0000      0.0972
 58      0.0000      0.3037      0.0097      0.0110      0.0441      0.0436      0.0000      0.0305      0.0000
 59      0.0000      0.3016      0.0180      0.0084      0.0112      0.0428      0.0629      0.0500      0.0000
 60      0.0000      0.1906      0.0207      0.0694      0.0079      0.0837      0.0000      0.0372      0.0616
 61      0.0000      0.1341      0.0304      0.1011      0.0000      0.0000      0.0423      0.0092      0.0666
 62      0.0000      0.2267      0.0329      0.0685      0.0000      0.0702      0.0000      0.0235      0.0000
 63      0.0000      0.1852      0.0149      0.0577      0.0033      0.0406      0.0000      0.0000      0.0105
 64      0.0000      0.1582      0.0187      0.0265      0.0155      0.0579      0.0189      0.0055      0.0460
 65      0.0000      0.2139      0.0162      0.0000      0.0000      0.1044      0.0105      0.0000      0.0010
 66      0.0000      0.2213      0.0202      0.0201      0.0164      0.0361      0.0136      0.0000      0.0000

# j      m_j: min, <> & last-chain-values for 1 ...  7 chains
  1  4.7078E+01  7.3618E-01  1.6883E+00  3.8227E+00  2.1781E+00  7.6899E+00  3.5188E+00  3.8143E+00  2.4059E+00
  2  0.0000E+00  3.2932E-03  1.6969E-03  4.5873E-03  1.1510E-03  2.1874E-03  1.0543E-02  1.1564E-02  7.9440E-03
  3  0.0000E+00  4.5298E-03  3.1934E-03  1.2223E-02  6.7956E-05  9.5529E-03  0.0000E+00  2.1656E-02  3.8125E-04
  4  1.6055E-01  4.0361E-03  3.4629E-03  8.5351E-04  2.1361E-02  5.0533E-03  3.7978E-03  8.0041E-03  0.0000E+00
  5  0.0000E+00  7.3619E-03  1.0858E-02  1.8573E-02  0.0000E+00  2.2383E-03  1.0521E-02  7.7042E-03  7.1010E-03
  6  0.0000E+00  1.0500E-02  1.0361E-02  2.2962E-02  2.0393E-02  9.8397E-03  1.6833E-02  5.3890E-02  1.2344E-02
  7  0.0000E+00  2.4444E-02  1.3780E-02  1.1737E-02  2.1660E-03  3.5231E-02  3.8241E-02  6.9630E-03  1.3183E-02
  8  0.0000E+00  3.3918E-02  1.4286E-02  6.0262E-03  0.0000E+00  2.6659E-02  7.5833E-02  4.8759E-02  6.6231E-03
  9  0.0000E+00  5.7254E-02  2.2896E-02  1.4743E-02  6.5594E-02  7.8378E-03  1.1112E-02  0.0000E+00  4.2775E-03
 10  0.0000E+00  3.1389E-02  1.7173E-02  0.0000E+00  0.0000E+00  8.3897E-03  0.0000E+00  1.4282E-01  3.9104E-04
 11  0.0000E+00  1.0183E-01  4.4124E-02  0.0000E+00  6.8085E-02  8.5702E-02  3.2783E-01  0.0000E+00  1.4781E-01
 12  0.0000E+00  1.1276E-01  6.7627E-02  0.0000E+00  8.1087E-02  0.0000E+00  3.0693E-01  0.0000E+00  0.0000E+00
 13  0.0000E+00  3.4112E-01  2.1439E-01  1.1915E+00  2.2580E-01  2.3063E+00  0.0000E+00  8.1689E-01  4.1582E-01
 14  0.0000E+00  1.4637E+00  8.4108E-01  7.9246E-01  6.6035E-03  0.0000E+00  2.6501E-01  3.5561E+00  0.0000E+00
 15  0.0000E+00  2.2261E+00  1.7359E+00  2.1715E+00  3.8410E+00  2.5338E+00  1.1555E+00  0.0000E+00  1.1396E+01
 16  0.0000E+00  3.5474E+00  3.8248E+00  9.5837E-01  4.0377E-01  4.8892E+00  2.5626E+00  0.0000E+00  1.5099E+01
 17  0.0000E+00  6.1788E+00  2.1169E+00  4.5080E+00  0.0000E+00  1.0091E+01  1.9075E-01  2.7945E+00  5.0380E+00
 18  0.0000E+00  1.3491E-02  9.1762E-03  7.7791E-02  0.0000E+00  1.5086E-02  1.3904E-02  0.0000E+00  1.0434E-03
 19  0.0000E+00  4.5236E-03  3.5231E-03  0.0000E+00  0.0000E+00  3.4774E-04  2.5141E-02  0.0000E+00  1.4315E-03
 20  0.0000E+00  5.5983E-03  5.5607E-03  8.1901E-05  2.4984E-03  3.1993E-03  1.2685E-03  2.6892E-02  8.3082E-03
 21  0.0000E+00  7.8519E-03  7.4315E-03  6.0276E-03  4.7618E-03  1.2862E-02  2.6366E-03  1.8597E-02  1.3172E-02
 22  0.0000E+00  1.3551E-02  9.9514E-03  1.0238E-03  5.1712E-03  3.7142E-02  1.3836E-03  3.8119E-02  1.3884E-02
 23  0.0000E+00  1.8664E-02  8.7271E-03  1.2927E-02  3.3499E-02  2.9975E-02  2.5289E-02  2.1653E-02  6.6552E-03
 24  0.0000E+00  3.5123E-02  8.9904E-03  5.2497E-02  8.2601E-02  0.0000E+00  4.6232E-02  1.9470E-02  8.0374E-02
 25  0.0000E+00  3.0704E-02  1.8712E-02  2.4161E-02  8.0768E-02  3.2394E-02  0.0000E+00  1.0308E-01  1.8917E-02
 26  0.0000E+00  4.6488E-02  3.1320E-02  5.5305E-03  2.0741E-01  8.9430E-02  0.0000E+00  0.0000E+00  1.2685E-01
 27  0.0000E+00  1.3595E-01  1.8377E-01  8.6505E-03  9.1721E-02  2.8612E-01  0.0000E+00  3.9672E-02  4.8297E-02
 28  0.0000E+00  3.4137E-01  2.6688E-01  0.0000E+00  0.0000E+00  1.0060E-01  3.9882E-01  1.1774E-01  2.8983E-01
 29  0.0000E+00  4.3936E-01  3.2269E-01  1.2009E+00  1.4797E+00  7.4415E-01  4.3176E-01  2.1613E-01  1.6061E-01
 30  0.0000E+00  9.2748E-01  1.0169E+00  0.0000E+00  2.8829E-01  4.6458E-01  0.0000E+00  1.9785E+00  2.8586E-01
 31  0.0000E+00  1.8748E+00  1.3807E+00  2.2855E+00  0.0000E+00  8.0559E-01  4.0462E+00  2.9380E-01  0.0000E+00
 32  0.0000E+00  2.5245E+00  1.1082E+00  9.6966E-01  1.3043E+00  2.7238E-01  0.0000E+00  1.2454E+01  2.2430E+00
 33  0.0000E+00  6.3711E+00  2.6754E+00  4.7541E+00  8.6652E+00  1.7584E+00  3.9205E+00  1.6716E+01  0.0000E+00
 34  0.0000E+00  6.8872E+00  6.9553E+00  3.6492E+00  0.0000E+00  1.5502E+00  1.8730E+01  9.1350E+00  2.3580E+00
 35  0.0000E+00  8.2033E-03  1.1676E-02  3.5683E-03  1.0874E-03  0.0000E+00  1.2500E-02  1.3828E-02  0.0000E+00
 36  0.0000E+00  4.7935E-03  3.5343E-03  1.8385E-02  5.4652E-03  1.5010E-02  9.2586E-04  1.0389E-02  6.2838E-03
 37  0.0000E+00  3.4528E-03  2.6816E-03  7.7742E-03  7.5125E-03  2.8219E-04  7.8980E-04  2.2255E-03  1.9712E-03
 38  0.0000E+00  8.2035E-03  6.6413E-03  1.6334E-02  1.2664E-02  0.0000E+00  1.3610E-02  2.1178E-03  5.9702E-03
 39  0.0000E+00  2.1073E-02  7.5923E-03  3.3392E-02  5.0992E-02  8.8969E-03  4.1762E-02  2.0803E-02  3.5965E-03
 40  0.0000E+00  2.1864E-02  2.8544E-02  1.1525E-02  0.0000E+00  0.0000E+00  1.5513E-02  2.4642E-02  7.6382E-03
 41  0.0000E+00  3.4069E-02  1.8917E-02  6.8855E-02  0.0000E+00  1.6675E-01  1.8431E-02  7.8688E-02  2.7408E-02
 42  0.0000E+00  6.4671E-02  5.2284E-02  5.0490E-02  8.3704E-03  6.5016E-02  5.9347E-02  0.0000E+00  0.0000E+00
 43  0.0000E+00  1.1732E-01  8.2746E-02  1.2585E-01  4.1002E-01  0.0000E+00  0.0000E+00  5.1701E-01  4.0732E-02
 44  0.0000E+00  1.7574E-01  6.2822E-02  8.0666E-02  4.9790E-01  1.6183E-01  1.5308E-01  8.3021E-01  1.9697E-01
 45  0.0000E+00  3.9728E-01  1.3928E-01  7.9360E-01  4.8539E-01  0.0000E+00  7.7192E-01  2.9598E-01  0.0000E+00
 46  0.0000E+00  6.9269E-01  4.6337E-01  3.6934E-01  1.1316E+00  3.3887E-01  6.8105E-01  1.1456E+00  5.0100E-01
 47  0.0000E+00  1.8517E+00  9.6706E-01  1.6329E+00  1.1743E+00  6.9296E-01  0.0000E+00  1.4477E-02  0.0000E+00
 48  0.0000E+00  2.8097E+00  1.5691E+00  3.8007E+00  3.4432E-01  4.1010E-01  4.8802E+00  4.1372E+00  0.0000E+00
 49  0.0000E+00  5.7765E+00  4.5802E+00  2.2726E+01  9.1828E+00  0.0000E+00  1.0903E+01  1.3177E+01  0.0000E+00
 50  0.0000E+00  9.3880E+00  1.2711E+01  1.9688E+00  1.1759E+01  0.0000E+00  1.5377E+01  0.0000E+00  3.9031E+01
 51  5.2761E+01  3.2584E+00  2.7617E+01  2.0074E+01  3.7065E+01  1.3092E+01  1.8107E+01  2.4405E+01  1.3326E+01
 52  0.0000E+00  3.1236E-03  3.6547E-03  1.8102E-03  2.5830E-03  1.0543E-02  2.7005E-03  2.2140E-03  4.2481E-03
 53  0.0000E+00  5.3633E-03  2.9069E-03  3.5875E-04  4.1704E-03  0.0000E+00  1.3301E-02  6.6113E-03  1.4715E-03
 54  0.0000E+00  7.0966E-03  5.1518E-03  0.0000E+00  3.9274E-04  0.0000E+00  0.0000E+00  0.0000E+00  9.6654E-03
 55  0.0000E+00  1.1655E-02  1.6729E-02  0.0000E+00  0.0000E+00  1.9616E-02  1.1882E-02  1.1221E-02  0.0000E+00
 56  0.0000E+00  2.2572E-02  1.4336E-02  6.5513E-02  0.0000E+00  1.3361E-02  6.4130E-03  1.3352E-01  2.2266E-03
 57  0.0000E+00  4.5626E-02  2.2643E-02  7.0000E-02  3.3737E-02  1.5200E-02  7.0737E-02  0.0000E+00  7.0028E-02
 58  0.0000E+00  9.9914E-02  2.3185E-02  2.0212E-02  1.4073E-01  6.0689E-02  0.0000E+00  6.7449E-02  0.0000E+00
 59  0.0000E+00  2.1354E-01  9.2266E-02  3.3127E-02  7.6633E-02  1.2818E-01  2.2483E-01  2.3776E-01  0.0000E+00
 60  0.0000E+00  2.5064E-01  1.9669E-01  5.1070E-01  1.0037E-01  4.6540E-01  0.0000E+00  3.2831E-01  3.0008E-01
 61  0.0000E+00  3.8536E-01  6.3295E-01  1.6252E+00  0.0000E+00  0.0000E+00  6.1342E-01  1.7777E-01  7.0847E-01
 62  0.0000E+00  1.1873E+00  1.2487E+00  2.0059E+00  0.0000E+00  1.5548E+00  0.0000E+00  8.2808E-01  0.0000E+00
 63  0.0000E+00  1.9300E+00  1.1272E+00  3.3625E+00  3.3372E-01  1.7912E+00  0.0000E+00  0.0000E+00  4.0669E-01
 64  0.0000E+00  4.5608E+00  3.9019E+00  4.2777E+00  4.3304E+00  7.0532E+00  2.7473E+00  1.0694E+00  4.9157E+00
 65  0.0000E+00  1.3032E+01  7.1431E+00  0.0000E+00  0.0000E+00  2.6897E+01  3.2290E+00  0.0000E+00  2.2255E-01
 66  0.0000E+00  1.9049E+01  1.2600E+01  9.6600E+00  1.3679E+01  1.3134E+01  5.9073E+00  0.0000E+00  0.0000E+00

# AV, chi2 & Mass for <> & i_chain = 1 ...  7 solutions
AV       3.1717      3.1028      3.1317      3.1008      3.1413      3.0918      3.1053      3.1073      3.0826
chi2 1.5280E-05  1.6602E-05  1.5399E-05  1.5448E-05  1.5380E-05  1.5437E-05  1.5434E-05  1.5429E-05  1.5470E-05
Mass 1.7815E-14  2.9922E-13  4.2974E-14  5.3349E-14  3.2482E-14  6.9723E-14  5.9445E-14  4.4830E-14  7.8620E-14
 -42.20                                  [v0_min (km/s) before EX0s...]
   0.00                                  [vd_min (km/s) before EX0s...]


## Synthetic spectrum (Best Model) ##l_obs f_obs f_syn wei
 3478    [Nl_obs]
 3741.00    0.83717   1.24712    0.000
 3742.00    1.47267   1.24814    0.000
 3743.00    2.61095   1.24245    0.000
 3744.00    1.10218   1.22861    0.000
 3745.00   -1.94888   1.20862    0.000
 3746.00   -1.68611   1.18392    0.000
 3747.00    0.25944   1.14846   -1.000
 3748.00    0.05138   1.09812   -1.000
 3749.00   -1.10368   1.05265    0.000
 3750.00   -0.11323   1.04752    0.000
 3751.00    1.68721   1.08728   -1.000
 3752.00    2.86021   1.13351   -1.000
 3753.00    3.83212   1.15014   -1.000
 3754.00    4.69684   1.15399   -1.000
 3755.00    5.53283   1.17454   -1.000
 3756.00    5.49295   1.19378   -1.000
 3757.00    5.26082   1.20233   -1.000
 3758.00    2.51272   1.19829   -1.000
 3759.00   -0.67459   1.18368    0.000
 3760.00    2.31836   1.19607   -1.000
 3761.00    6.13229   1.22683   -1.000
 3762.00    5.16141   1.24120   -1.000
 3763.00    3.74088   1.24440   -1.000
 3764.00    5.13949   1.23989   -1.000
 3765.00    6.70073   1.22243   -1.000
 3766.00    2.93948   1.19495   -1.000
 3767.00   -0.90511   1.15706    0.000
 3768.00    0.46020   1.10061   -1.000
 3769.00    1.70747   1.03227   -1.000
 3770.00    0.08707   0.99249   -1.000
 3771.00   -1.48407   1.01411    0.000
 3772.00   -2.40980   1.06857    0.000
 3773.00   -3.09734   1.11671    0.000
 3774.00   -1.69392   1.16352    0.000
 3775.00   -0.43259   1.20884    0.000
 3776.00   -0.09261   1.23675    0.000
 3777.00    0.21238   1.25145   -1.000
 3778.00    0.34021   1.26282   -1.000
 3779.00    0.52046   1.27189   -1.000
 3780.00    0.91525   1.27836   -1.000
 3781.00    1.73130   1.28223   -1.000
 3782.00    3.97613   1.28444   -1.000
 3783.00    5.52352   1.28582   -1.000
 3784.00    5.07616   1.28603   -1.000
 3785.00    4.48253   1.28567   -1.000
 3786.00    3.53151   1.28481   -1.000
 3787.00    2.98479   1.28237   -1.000
 3788.00    3.29018   1.27696   -1.000
 3789.00    2.95980   1.26055   -1.000
 3790.00    1.46490   1.23006   -1.000
 3791.00    0.25903   1.20794   -1.000
 3792.00   -0.48415   1.20339    0.000
 3793.00   -1.61800   1.19028    0.000
 3794.00   -3.30058   1.15252    0.000
 3795.00   -2.95816   1.09021    0.000
 3796.00   -0.11281   1.01054    0.000
 3797.00    1.87632   0.95209   -1.000
 3798.00    2.93261   0.96346   -1.000
 3799.00    2.46706   1.03451   -1.000
 3800.00    0.53905   1.11233   -1.000
 3801.00   -0.17765   1.16865    0.000
 3802.00    0.13211   1.20610   -1.000
 3803.00    0.40758   1.23159   -1.000
 3804.00    0.65746   1.24770   -1.000
 3805.00    1.02078   1.25716   -1.000
 3806.00    1.45847   1.26525   -1.000
 3807.00    1.28590   1.27539   -1.000
 3808.00    0.76314   1.28353   -1.000
 3809.00    0.25966   1.28603   -1.000
 3810.00   -0.23418   1.28552    0.000
 3811.00    1.09451   1.28541   -1.000
 3812.00    3.21134   1.28573   -1.000
 3813.00    4.48766   1.28628   -1.000
 3814.00    5.45226   1.28746   -1.000
 3815.00    4.21717   1.28688   -1.000
 3816.00    2.29059   1.28178   -1.000
 3817.00    1.23890   1.26338   -1.000
 3818.00    0.41672   1.22397   -1.000
 3819.00    0.67707   1.19582   -1.000
 3820.00    1.16937   1.21571   -1.000
 3821.00    1.49384   1.25681   -1.000
 3822.00    1.78983   1.28037   -1.000
 3823.00    2.57456   1.28597   -1.000
 3824.00    3.42200   1.28394   -1.000
 3825.00    3.27006   1.27938   -1.000
 3826.00    3.02842   1.27298   -1.000
 3827.00    2.21980   1.26324   -1.000
 3828.00    1.38070   1.24895   -1.000
 3829.00    1.32931   1.22941   -1.000
 3830.00    1.31540   1.20279   -1.000
 3831.00    3.13214   1.16441   -1.000
 3832.00    4.74985   1.10703   -1.000
 3833.00    1.94621   1.02448   -1.000
 3834.00   -0.64273   0.93757    0.000
 3835.00   -0.56185   0.90702    0.000
 3836.00   -0.40186   0.96075    0.000
 3837.00    0.42675   1.05041   -1.000
 3838.00    1.23608   1.12602   -1.000
 3839.00    1.92417   1.17846   -1.000
 3840.00    2.43545   1.21371   -1.000
 3841.00    2.07434   1.23750   -1.000
 3842.00    1.91267   1.25386   -1.000
 3843.00    2.54935   1.26567   -1.000
 3844.00    2.98638   1.27449   -1.000
 3845.00    2.75966   1.28146   -1.000
 3846.00    2.34396   1.28722   -1.000
 3847.00    1.39759   1.29111    0.000
 3848.00    0.84202   1.29341    0.000
 3849.00    1.22511   1.29443    0.000
 3850.00    1.68591   1.29511    0.000
 3851.00    2.30786   1.29731    0.000
 3852.00    2.58652   1.29934    0.000
 3853.00    2.24601   1.29918    0.000
 3854.00    2.26909   1.29619    0.000
 3855.00    2.86560   1.29046    0.000
 3856.00    3.27581   1.28522    0.000
 3857.00    3.42812   1.28395    0.000
 3858.00    3.48739   1.28649    0.000
 3859.00    3.43329   1.29031    0.000
 3860.00    2.41177   1.29346    0.000
 3861.00    0.35108   1.29504    0.000
 3862.00    0.00087   1.29525    0.000
 3863.00    1.27134   1.29468    0.000
 3864.00    4.55127   1.29418    0.000
 3865.00    9.50990   1.29306    0.000
 3866.00   10.21461   1.28716    0.000
 3867.00    7.79055   1.28318    0.000
 3868.00    5.38915   1.28998    0.000
 3869.00    3.00240   1.29708    0.000
 3870.00    1.01802   1.29222    0.000
 3871.00   -0.73895   1.28133    0.000
 3872.00    0.04583   1.27770    0.000
 3873.00    2.08092   1.28139    0.000
 3874.00    2.45074   1.28095    0.000
 3875.00    2.11244   1.27588    0.000
 3876.00    0.74446   1.27525    0.000
 3877.00   -0.99858   1.27734    0.000
 3878.00   -0.47675   1.27492    0.000
 3879.00    0.74330   1.26861    0.000
 3880.00    1.63978   1.25975    0.000
 3881.00    2.45320   1.24531   -1.000
 3882.00    3.04341   1.22375   -1.000
 3883.00    3.58696   1.19839   -1.000
 3884.00    2.27226   1.16723   -1.000
 3885.00    0.65113   1.12055   -1.000
 3886.00    0.09933   1.05201   -1.000
 3887.00   -0.32004   0.95893    0.000
 3888.00    0.52786   0.87850   -1.000
 3889.00    1.48422   0.88069   -1.000
 3890.00    1.55037   0.96563   -1.000
 3891.00    1.57216   1.06286   -1.000
 3892.00    1.49829   1.13353   -1.000
 3893.00    1.41352   1.18210   -1.000
 3894.00    0.72502   1.21535   -1.000
 3895.00    0.02591   1.23730   -1.000
 3896.00   -0.89015   1.25237    0.000
 3897.00   -1.59872   1.26220    0.000
 3898.00    0.14636   1.26818   -1.000
 3899.00    1.68210   1.27399   -1.000
 3900.00    1.51230   1.28091   -1.000
 3901.00    1.23888   1.28623   -1.000
 3902.00    0.33256   1.28871   -1.000
 3903.00   -0.28161   1.29148    0.000
 3904.00    0.51013   1.29526   -1.000
 3905.00    1.05554   1.29765   -1.000
 3906.00    0.63624   1.29886   -1.000
 3907.00    0.28533   1.30048   -1.000
 3908.00    0.15733   1.30255   -1.000
 3909.00    0.06189   1.30356   -1.000
 3910.00    0.05625   1.30135   -1.000
 3911.00    0.00039   1.29755    0.000
 3912.00   -0.17402   1.29747    0.000
 3913.00    0.07422   1.30094   -1.000
 3914.00    1.18503   1.30340   -1.000
 3915.00    1.90694   1.30382   -1.000
 3916.00    1.93810   1.30221   -1.000
 3917.00    1.64780   1.29652   -1.000
 3918.00    0.85804   1.28575   -1.000
 3919.00    0.77659   1.27497   -1.000
 3920.00    1.66158   1.26855   -1.000
 3921.00    1.75388   1.26185   -1.000
 3922.00    0.89399   1.24951   -1.000
 3923.00    0.38441   1.24126   -1.000
 3924.00    0.24585   1.24684   -1.000
 3925.00    0.17420   1.25701   -1.000
 3926.00    0.16506   1.26577   -1.000
 3927.00    0.20184   1.27705   -1.000
 3928.00    0.27645   1.28778   -1.000
 3929.00    0.09413   1.29425   -1.000
 3930.00   -0.27444   1.29619    0.000
 3931.00    0.05864   1.29424   -1.000
 3932.00    0.83825   1.28724   -1.000
 3933.00    1.64712   1.27412   -1.000
 3934.00    2.47228   1.26798   -1.000
 3935.00    2.53349   1.27884   -1.000
 3936.00    2.22487   1.29401   -1.000
 3937.00    1.47478   1.30043   -1.000
 3938.00    0.54012   1.30132   -1.000
 3939.00    1.04178   1.30310   -1.000
 3940.00    2.05722   1.30465   -1.000
 3941.00    1.92156   1.30421   -1.000
 3942.00    1.43797   1.30244   -1.000
 3943.00    0.87999   1.29781   -1.000
 3944.00    0.30332   1.29216   -1.000
 3945.00    0.49036   1.29211   -1.000
 3946.00    0.83313   1.29372   -1.000
 3947.00    0.71016   1.29130   -1.000
 3948.00    0.51260   1.29142   -1.000
 3949.00    0.85784   1.29594   -1.000
 3950.00    1.26788   1.29894   -1.000
 3951.00    1.77637   1.29828   -1.000
 3952.00    2.29287   1.29458   -1.000
 3953.00    1.47528   1.28835   -1.000
 3954.00    0.59638   1.28412   -1.000
 3955.00    0.99636   1.28455   -1.000
 3956.00    1.41645   1.28512   -1.000
 3957.00    2.03582   1.28320   -1.000
 3958.00    2.57762   1.27891   -1.000
 3959.00    1.64969   1.26811   -1.000
 3960.00    0.84662   1.24407    0.000
 3961.00    1.45073   1.22096    0.000
 3962.00    1.97020   1.21432    0.000
 3963.00    1.82440   1.20417    0.000
 3964.00    1.80216   1.17929    0.000
 3965.00    2.51305   1.15212    0.000
 3966.00    3.05059   1.11287    0.000
 3967.00    2.77418   1.04108    0.000
 3968.00    2.62371   0.93885    0.000
 3969.00    2.95580   0.85451    0.000
 3970.00    3.03512   0.85847    0.000
 3971.00    2.30650   0.94854    0.000
 3972.00    1.78851   1.05209    0.000
 3973.00    1.84096   1.12667    0.000
 3974.00    1.57155   1.17605    0.000
 3975.00    0.55479   1.20885    0.000
 3976.00    0.58574   1.23050    0.000
 3977.00    2.72107   1.24618    0.000
 3978.00    3.70869   1.25821    0.000
 3979.00    2.68878   1.26742    0.000
 3980.00    1.93095   1.27411    0.000
 3981.00    1.57436   1.27749   -1.000
 3982.00    1.70500   1.27900   -1.000
 3983.00    2.49087   1.28277   -1.000
 3984.00    2.65644   1.28859   -1.000
 3985.00    2.08743   1.29321   -1.000
 3986.00    2.11542   1.29602   -1.000
 3987.00    2.76682   1.29804   -1.000
 3988.00    3.25582   1.29990   -1.000
 3989.00    3.59525   1.30116   -1.000
 3990.00    3.08264   1.30159   -1.000
 3991.00    1.87824   1.30232   -1.000
 3992.00    1.72748   1.30311   -1.000
 3993.00    2.32952   1.30122   -1.000
 3994.00    2.23473   1.29767   -1.000
 3995.00    1.70302   1.29805   -1.000
 3996.00    1.66074   1.30035   -1.000
 3997.00    1.88667   1.29790   -1.000
 3998.00    2.63463   1.29516   -1.000
 3999.00    3.63127   1.29882   -1.000
 4000.00    3.57322   1.30336   -1.000
 4001.00    3.08169   1.30201   -1.000
 4002.00    2.00264   1.29453    0.026
 4003.00    0.71723   1.28852    0.011
 4004.00    0.81977   1.28989    0.009
 4005.00    1.33356   1.29455    0.009
 4006.00    2.04408   1.29611    0.009
 4007.00    2.80293   1.29139    0.010
 4008.00    1.62083   1.28293    0.010
 4009.00    0.05283   1.28046    0.010
 4010.00    0.10277   1.28760    0.010
 4011.00    0.40411   1.29666    0.010
 4012.00    2.09147   1.30212    0.010
 4013.00    3.93821   1.30457    0.010
 4014.00    3.23069   1.30513    0.010
 4015.00    2.32568   1.30494    0.010
 4016.00    2.01496   1.30476    0.010
 4017.00    1.72926   1.30438    0.010
 4018.00    3.03826   1.30350    0.010
 4019.00    4.31153   1.30130    0.010
 4020.00    3.38114   1.29650    0.010
 4021.00    2.47817   1.28694    0.010
 4022.00    2.05854   1.26879    0.010
 4023.00    1.57099   1.23211    0.010
 4024.00    0.35255   1.16712    0.010
 4025.00   -0.77410   1.10582    0.000
 4026.00   -1.20399   1.11305    0.000
 4027.00   -1.36731   1.18264    0.000
 4028.00    0.00700   1.24658    0.010
 4029.00    1.25278   1.27890    0.010
 4030.00    1.90953   1.29256    0.010
 4031.00    2.25429   1.29834    0.010
 4032.00    1.42870   1.30014    0.010
 4033.00    0.64508   1.30116    0.010
 4034.00   -0.00700   1.30271    0.000
 4035.00   -0.34346   1.30575    0.000
 4036.00    0.15979   1.30930    0.009
 4037.00    1.00000   1.31073    0.010
 4038.00    2.60965   1.31087    0.010
 4039.00    2.94860   1.31038    0.010
 4040.00    0.77552   1.30880    0.009
 4041.00   -0.41570   1.30779    0.000
 4042.00    0.08457   1.30780    0.009
 4043.00    0.51429   1.30749    0.009
 4044.00    0.83759   1.30731    0.009
 4045.00    0.45062   1.30918    0.009
 4046.00   -0.87786   1.31167    0.000
 4047.00   -1.10767   1.31264    0.000
 4048.00   -0.05478   1.31283    0.000
 4049.00    0.82310   1.31361    0.009
 4050.00    1.52081   1.31446    0.009
 4051.00    0.72184   1.31415    0.009
 4052.00   -1.43628   1.31276    0.000
 4053.00   -1.60620   1.31021    0.000
 4054.00   -0.18482   1.30572    0.000
 4055.00    1.74584   1.30172    0.009
 4056.00    4.03511   1.30394    0.009
 4057.00    4.29020   1.30962    0.009
 4058.00    3.28879   1.31166    0.009
 4059.00    2.30444   1.30861    0.009
 4060.00    1.32929   1.30570    0.009
 4061.00    1.02464   1.30631    0.009
 4062.00    1.03424   1.30898    0.009
 4063.00    1.61625   1.31170    0.009
 4064.00    2.42952   1.31327    0.009
 4065.00    2.41424   1.31073    0.009
 4066.00    2.11328   1.29064    0.009
 4067.00    2.28501   1.24872    0.009
 4068.00    2.59401   1.20952    0.009
 4069.00    2.30275   1.20015    0.009
 4070.00    1.86731   1.22534    0.010
 4071.00    1.95245   1.26157    0.010
 4072.00    2.13845   1.28434    0.009
 4073.00    2.45431   1.29197    0.009
 4074.00    2.78973   1.28673    0.010
 4075.00    2.40192   1.27947    0.009
 4076.00    1.93410   1.28598    0.009
 4077.00    1.81691   1.29837    0.009
 4078.00    1.72540   1.30328    0.009
 4079.00    1.54354   1.30206    0.009
 4080.00    1.35822   1.29910    0.009
 4081.00    1.27554   1.29894    0.009
 4082.00    1.22405   1.30106    0.009
 4083.00    2.32641   1.29902    0.009
 4084.00    3.29109   1.29563    0.010
 4085.00    1.98687   1.29463    0.009
 4086.00    0.89230   1.28693    0.009
 4087.00    1.95514   1.25410    0.009
 4088.00    2.85840   1.21636    0.009
 4089.00    2.59060   1.22279    0.009
 4090.00    2.25535   1.25759    0.009
 4091.00    1.54177   1.27326    0.009
 4092.00    0.96941   1.26806    0.000
 4093.00    1.02906   1.25676    0.000
 4094.00    1.05704   1.23975    0.000
 4095.00    0.96874   1.20578    0.000
 4096.00    1.15035   1.14990    0.000
 4097.00    2.16207   1.09962    0.000
 4098.00    2.84695   1.06092    0.000
 4099.00    2.67758   0.99438    0.000
 4100.00    2.48460   0.89618    0.000
 4101.00    2.23859   0.83239    0.000
 4102.00    1.95868   0.86312    0.000
 4103.00    1.61282   0.96683    0.000
 4104.00    1.36036   1.07639    0.000
 4105.00    1.26636   1.15362    0.000
 4106.00    1.36766   1.20004    0.000
 4107.00    1.75926   1.22861    0.000
 4108.00    1.79224   1.24770    0.000
 4109.00    1.35664   1.26046    0.000
 4110.00    1.00023   1.26952    0.000
 4111.00    0.73495   1.27781    0.000
 4112.00    0.20556   1.28564    0.000
 4113.00   -0.59193   1.28898    0.000
 4114.00   -0.81092   1.27451    0.000
 4115.00   -0.51196   1.24935    0.000
 4116.00    0.11654   1.25101   -1.000
 4117.00    1.00505   1.27710   -1.000
 4118.00    1.03069   1.28843   -1.000
 4119.00    0.45754   1.27677   -1.000
 4120.00    0.45954   1.26388   -1.000
 4121.00    0.81152   1.27125   -1.000
 4122.00    0.53930   1.29435    0.025
 4123.00   -0.06454   1.31182    0.000
 4124.00    0.30563   1.31825    0.009
 4125.00    1.12492   1.31909    0.009
 4126.00    1.35662   1.31656    0.009
 4127.00    1.35499   1.31243    0.009
 4128.00    0.58487   1.31163    0.009
 4129.00   -0.44535   1.31267    0.000
 4130.00   -0.08616   1.31171    0.000
 4131.00    0.66834   1.31144    0.008
 4132.00    1.27495   1.31419    0.008
 4133.00    1.84683   1.31884    0.008
 4134.00    3.07303   1.32314    0.009
 4135.00    4.42273   1.32535    0.009
 4136.00    3.76669   1.32542    0.009
 4137.00    2.81775   1.32446    0.009
 4138.00    2.66987   1.32325    0.009
 4139.00    2.60711   1.32225    0.009
 4140.00    2.11148   1.32013    0.009
 4141.00    1.58591   1.31216    0.009
 4142.00    1.25555   1.29514    0.009
 4143.00    0.93192   1.28130    0.009
 4144.00    1.09705   1.28742    0.008
 4145.00    1.25232   1.30537    0.008
 4146.00    1.04960   1.31817    0.008
 4147.00    0.91697   1.32391    0.008
 4148.00    1.86820   1.32513    0.008
 4149.00    2.71650   1.32393    0.008
 4150.00    2.55025   1.32302    0.008
 4151.00    2.41788   1.32027    0.008
 4152.00    2.52609   1.31598    0.008
 4153.00    2.51122   1.31761    0.009
 4154.00    1.82447   1.32256    0.008
 4155.00    1.17296   1.32214    0.008
 4156.00    0.67547   1.32070    0.008
 4157.00    0.43578   1.32468    0.008
 4158.00    1.12336   1.33030    0.008
 4159.00    1.58720   1.33246    0.008
 4160.00    1.37589   1.33119    0.008
 4161.00    1.01703   1.32559    0.008
 4162.00    0.27927   1.31896    0.008
 4163.00   -0.09890   1.31973    0.000
 4164.00    0.31726   1.32631    0.008
 4165.00    0.85421   1.33095    0.008
 4166.00    1.62256   1.33140    0.008
 4167.00    2.22688   1.32767    0.008
 4168.00    2.55706   1.32342    0.008
 4169.00    2.45301   1.32403    0.008
 4170.00    1.71288   1.32735    0.008
 4171.00    1.78714   1.32823    0.008
 4172.00    2.91033   1.32876    0.008
 4173.00    3.61531   1.33056    0.008
 4174.00    3.84572   1.33180    0.008
 4175.00    2.93756   1.33196    0.008
 4176.00    0.88989   1.33249    0.008
 4177.00    0.15124   1.33328    0.008
 4178.00    0.56808   1.33367    0.008
 4179.00    1.08788   1.33442    0.008
 4180.00    1.68775   1.33579    0.008
 4181.00    2.18487   1.33651    0.008
 4182.00    2.61172   1.33592    0.008
 4183.00    2.11294   1.33324    0.008
 4184.00    1.05932   1.32732    0.008
 4185.00    0.95838   1.31695    0.008
 4186.00    1.35571   1.30941    0.008
 4187.00    1.97464   1.31441    0.008
 4188.00    2.69408   1.32195    0.008
 4189.00    3.18996   1.32360    0.008
 4190.00    3.59859   1.32733    0.008
 4191.00    3.49569   1.33271    0.008
 4192.00    3.22289   1.33403    0.008
 4193.00    2.55550   1.33195    0.008
 4194.00    1.77813   1.32580    0.008
 4195.00    1.51960   1.31595    0.008
 4196.00    1.38011   1.30337    0.008
 4197.00    0.72386   1.27817    0.008
 4198.00   -0.02735   1.23454    0.000
 4199.00    0.84826   1.20263    0.008
 4200.00    1.95392   1.21703    0.008
 4201.00    2.30090   1.26164    0.008
 4202.00    2.57053   1.29890    0.008
 4203.00    2.28208   1.31917    0.008
 4204.00    1.95727   1.32916    0.008
 4205.00    2.47178   1.33477    0.008
 4206.00    3.01114   1.33811    0.008
 4207.00    2.95016   1.34008    0.008
 4208.00    2.84191   1.34135    0.008
 4209.00    1.34456   1.34201    0.008
 4210.00   -0.04446   1.33732    0.000
 4211.00    0.14351   1.32554    0.008
 4212.00    0.41617   1.32127    0.008
 4213.00    1.48955   1.33140    0.008
 4214.00    2.44835   1.34098    0.008
 4215.00    2.61955   1.34340    0.008
 4216.00    2.68437   1.34446    0.008
 4217.00    2.18374   1.34581    0.008
 4218.00    1.95429   1.34754    0.008
 4219.00    2.88302   1.34936    0.008
 4220.00    3.48999   1.34930    0.008
 4221.00    2.96334   1.34756    0.007
 4222.00    2.31579   1.34683    0.007
 4223.00    1.31019   1.34755    0.007
 4224.00    0.81153   1.34805    0.007
 4225.00    1.59224   1.34732    0.007
 4226.00    2.26462   1.34632    0.007
 4227.00    2.70160   1.34674    0.007
 4228.00    3.04775   1.34858    0.007
 4229.00    3.22261   1.35019    0.007
 4230.00    3.14509   1.35107    0.007
 4231.00    2.65208   1.35107    0.007
 4232.00    2.01278   1.35008    0.007
 4233.00    1.16234   1.34914    0.007
 4234.00    0.77722   1.34881    0.007
 4235.00    0.98291   1.34778    0.007
 4236.00    1.14376   1.34666    0.007
 4237.00    1.25442   1.34760    0.007
 4238.00    1.31991   1.34944    0.007
 4239.00    1.34083   1.35024    0.007
 4240.00    1.44574   1.34898    0.007
 4241.00    1.62375   1.34734    0.007
 4242.00    1.66214   1.34868    0.007
 4243.00    1.59348   1.35199    0.007
 4244.00    1.33516   1.35321    0.007
 4245.00    0.94902   1.35174    0.007
 4246.00    1.03173   1.35012    0.007
 4247.00    1.39126   1.35061    0.007
 4248.00    1.51812   1.35254    0.007
 4249.00    1.52519   1.35404    0.007
 4250.00    1.04239   1.35487    0.007
 4251.00    0.34102   1.35513    0.007
 4252.00    0.94081   1.35386    0.007
 4253.00    2.03950   1.35393    0.007
 4254.00    2.40936   1.35578    0.007
 4255.00    2.54169   1.35576    0.007
 4256.00    2.37191   1.35448    0.007
 4257.00    2.11966   1.35411    0.007
 4258.00    1.70948   1.35481    0.007
 4259.00    1.26390   1.35558    0.007
 4260.00    1.46928   1.35593    0.007
 4261.00    1.79107   1.35643    0.008
 4262.00    1.70684   1.35716    0.008
 4263.00    1.56705   1.35785    0.008
 4264.00    1.27982   1.35661    0.007
 4265.00    0.97818   1.34791    0.007
 4266.00    0.79763   1.33476    0.007
 4267.00    0.62448   1.33383    0.007
 4268.00    1.31566   1.34627    0.007
 4269.00    2.02813   1.35616    0.007
 4270.00    2.34475   1.35888    0.007
 4271.00    2.65909   1.35946    0.007
 4272.00    2.91295   1.35929    0.007
 4273.00    3.10292   1.35822    0.008
 4274.00    2.41451   1.35411    0.007
 4275.00    1.81789   1.34848    0.007
 4276.00    2.05495   1.34653    0.007
 4277.00    2.15835   1.35019    0.007
 4278.00    1.37140   1.35653    0.007
 4279.00    0.76476   1.36106    0.007
 4280.00    1.09164   1.36204    0.007
 4281.00    1.57111   1.35952    0.007
 4282.00    2.68756   1.35594   -2.000
 4283.00    3.90478   1.35374   -2.000
 4284.00    5.46988   1.35385   -2.000
 4285.00    6.09497   1.35686   -2.000
 4286.00    3.98778   1.36084   -2.000
 4287.00    2.34266   1.36183   -2.000
 4288.00    1.84363   1.36001   -2.000
 4289.00    1.40172   1.35850   -2.000
 4290.00    1.08191   1.35917   -2.000
 4291.00    1.06613   1.36209   -2.000
 4292.00    1.61485   1.36481   -2.000
 4293.00    1.91877   1.36353   -2.000
 4294.00    1.82564   1.36099   -2.000
 4295.00    1.73970   1.36217   -2.000
 4296.00    1.66397   1.36624   -2.000
 4297.00    1.74838   1.36901   -2.000
 4298.00    2.03321   1.36873    0.007
 4299.00    2.11444   1.36725    0.007
 4300.00    1.97110   1.36675    0.007
 4301.00    2.00465   1.36589    0.007
 4302.00    2.21030   1.36187    0.007
 4303.00    2.22456   1.35848    0.007
 4304.00    2.07460   1.36065    0.007
 4305.00    1.92385   1.36482    0.007
 4306.00    1.77249   1.36564    0.007
 4307.00    1.81989   1.36485    0.007
 4308.00    1.99927   1.36468    0.007
 4309.00    1.94866   1.36572    0.007
 4310.00    1.76430   1.36701    0.007
 4311.00    2.05464   1.36617    0.007
 4312.00    2.58555   1.36102    0.007
 4313.00    2.61507   1.35607    0.007
 4314.00    2.42458   1.35648    0.007
 4315.00    2.27310   1.35803    0.007
 4316.00    2.13633   1.35653    0.007
 4317.00    2.48382   1.35530    0.007
 4318.00    2.98615   1.35507    0.007
 4319.00    2.71017   1.35511    0.007
 4320.00    2.22618   1.35758    0.007
 4321.00    1.97554   1.36137    0.007
 4322.00    1.77597   1.36339    0.007
 4323.00    1.72767   1.36116    0.007
 4324.00    1.70570   1.35457    0.007
 4325.00    1.64224   1.34831    0.007
 4326.00    1.57330   1.34328    0.007
 4327.00    1.49924   1.33754    0.007
 4328.00    1.42469   1.33519    0.007
 4329.00    1.62540   1.33592    0.007
 4330.00    1.84186   1.33146    0.000
 4331.00    1.47080   1.32015    0.000
 4332.00    1.08894   1.30644    0.000
 4333.00    1.03611   1.29202    0.000
 4334.00    1.02030   1.27223    0.000
 4335.00    1.89329   1.23927    0.000
 4336.00    2.78777   1.18494    0.000
 4337.00    3.96198   1.10349    0.000
 4338.00    4.88012   0.99761    0.000
 4339.00    3.56102   0.89664    0.000
 4340.00    2.40417   0.86939    0.000
 4341.00    2.29533   0.94853    0.000
 4342.00    2.15224   1.07159    0.000
 4343.00    1.83639   1.16565    0.000
 4344.00    1.65387   1.22027    0.000
 4345.00    2.01554   1.25549    0.000
 4346.00    2.23393   1.28230    0.000
 4347.00    1.96755   1.30108    0.000
 4348.00    1.82300   1.31244    0.000
 4349.00    2.02609   1.32044    0.000
 4350.00    2.39584   1.32852    0.000
 4351.00    3.17186   1.33816    0.020
 4352.00    3.40642   1.34848   -1.000
 4353.00    2.50209   1.35686   -1.000
 4354.00    2.07203   1.36313   -1.000
 4355.00    2.50902   1.36611   -1.000
 4356.00    2.74461   1.36727   -1.000
 4357.00    2.65843   1.37048   -1.000
 4358.00    2.57741   1.37498   -1.000
 4359.00    2.50365   1.37748   -1.000
 4360.00    2.45972   1.37799   -1.000
 4361.00    2.45257   1.37872   -1.000
 4362.00    2.75727   1.38118   -1.000
 4363.00    3.40112   1.38338   -1.000
 4364.00    3.45025   1.38320    0.027
 4365.00    2.92889   1.38018    0.009
 4366.00    2.23001   1.37675    0.007
 4367.00    1.38097   1.37725    0.007
 4368.00    1.63857   1.38155    0.007
 4369.00    2.72048   1.38515    0.007
 4370.00    2.47476   1.38598    0.007
 4371.00    1.36033   1.38505    0.007
 4372.00    1.21936   1.38535    0.007
 4373.00    1.63592   1.38664    0.007
 4374.00    2.23340   1.38689    0.007
 4375.00    2.92113   1.38691    0.007
 4376.00    3.09119   1.38883    0.007
 4377.00    3.03785   1.38746    0.007
 4378.00    2.24957   1.38032    0.007
 4379.00    1.18933   1.37885    0.007
 4380.00    1.65114   1.38644    0.007
 4381.00    2.59024   1.39087    0.007
 4382.00    2.78980   1.38953    0.007
 4383.00    2.79589   1.38746    0.007
 4384.00    2.23519   1.38530    0.007
 4385.00    1.55342   1.37809    0.006
 4386.00    1.91449   1.35770    0.006
 4387.00    2.45191   1.33618    0.006
 4388.00    2.83296   1.33961    0.007
 4389.00    3.19403   1.36508    0.007
 4390.00    2.81042   1.38935    0.007
 4391.00    2.36036   1.40264    0.006
 4392.00    1.97964   1.40526    0.006
 4393.00    1.60260   1.40098    0.006
 4394.00    1.96480   1.39605    0.006
 4395.00    2.33674   1.39427    0.006
 4396.00    2.32377   1.39746    0.006
 4397.00    2.28554   1.40242    0.006
 4398.00    1.69198   1.40398    0.006
 4399.00    1.15936   1.40287    0.006
 4400.00    1.37960   1.40273    0.006
 4401.00    1.60449   1.40380    0.006
 4402.00    1.86849   1.40304    0.006
 4403.00    2.11594   1.40094    0.006
 4404.00    2.25967   1.40151    0.006
 4405.00    2.37212   1.40383    0.006
 4406.00    2.33070   1.40589    0.006
 4407.00    2.31596   1.40907    0.006
 4408.00    2.40774   1.41231    0.006
 4409.00    2.41425   1.41203    0.006
 4410.00    2.13794   1.40747    0.006
 4411.00    1.88233   1.40668    0.006
 4412.00    1.68470   1.40900    0.006
 4413.00    1.61974   1.40428    0.006
 4414.00    1.87276   1.39610    0.006
 4415.00    1.92809   1.39258    0.006
 4416.00    1.57425   1.39384    0.006
 4417.00    1.40116   1.39829    0.006
 4418.00    1.55343   1.40353    0.006
 4419.00    1.85564   1.40767    0.006
 4420.00    2.39386   1.41087    0.006
 4421.00    2.61955   1.41242    0.006
 4422.00    2.41337   1.41273    0.006
 4423.00    2.04062   1.41284    0.006
 4424.00    1.46528   1.41259    0.006
 4425.00    1.28955   1.41210    0.006
 4426.00    1.54231   1.41190    0.006
 4427.00    2.07779   1.41367    0.006
 4428.00    2.88066   1.41623    0.006
 4429.00    3.02070   1.41541    0.006
 4430.00    2.60799   1.41229    0.006
 4431.00    2.27695   1.41038    0.006
 4432.00    2.00587   1.40966    0.006
 4433.00    2.10236   1.41052    0.006
 4434.00    2.43584   1.41172    0.006
 4435.00    2.75159   1.41013    0.006
 4436.00    3.05735   1.40528    0.006
 4437.00    3.09899   1.40443    0.006
 4438.00    3.01097   1.40829    0.006
 4439.00    2.92710   1.40666    0.006
 4440.00    2.84500   1.39883    0.006
 4441.00    3.04795   1.39690    0.006
 4442.00    3.35449   1.40494    0.006
 4443.00    2.90719   1.41368    0.006
 4444.00    2.22808   1.41828    0.006
 4445.00    1.82521   1.41805    0.006
 4446.00    1.49307   1.41473    0.006
 4447.00    2.32907   1.41290    0.006
 4448.00    3.40854   1.41529    0.006
 4449.00    3.25227   1.41941    0.006
 4450.00    2.89298   1.41986    0.006
 4451.00    2.24137   1.41705    0.006
 4452.00    1.55373   1.41651    0.006
 4453.00    1.83303   1.41993    0.006
 4454.00    2.19458   1.42313    0.006
 4455.00    2.52692   1.42477    0.006
 4456.00    2.85783   1.42642    0.006
 4457.00    2.70063   1.42715    0.006
 4458.00    2.53507   1.42641    0.006
 4459.00    2.33310   1.42563    0.006
 4460.00    2.13685   1.42503    0.006
 4461.00    2.05642   1.42393    0.000
 4462.00    1.98054   1.42322    0.000
 4463.00    1.95804   1.42366    0.000
 4464.00    1.94859   1.42373    0.000
 4465.00    2.04495   1.42164    0.000
 4466.00    2.15544   1.41734    0.000
 4467.00    2.35188   1.41082    0.000
 4468.00    2.53262   1.39816    0.000
 4469.00    2.63808   1.35674    0.000
 4470.00    2.64961   1.28019    0.000
 4471.00    2.29429   1.24576    0.000
 4472.00    1.93375   1.30285    0.000
 4473.00    1.55626   1.37844    0.000
 4474.00    1.48412   1.41335    0.000
 4475.00    2.25208   1.42309    0.000
 4476.00    2.79162   1.42692    0.000
 4477.00    2.79289   1.42829    0.000
 4478.00    2.64504   1.42516    0.000
 4479.00    2.19343   1.41178    0.000
 4480.00    1.96217   1.39748    0.000
 4481.00    2.12151   1.40122    0.000
 4482.00    2.37129   1.41987    0.006
 4483.00    2.76130   1.43264    0.006
 4484.00    2.80784   1.43621    0.006
 4485.00    2.38656   1.43784    0.006
 4486.00    2.23336   1.43889    0.006
 4487.00    2.40159   1.43836    0.006
 4488.00    2.33471   1.43678    0.006
 4489.00    2.01927   1.43610    0.006
 4490.00    1.92512   1.43688    0.006
 4491.00    2.03733   1.43778    0.006
 4492.00    2.20310   1.43883    0.006
 4493.00    2.41288   1.44006    0.006
 4494.00    2.28528   1.44052    0.006
 4495.00    1.91354   1.44088    0.006
 4496.00    1.76951   1.44113    0.006
 4497.00    1.77012   1.44158    0.006
 4498.00    2.14062   1.44260    0.006
 4499.00    2.71657   1.44186    0.006
 4500.00    2.90081   1.43995    0.006
 4501.00    2.89581   1.43845    0.006
 4502.00    2.48480   1.43963    0.006
 4503.00    1.90440   1.44299    0.006
 4504.00    1.93364   1.44480    0.006
 4505.00    2.18046   1.44424    0.006
 4506.00    2.41731   1.44415    0.006
 4507.00    2.65116   1.44430    0.006
 4508.00    2.71294   1.44311    0.006
 4509.00    2.73164   1.43367    0.006
 4510.00    2.29090   1.42121    0.006
 4511.00    1.75677   1.42144    0.006
 4512.00    1.60944   1.42942    0.006
 4513.00    1.52381   1.42328    0.006
 4514.00    1.35977   1.41058    0.006
 4515.00    1.18640   1.41372    0.006
 4516.00    1.77683   1.42651    0.006
 4517.00    2.42906   1.43372    0.006
 4518.00    2.12513   1.43928    0.006
 4519.00    1.77772   1.44555    0.006
 4520.00    1.77464   1.44885    0.006
 4521.00    1.77740   1.44741    0.006
 4522.00    1.86270   1.44148    0.006
 4523.00    1.93943   1.43720    0.006
 4524.00    1.85536   1.44062    0.006
 4525.00    1.78082   1.44659    0.006
 4526.00    1.81301   1.44974    0.006
 4527.00    1.89201   1.44741    0.006
 4528.00    2.33732   1.44147    0.006
 4529.00    2.68304   1.43940    0.006
 4530.00    2.43996   1.44279    0.006
 4531.00    2.17194   1.44770    0.006
 4532.00    1.78720   1.44792    0.006
 4533.00    1.37617   1.44229    0.006
 4534.00    0.86465   1.43870    0.006
 4535.00    0.59001   1.44015    0.006
 4536.00    1.07062   1.43935    0.006
 4537.00    1.46209   1.43011    0.006
 4538.00    1.61267   1.40805    0.006
 4539.00    1.83542   1.36076    0.006
 4540.00    2.22542   1.29666    0.006
 4541.00    2.44807   1.26996    0.006
 4542.00    2.33528   1.31063    0.006
 4543.00    2.08176   1.37204    0.006
 4544.00    1.58255   1.41217    0.006
 4545.00    1.26015   1.43357    0.006
 4546.00    1.20796   1.44516    0.006
 4547.00    1.15618   1.44940    0.006
 4548.00    1.10496   1.45035    0.006
 4549.00    1.16765   1.45161    0.006
 4550.00    1.36497   1.45235    0.000
 4551.00    1.48731   1.44742    0.000
 4552.00    1.53149   1.44327    0.000
 4553.00    1.52144   1.44690    0.000
 4554.00    1.46153   1.45357    0.000
 4555.00    1.58663   1.45793    0.000
 4556.00    1.86168   1.45951    0.000
 4557.00    2.25679   1.45938    0.000
 4558.00    2.73753   1.46040    0.000
 4559.00    2.64985   1.46321    0.000
 4560.00    2.20644   1.46520    0.000
 4561.00    1.98082   1.46563    0.000
 4562.00    1.87433   1.46550    0.000
 4563.00    2.10903   1.46490    0.000
 4564.00    2.50593   1.46546    0.000
 4565.00    2.46620   1.46544    0.000
 4566.00    2.24741   1.46047    0.000
 4567.00    1.94063   1.44996    0.000
 4568.00    1.60302   1.44166    0.000
 4569.00    1.32121   1.44575    0.000
 4570.00    1.05589   1.45844    0.000
 4571.00    1.75118   1.46595    0.000
 4572.00    2.68178   1.46727    0.000
 4573.00    2.62945   1.46580    0.000
 4574.00    2.38232   1.46402    0.000
 4575.00    2.23184   1.46572    0.000
 4576.00    2.09632   1.46915    0.000
 4577.00    1.78474   1.47074    0.000
 4578.00    1.45300   1.47091    0.000
 4579.00    1.65122   1.47123    0.000
 4580.00    1.89014   1.47219    0.000
 4581.00    2.23736   1.47249    0.000
 4582.00    2.58909   1.47139    0.000
 4583.00    2.30235   1.47071    0.000
 4584.00    2.01452   1.47200    0.000
 4585.00    1.91847   1.47321    0.000
 4586.00    1.82952   1.47040    0.000
 4587.00    1.86481   1.46730    0.000
 4588.00    1.90711   1.46855    0.000
 4589.00    2.02421   1.46692    0.000
 4590.00    2.16097   1.46108    0.000
 4591.00    2.44635   1.46119    0.000
 4592.00    2.65683   1.46860    0.000
 4593.00    2.43685   1.47495    0.000
 4594.00    2.19264   1.47358    0.000
 4595.00    1.83768   1.46843    0.000
 4596.00    1.61581   1.46795    0.000
 4597.00    1.89181   1.47346    0.000
 4598.00    2.02106   1.47824    0.000
 4599.00    1.69135   1.47930    0.000
 4600.00    1.43258   1.47603    0.000
 4601.00    1.36211   1.47277    0.000
 4602.00    1.37845   1.47380    0.000
 4603.00    1.59258   1.47735    0.000
 4604.00    1.90813   1.48019    0.000
 4605.00    2.42377   1.48021    0.000
 4606.00    2.57057   1.47928    0.000
 4607.00    2.08319   1.47842    0.000
 4608.00    1.93016   1.47316    0.000
 4609.00    2.28058   1.46151    0.000
 4610.00    2.45797   1.45831    0.000
 4611.00    2.40639   1.46938    0.000
 4612.00    2.33303   1.47964    0.000
 4613.00    2.23427   1.48210    0.000
 4614.00    2.14864   1.48326    0.000
 4615.00    2.07650   1.48476    0.000
 4616.00    2.11871   1.48462    0.000
 4617.00    2.26457   1.48081    0.000
 4618.00    2.07889   1.47632    0.000
 4619.00    1.62832   1.47618    0.000
 4620.00    1.53686   1.47971    0.000
 4621.00    1.69779   1.48315    0.000
 4622.00    1.71115   1.48639    0.000
 4623.00    1.63353   1.48885    0.000
 4624.00    1.68218   1.48938    0.000
 4625.00    1.79884   1.48924    0.000
 4626.00    1.76758   1.48997    0.000
 4627.00    1.66714   1.49022    0.000
 4628.00    1.49707   1.48719    0.000
 4629.00    1.29894   1.47368    0.000
 4630.00    1.58265   1.45510    0.000
 4631.00    2.03211   1.45371    0.000
 4632.00    1.90707   1.46939    0.000
 4633.00    1.61561   1.48162    0.000
 4634.00    1.74568   1.48611    0.000
 4635.00    1.97671   1.49045    0.000
 4636.00    2.07979   1.49205    0.000
 4637.00    2.15817   1.48830    0.000
 4638.00    1.88258   1.48306    0.000
 4639.00    1.55385   1.48010    0.000
 4640.00    1.55595   1.47577    0.000
 4641.00    1.59445   1.47369    0.000
 4642.00    1.77733   1.48072    0.000
 4643.00    1.97072   1.49079    0.000
 4644.00    1.77026   1.49031    0.000
 4645.00    1.55491   1.46217    0.000
 4646.00    1.48370   1.42005    0.000
 4647.00    1.41184   1.40877    0.000
 4648.00    1.28865   1.42030    0.000
 4649.00    1.18995   1.41183    0.000
 4650.00    1.49150   1.40197    0.000
 4651.00    1.78700   1.42473    0.000
 4652.00    2.02054   1.45218    0.000
 4653.00    2.19477   1.45486    0.000
 4654.00    1.93547   1.45781    0.000
 4655.00    1.67999   1.47897    0.000
 4656.00    1.44583   1.49559    0.000
 4657.00    1.30727   1.49777    0.000
 4658.00    1.59528   1.49596    0.000
 4659.00    1.84547   1.49560    0.000
 4660.00    1.95714   1.49423    0.000
 4661.00    2.08011   1.49088    0.000
 4662.00    2.23775   1.48819    0.000
 4663.00    2.27985   1.48178    0.000
 4664.00    2.02062   1.47111    0.000
 4665.00    1.78738   1.46746    0.000
 4666.00    1.61239   1.47602    0.000
 4667.00    1.63226   1.48677    0.000
 4668.00    2.03057   1.49464    0.000
 4669.00    2.15254   1.50499    0.000
 4670.00    1.80650   1.51422    0.000
 4671.00    1.50519   1.51091    0.000
 4672.00    1.27026   1.49465    0.000
 4673.00    1.38653   1.48416    0.000
 4674.00    1.96087   1.48765    0.000
 4675.00    2.07871   1.49380    0.000
 4676.00    1.67203   1.49667    0.000
 4677.00    1.62796   1.49950    0.000
 4678.00    1.95133   1.50161    0.000
 4679.00    2.00060   1.50138    0.000
 4680.00    1.80488   1.49873    0.000
 4681.00    1.73664   1.49086    0.000
 4682.00    1.76880   1.47317    0.000
 4683.00    1.77010   1.41681    0.000
 4684.00    1.75003   1.31014    0.000
 4685.00    1.85153   1.24552    0.000
 4686.00    2.02687   1.30267    0.000
 4687.00    1.94780   1.40823    0.000
 4688.00    1.73384   1.46960    0.000
 4689.00    1.75464   1.49162    0.000
 4690.00    1.88347   1.49937    0.000
 4691.00    1.88231   1.50362    0.000
 4692.00    1.82966   1.50776    0.000
 4693.00    1.59322   1.50979    0.000
 4694.00    1.29474   1.51057    0.000
 4695.00    1.55658   1.51077    0.000
 4696.00    1.97744   1.51112    0.000
 4697.00    2.03254   1.50714    0.000
 4698.00    2.00203   1.50135    0.000
 4699.00    1.77325   1.50128    0.000
 4700.00    1.50718   1.50699    0.000
 4701.00    1.46184   1.51021    0.000
 4702.00    1.44861   1.50995    0.000
 4703.00    1.78030   1.50752    0.000
 4704.00    2.14845   1.50328    0.000
 4705.00    1.87737   1.50350    0.000
 4706.00    1.56240   1.51072    0.000
 4707.00    1.71806   1.51618    0.000
 4708.00    1.88974   1.51510    0.000
 4709.00    1.74838   1.51328    0.000
 4710.00    1.60917   1.51188    0.000
 4711.00    1.55520   1.48914    0.000
 4712.00    1.50540   1.45508    0.000
 4713.00    1.51970   1.45462    0.000
 4714.00    1.55155   1.48885    0.000
 4715.00    1.75563   1.51135    0.000
 4716.00    1.94125   1.51691    0.000
 4717.00    1.99631   1.51996    0.000
 4718.00    2.03537   1.52293    0.000
 4719.00    1.98734   1.52364    0.000
 4720.00    1.91313   1.52331    0.000
 4721.00    1.72485   1.52352    0.000
 4722.00    1.62359   1.52397    0.000
 4723.00    1.83454   1.52444    0.000
 4724.00    1.99030   1.52482    0.000
 4725.00    1.97995   1.52470    0.000
 4726.00    1.82523   1.52384    0.000
 4727.00    1.30059   1.52373    0.000
 4728.00    1.03215   1.52463    0.000
 4729.00    1.32846   1.52479    0.000
 4730.00    1.59461   1.52549    0.000
 4731.00    1.80311   1.52617    0.000
 4732.00    1.93875   1.52717    0.000
 4733.00    1.95283   1.52784    0.000
 4734.00    1.87131   1.52675    0.000
 4735.00    1.65000   1.52635    0.000
 4736.00    1.58524   1.52726    0.000
 4737.00    1.72173   1.52844    0.000
 4738.00    1.79039   1.52859    0.000
 4739.00    1.78221   1.52821    0.000
 4740.00    1.98645   1.52839    0.000
 4741.00    2.40292   1.52935    0.000
 4742.00    2.30608   1.53054    0.000
 4743.00    1.75696   1.53119    0.000
 4744.00    1.52929   1.53110    0.000
 4745.00    1.55117   1.53125    0.000
 4746.00    1.73289   1.53215    0.000
 4747.00    2.02372   1.53227    0.000
 4748.00    2.08041   1.53244    0.000
 4749.00    1.99702   1.53233    0.000
 4750.00    1.84099   1.53141    0.000
 4751.00    1.64705   1.53123    0.000
 4752.00    1.64040   1.53213    0.000
 4753.00    1.71854   1.53329    0.000
 4754.00    1.98305   1.53391    0.000
 4755.00    2.32012   1.53379    0.000
 4756.00    2.39118   1.53442    0.000
 4757.00    2.37410   1.53510    0.000
 4758.00    2.09295   1.53555    0.000
 4759.00    1.73839   1.53589    0.000
 4760.00    1.64255   1.53569    0.000
 4761.00    1.60588   1.53577    0.005
 4762.00    1.48201   1.53559    0.005
 4763.00    1.34216   1.53515    0.005
 4764.00    1.63679   1.53586    0.005
 4765.00    1.99260   1.53654    0.005
 4766.00    2.21485   1.53742    0.005
 4767.00    2.42355   1.53802    0.005
 4768.00    2.47248   1.53843    0.005
 4769.00    2.51110   1.53886    0.005
 4770.00    2.46385   1.53922    0.005
 4771.00    2.41398   1.53897    0.005
 4772.00    2.34762   1.53907    0.005
 4773.00    2.28420   1.53895    0.005
 4774.00    2.30637   1.53958    0.005
 4775.00    2.30961   1.54024    0.005
 4776.00    2.03937   1.54060    0.005
 4777.00    1.78123   1.54044    0.005
 4778.00    1.63699   1.53994    0.005
 4779.00    1.52299   1.53950    0.005
 4780.00    1.61604   1.54019    0.005
 4781.00    1.72777   1.54081    0.005
 4782.00    1.93841   1.54064    0.005
 4783.00    2.08507   1.54076    0.005
 4784.00    1.95922   1.53733    0.005
 4785.00    1.82005   1.53253    0.005
 4786.00    1.63410   1.53347    0.005
 4787.00    1.50930   1.53858    0.005
 4788.00    1.56521   1.54183    0.005
 4789.00    1.64197   1.54328    0.005
 4790.00    1.77121   1.54392    0.005
 4791.00    1.90864   1.54371    0.005
 4792.00    2.06385   1.54376    0.005
 4793.00    2.18102   1.54412    0.005
 4794.00    2.22658   1.54500    0.005
 4795.00    2.30609   1.54622    0.005
 4796.00    2.44136   1.54687    0.005
 4797.00    2.19866   1.54614    0.005
 4798.00    1.41135   1.54479    0.005
 4799.00    1.10521   1.54447    0.005
 4800.00    1.40890   1.54534    0.005
 4801.00    1.76933   1.54534    0.005
 4802.00    2.19312   1.54474    0.005
 4803.00    2.41491   1.54583    0.005
 4804.00    2.43771   1.54729    0.005
 4805.00    2.41856   1.54784    0.005
 4806.00    2.36298   1.54872    0.005
 4807.00    2.12808   1.54874    0.005
 4808.00    1.75596   1.54708    0.005
 4809.00    1.53724   1.54545    0.005
 4810.00    1.42173   1.54691    0.005
 4811.00    1.65263   1.54734    0.005
 4812.00    2.08766   1.54498    0.005
 4813.00    2.32711   1.54410    0.005
 4814.00    2.46605   1.54612    0.005
 4815.00    2.42894   1.54835    0.005
 4816.00    2.31345   1.54975    0.005
 4817.00    1.98364   1.54970    0.005
 4818.00    1.57184   1.54662    0.005
 4819.00    1.57589   1.54419    0.005
 4820.00    1.71515   1.54683    0.005
 4821.00    1.74295   1.55028    0.005
 4822.00    1.74041   1.55070    0.005
 4823.00    1.97360   1.54996    0.005
 4824.00    2.25946   1.54991    0.005
 4825.00    2.28443   1.55012    0.005
 4826.00    2.26291   1.55029    0.005
 4827.00    1.97524   1.54739    0.005
 4828.00    1.65130   1.54477    0.005
 4829.00    1.54736   1.54610    0.005
 4830.00    1.46478   1.54959    0.005
 4831.00    1.53173   1.55137    0.005
 4832.00    1.60775   1.55108    0.005
 4833.00    1.68788   1.55087    0.005
 4834.00    1.76700   1.54970    0.005
 4835.00    1.64448   1.54905    0.005
 4836.00    1.51484   1.54899    0.005
 4837.00    1.19927   1.54830    0.005
 4838.00    0.92342   1.54720    0.005
 4839.00    1.18987   1.54608    0.005
 4840.00    1.39600   1.54498    0.005
 4841.00    1.05705   1.54432    0.005
 4842.00    0.85304   1.54322    0.005
 4843.00    1.54434   1.54120    0.005
 4844.00    2.07075   1.53877    0.005
 4845.00    1.74631   1.53617    0.005
 4846.00    1.55419   1.53329    0.005
 4847.00    1.91284   1.52841    0.005
 4848.00    2.12780   1.52303    0.000
 4849.00    1.84799   1.51755    0.000
 4850.00    1.68068   1.51040    0.000
 4851.00    1.83961   1.50099    0.000
 4852.00    1.94205   1.49005    0.000
 4853.00    1.90468   1.47499    0.000
 4854.00    1.79681   1.45274    0.000
 4855.00    1.53853   1.42209    0.000
 4856.00    1.36021   1.37488    0.000
 4857.00    1.33007   1.29717    0.000
 4858.00    1.32436   1.19191    0.000
 4859.00    1.35820   1.07477    0.000
 4860.00    1.46907   0.98514    0.000
 4861.00    1.68934   0.98248    0.000
 4862.00    1.97797   1.08513    0.000
 4863.00    2.35201   1.22174    0.000
 4864.00    2.14361   1.32549    0.000
 4865.00    1.29387   1.37840    0.000
 4866.00    1.11172   1.40514    0.000
 4867.00    1.57795   1.43385    0.000
 4868.00    1.66974   1.46966    0.000
 4869.00    1.44083   1.49325    0.000
 4870.00    1.44135   1.50492    0.000
 4871.00    1.61493   1.51313    0.000
 4872.00    1.66279   1.51875    0.000
 4873.00    1.62732   1.52426    0.000
 4874.00    1.65059   1.53115    0.000
 4875.00    1.70797   1.53821    0.005
 4876.00    1.63714   1.54273    0.005
 4877.00    1.50147   1.54591    0.005
 4878.00    1.70483   1.54899    0.005
 4879.00    2.05665   1.55185    0.005
 4880.00    1.89898   1.55396    0.005
 4881.00    1.54981   1.55579    0.005
 4882.00    1.68914   1.55563    0.005
 4883.00    1.98429   1.55524    0.005
 4884.00    1.94597   1.55625    0.005
 4885.00    1.81877   1.55962    0.005
 4886.00    1.82411   1.56257    0.005
 4887.00    1.85837   1.56430    0.005
 4888.00    2.11176   1.56445    0.005
 4889.00    2.40314   1.56335    0.005
 4890.00    2.21418   1.56194    0.005
 4891.00    1.96197   1.56376    0.005
 4892.00    1.92247   1.56699    0.005
 4893.00    1.90273   1.56886    0.005
 4894.00    2.11356   1.57015    0.005
 4895.00    2.33746   1.57081    0.005
 4896.00    2.18946   1.57123    0.005
 4897.00    2.03194   1.57034    0.005
 4898.00    1.75987   1.56757    0.005
 4899.00    1.51746   1.56668    0.005
 4900.00    1.97900   1.56945    0.005
 4901.00    2.37828   1.57275    0.005
 4902.00    1.97246   1.57321    0.005
 4903.00    1.60075   1.57196    0.005
 4904.00    1.52566   1.57108    0.005
 4905.00    1.50614   1.56978    0.005
 4906.00    1.84413   1.56949    0.005
 4907.00    2.09086   1.57161    0.005
 4908.00    1.87868   1.57455    0.005
 4909.00    1.70198   1.57553    0.005
 4910.00    1.66977   1.57569    0.005
 4911.00    1.69836   1.57578    0.005
 4912.00    1.93214   1.57661    0.005
 4913.00    2.00771   1.57704    0.005
 4914.00    1.63281   1.57714    0.005
 4915.00    1.46941   1.57577    0.005
 4916.00    1.82053   1.57425    0.005
 4917.00    1.96074   1.57260    0.005
 4918.00    1.65821   1.56757    0.005
 4919.00    1.40454   1.55661    0.005
 4920.00    1.24000   1.53410    0.005
 4921.00    1.13314   1.51573    0.005
 4922.00    1.11828   1.51889    0.005
 4923.00    1.22939   1.53589    0.005
 4924.00    1.51677   1.54962    0.005
 4925.00    1.90224   1.56213    0.005
 4926.00    2.40851   1.57385    0.005
 4927.00    2.49549   1.58023    0.005
 4928.00    2.12726   1.58182    0.005
 4929.00    1.95967   1.58212    0.005
 4930.00    1.98420   1.58305    0.005
 4931.00    1.89743   1.58352    0.005
 4932.00    1.71667   1.58300    0.005
 4933.00    1.71617   1.58292    0.005
 4934.00    1.84969   1.58322    0.005
 4935.00    1.84274   1.58409    0.005
 4936.00    1.74405   1.58387    0.005
 4937.00    1.81052   1.58371    0.005
 4938.00    1.97141   1.58384    0.005
 4939.00    1.96729   1.58271    0.005
 4940.00    1.88103   1.58162    0.000
 4941.00    1.77926   1.57884    0.000
 4942.00    1.67082   1.57847    0.000
 4943.00    1.44854   1.58098    0.000
 4944.00    1.18424   1.58477    0.000
 4945.00    1.29508   1.58669    0.000
 4946.00    1.52326   1.58714    0.000
 4947.00    1.82412   1.58659    0.000
 4948.00    2.14393   1.58588    0.000
 4949.00    2.12018   1.58517    0.000
 4950.00    2.02326   1.58499    0.000
 4951.00    2.11010   1.58637    0.000
 4952.00    2.22790   1.58768    0.000
 4953.00    2.16873   1.58809    0.000
 4954.00    2.08706   1.58751    0.000
 4955.00    2.08566   1.58658    0.000
 4956.00    2.09138   1.58622    0.000
 4957.00    1.87764   1.58696    0.000
 4958.00    1.65231   1.58819    0.000
 4959.00    1.88794   1.58940    0.000
 4960.00    2.12709   1.58987    0.000
 4961.00    1.95035   1.59070    0.000
 4962.00    1.76808   1.59046    0.000
 4963.00    1.46533   1.59027    0.000
 4964.00    1.20334   1.59036    0.000
 4965.00    1.44167   1.59038    0.000
 4966.00    1.65018   1.59116    0.000
 4967.00    1.60903   1.59162    0.000
 4968.00    1.57074   1.59167    0.000
 4969.00    1.55030   1.59176    0.000
 4970.00    1.51644   1.59192    0.000
 4971.00    1.41679   1.59269    0.000
 4972.00    1.43738   1.59378    0.000
 4973.00    1.93662   1.59351    0.000
 4974.00    2.25669   1.59331    0.000
 4975.00    1.98399   1.59344    0.000
 4976.00    1.76479   1.59354    0.000
 4977.00    1.69515   1.59354    0.000
 4978.00    1.62050   1.59365    0.000
 4979.00    1.53386   1.59375    0.000
 4980.00    1.51553   1.59313    0.000
 4981.00    1.63832   1.58929    0.000
 4982.00    1.77049   1.58507    0.000
 4983.00    1.91953   1.58603    0.000
 4984.00    1.89141   1.59057    0.000
 4985.00    1.58495   1.59364    0.000
 4986.00    1.37118   1.59514    0.000
 4987.00    1.28527   1.59549    0.000
 4988.00    1.38575   1.59552    0.000
 4989.00    1.71253   1.59551    0.000
 4990.00    1.81363   1.59343    0.000
 4991.00    1.67316   1.59331    0.000
 4992.00    1.54886   1.59366    0.000
 4993.00    1.43982   1.59446    0.000
 4994.00    1.38340   1.59557    0.000
 4995.00    1.37079   1.59668    0.000
 4996.00    1.46189   1.59777    0.000
 4997.00    1.62900   1.59744    0.000
 4998.00    1.76104   1.59649    0.000
 4999.00    1.87050   1.59257    0.000
 5000.00    1.81120   1.58740    0.000
 5001.00    1.65689   1.58519    0.000
 5002.00    1.63583   1.58866    0.000
 5003.00    1.68005   1.59163    0.000
 5004.00    1.69095   1.59282    0.000
 5005.00    1.68775   1.59313    0.000
 5006.00    1.94798   1.59325    0.000
 5007.00    2.30373   1.59401    0.000
 5008.00    2.09406   1.59439    0.000
 5009.00    1.71093   1.59442    0.000
 5010.00    1.58476   1.59511    0.000
 5011.00    1.52420   1.59684    0.000
 5012.00    1.64001   1.59712    0.000
 5013.00    1.79246   1.58373    0.000
 5014.00    1.64684   1.54458    0.000
 5015.00    1.45242   1.52197    0.000
 5016.00    1.47210   1.54141    0.000
 5017.00    1.51806   1.57157    0.000
 5018.00    1.65638   1.58494    0.000
 5019.00    1.80250   1.59299    0.000
 5020.00    1.67332   1.59858    0.000
 5021.00    1.53070   1.59991    0.000
 5022.00    1.60594   1.59987    0.000
 5023.00    1.68488   1.59990    0.000
 5024.00    1.78421   1.59789    0.000
 5025.00    1.88419   1.59493    0.000
 5026.00    1.99719   1.59467    0.000
 5027.00    2.10331   1.59776    0.000
 5028.00    2.12895   1.60110    0.000
 5029.00    2.13367   1.60212    0.004
 5030.00    1.96952   1.60132    0.004
 5031.00    1.83064   1.59948    0.004
 5032.00    1.84503   1.59963    0.004
 5033.00    1.84820   1.60145    0.005
 5034.00    1.79770   1.60210    0.005
 5035.00    1.71315   1.60137    0.005
 5036.00    1.49598   1.60182    0.005
 5037.00    1.30308   1.60281    0.004
 5038.00    1.18895   1.60233    0.005
 5039.00    1.14550   1.59731    0.005
 5040.00    1.29610   1.59367    0.005
 5041.00    1.41516   1.59611    0.004
 5042.00    1.46007   1.60135    0.004
 5043.00    1.61393   1.60225    0.004
 5044.00    1.98928   1.60134    0.004
 5045.00    2.09790   1.59833    0.005
 5046.00    1.73460   1.59014    0.005
 5047.00    1.57429   1.58500    0.005
 5048.00    1.72819   1.59084    0.005
 5049.00    1.72926   1.60156    0.005
 5050.00    1.52256   1.60567    0.004
 5051.00    1.49922   1.60839    0.004
 5052.00    1.69535   1.61167    0.005
 5053.00    1.77278   1.61173    0.005
 5054.00    1.72493   1.60251    0.005
 5055.00    1.69081   1.59340    0.004
 5056.00    1.66946   1.59449    0.004
 5057.00    1.73434   1.60223    0.004
 5058.00    1.86999   1.60634    0.004
 5059.00    1.87652   1.60769    0.004
 5060.00    1.78978   1.60727    0.004
 5061.00    1.77791   1.60700    0.004
 5062.00    1.81350   1.60687    0.004
 5063.00    1.84905   1.60753    0.004
 5064.00    1.88456   1.60770    0.004
 5065.00    1.64095   1.60772    0.004
 5066.00    1.26275   1.60849    0.004
 5067.00    1.27269   1.60872    0.004
 5068.00    1.44422   1.60862    0.004
 5069.00    1.44730   1.60932    0.004
 5070.00    1.39041   1.60889    0.004
 5071.00    1.24747   1.60852    0.004
 5072.00    1.07865   1.60696    0.004
 5073.00    1.23668   1.60626    0.004
 5074.00    1.47634   1.60701    0.004
 5075.00    1.62616   1.60878    0.004
 5076.00    1.75777   1.60930    0.004
 5077.00    1.72069   1.61000    0.004
 5078.00    1.65680   1.60947    0.004
 5079.00    1.40128   1.60978    0.004
 5080.00    1.12310   1.60922    0.004
 5081.00    1.21106   1.60968    0.004
 5082.00    1.32847   1.60992    0.004
 5083.00    1.35878   1.61064    0.004
 5084.00    1.38517   1.61091    0.004
 5085.00    1.18886   1.61007    0.004
 5086.00    0.99869   1.60971    0.004
 5087.00    1.24543   1.60967    0.004
 5088.00    1.49416   1.61106    0.004
 5089.00    1.78009   1.61165    0.004
 5090.00    2.04015   1.61163    0.004
 5091.00    2.01218   1.61152    0.004
 5092.00    1.95936   1.61139    0.004
 5093.00    1.71298   1.61133    0.004
 5094.00    1.54284   1.61196    0.004
 5095.00    1.82188   1.61217    0.004
 5096.00    2.04267   1.61128    0.004
 5097.00    1.99163   1.61081    0.004
 5098.00    1.87758   1.61065    0.004
 5099.00    1.52340   1.60974    0.004
 5100.00    1.27082   1.61013    0.004
 5101.00    1.34140   1.61120    0.004
 5102.00    1.51520   1.61222    0.004
 5103.00    1.96728   1.61237    0.004
 5104.00    2.21060   1.61306    0.004
 5105.00    1.97123   1.61406    0.004
 5106.00    1.75901   1.61351    0.004
 5107.00    1.60111   1.61306    0.004
 5108.00    1.45304   1.61372    0.004
 5109.00    1.32210   1.61388    0.004
 5110.00    1.38559   1.61379    0.004
 5111.00    1.74561   1.61450    0.004
 5112.00    2.07410   1.61312    0.004
 5113.00    2.36032   1.61150    0.004
 5114.00    2.44134   1.61183    0.005
 5115.00    2.28019   1.61365    0.005
 5116.00    2.07609   1.61504    0.005
 5117.00    1.82728   1.61527    0.005
 5118.00    1.60964   1.61587    0.005
 5119.00    1.42060   1.61605    0.005
 5120.00    1.41546   1.61511    0.004
 5121.00    1.55908   1.61385    0.004
 5122.00    1.55196   1.61335    0.004
 5123.00    1.43753   1.61483    0.004
 5124.00    1.43106   1.61612    0.004
 5125.00    1.49204   1.61385    0.004
 5126.00    1.58831   1.61117    0.004
 5127.00    1.70386   1.61121    0.004
 5128.00    1.62711   1.61379    0.004
 5129.00    1.45912   1.61616    0.004
 5130.00    1.48406   1.61665    0.004
 5131.00    1.58796   1.61490    0.004
 5132.00    1.61036   1.61336    0.004
 5133.00    1.60427   1.61450    0.004
 5134.00    1.59379   1.61656    0.004
 5135.00    1.58202   1.61705    0.004
 5136.00    1.54906   1.61685    0.004
 5137.00    1.51093   1.61669    0.004
 5138.00    1.41292   1.61647    0.004
 5139.00    1.30308   1.61624    0.004
 5140.00    1.48127   1.61689    0.004
 5141.00    1.70389   1.61627    0.004
 5142.00    1.62998   1.61496    0.004
 5143.00    1.52231   1.61285    0.004
 5144.00    1.36536   1.61295    0.004
 5145.00    1.20465   1.61465    0.004
 5146.00    1.45372   1.61759    0.004
 5147.00    1.71964   1.61831    0.004
 5148.00    1.60407   1.61807    0.004
 5149.00    1.48730   1.61634    0.004
 5150.00    1.45185   1.61558    0.004
 5151.00    1.42563   1.61701    0.004
 5152.00    1.55934   1.61824    0.004
 5153.00    1.66668   1.61838    0.004
 5154.00    1.49360   1.61650    0.004
 5155.00    1.36469   1.61577    0.004
 5156.00    1.56821   1.61644    0.004
 5157.00    1.73349   1.62153    0.004
 5158.00    1.67971   1.62396    0.004
 5159.00    1.61833   1.62247    0.004
 5160.00    1.52231   1.62001    0.004
 5161.00    1.46094   1.61920    0.004
 5162.00    1.52886   1.61904    0.004
 5163.00    1.56867   1.61954    0.004
 5164.00    1.52079   1.61966    0.004
 5165.00    1.44548   1.61923    0.004
 5166.00    1.29750   1.61779    0.004
 5167.00    1.25282   1.61524    0.004
 5168.00    1.44301   1.61443    0.004
 5169.00    1.54004   1.61615    0.004
 5170.00    1.45363   1.61762    0.004
 5171.00    1.41841   1.61760    0.004
 5172.00    1.47105   1.61735    0.004
 5173.00    1.47120   1.61906    0.004
 5174.00    1.39247   1.62059    0.004
 5175.00    1.26553   1.62071    0.004
 5176.00    1.07492   1.62050    0.004
 5177.00    1.06704   1.62120    0.004
 5178.00    1.27174   1.62051    0.004
 5179.00    1.29800   1.61992    0.004
 5180.00    1.14118   1.62131    0.004
 5181.00    1.20380   1.62151    0.004
 5182.00    1.46498   1.62018    0.004
 5183.00    1.57985   1.61942    0.004
 5184.00    1.57804   1.61928    0.004
 5185.00    1.54264   1.62022    0.004
 5186.00    1.48366   1.62140    0.004
 5187.00    1.49458   1.62236    0.004
 5188.00    1.54851   1.62155    0.004
 5189.00    1.64216   1.62019    0.004
 5190.00    1.75716   1.61876    0.000
 5191.00    1.76573   1.61826    0.000
 5192.00    1.72462   1.61799    0.000
 5193.00    1.64721   1.61856    0.000
 5194.00    1.55521   1.62029    0.000
 5195.00    1.78614   1.62157    0.000
 5196.00    2.12790   1.62084    0.000
 5197.00    1.98628   1.62022    0.000
 5198.00    1.70501   1.61996    0.000
 5199.00    1.58855   1.61536    0.000
 5200.00    1.51145   1.61361    0.000
 5201.00    1.62391   1.61597    0.000
 5202.00    1.77286   1.61739    0.000
 5203.00    1.84977   1.61292    0.000
 5204.00    1.91590   1.61102    0.000
 5205.00    1.71746   1.61433    0.000
 5206.00    1.49003   1.61803    0.000
 5207.00    1.40106   1.62041    0.000
 5208.00    1.32209   1.62245    0.000
 5209.00    1.18108   1.62373    0.000
 5210.00    1.03775   1.62291    0.000
 5211.00    1.32997   1.61873    0.004
 5212.00    1.62455   1.61800    0.004
 5213.00    1.93122   1.62080    0.004
 5214.00    2.20533   1.62237    0.004
 5215.00    1.95148   1.62147    0.004
 5216.00    1.72371   1.62086    0.004
 5217.00    1.76134   1.62153    0.004
 5218.00    1.77389   1.62338    0.004
 5219.00    1.60388   1.62382    0.004
 5220.00    1.45338   1.62444    0.004
 5221.00    1.41158   1.62448    0.004
 5222.00    1.43154   1.62410    0.004
 5223.00    1.72631   1.62470    0.004
 5224.00    1.90737   1.62371    0.004
 5225.00    1.67304   1.62015    0.004
 5226.00    1.54260   1.61796    0.004
 5227.00    1.73016   1.61823    0.004
 5228.00    1.83684   1.62106    0.004
 5229.00    1.73307   1.62364    0.004
 5230.00    1.66817   1.62490    0.004
 5231.00    1.69022   1.62483    0.004
 5232.00    1.73822   1.62354    0.004
 5233.00    1.83655   1.62193    0.004
 5234.00    1.89722   1.62216    0.004
 5235.00    1.89424   1.62314    0.004
 5236.00    1.91190   1.62328    0.004
 5237.00    1.96011   1.62402    0.004
 5238.00    1.90335   1.62486    0.004
 5239.00    1.70991   1.62569    0.004
 5240.00    1.61774   1.62490    0.004
 5241.00    1.64171   1.62510    0.004
 5242.00    1.72219   1.62505    0.004
 5243.00    1.85985   1.62291    0.004
 5244.00    1.88968   1.62393    0.004
 5245.00    1.82331   1.62604    0.004
 5246.00    1.71550   1.62717    0.004
 5247.00    1.57512   1.62342    0.004
 5248.00    1.58416   1.62022    0.004
 5249.00    1.69652   1.62047    0.004
 5250.00    1.67576   1.62313    0.004
 5251.00    1.57431   1.62268    0.004
 5252.00    1.72876   1.61945    0.004
 5253.00    2.01864   1.61752    0.004
 5254.00    2.04455   1.62016    0.004
 5255.00    1.94925   1.62375    0.004
 5256.00    1.96631   1.62467    0.004
 5257.00    2.02781   1.62486    0.004
 5258.00    1.90597   1.62450    0.004
 5259.00    1.72237   1.62338    0.004
 5260.00    1.79902   1.62242    0.004
 5261.00    1.94933   1.62289    0.004
 5262.00    1.61609   1.62180    0.004
 5263.00    1.16997   1.62036    0.004
 5264.00    1.22541   1.61999    0.004
 5265.00    1.37489   1.62165    0.005
 5266.00    1.51710   1.62350    0.005
 5267.00    1.65825   1.62438    0.005
 5268.00    1.92291   1.62316    0.005
 5269.00    2.20056   1.62203    0.005
 5270.00    2.02595   1.61836    0.005
 5271.00    1.82051   1.61354    0.005
 5272.00    1.66353   1.61263    0.005
 5273.00    1.50817   1.61753    0.005
 5274.00    1.80898   1.62219    0.005
 5275.00    2.09532   1.62242    0.005
 5276.00    1.90221   1.62348    0.005
 5277.00    1.73588   1.62517    0.005
 5278.00    1.97720   1.62559    0.005
 5279.00    2.19970   1.62538    0.005
 5280.00    2.23869   1.62546    0.004
 5281.00    2.26873   1.62550    0.004
 5282.00    2.23567   1.62501    0.004
 5283.00    2.19049   1.62427    0.004
 5284.00    2.07957   1.62433    0.004
 5285.00    1.97601   1.62548    0.004
 5286.00    1.90442   1.62654    0.004
 5287.00    1.79172   1.62692    0.004
 5288.00    1.53188   1.62704    0.004
 5289.00    1.38247   1.62703    0.004
 5290.00    1.56473   1.62654    0.004
 5291.00    1.74490   1.62624    0.004
 5292.00    1.91978   1.62644    0.004
 5293.00    2.07987   1.62678    0.004
 5294.00    2.20740   1.62663    0.004
 5295.00    2.20420   1.62615    0.004
 5296.00    1.95155   1.62505    0.004
 5297.00    1.80803   1.62376    0.004
 5298.00    1.84622   1.62377    0.004
 5299.00    1.85513   1.62492    0.004
 5300.00    1.82133   1.62569    0.004
 5301.00    1.76386   1.62552    0.004
 5302.00    1.67602   1.62547    0.004
 5303.00    1.63860   1.62543    0.004
 5304.00    1.65817   1.62499    0.004
 5305.00    1.73070   1.62462    0.004
 5306.00    1.85606   1.62521    0.004
 5307.00    1.74825   1.62593    0.004
 5308.00    1.43535   1.62586    0.004
 5309.00    1.41171   1.62539    0.004
 5310.00    1.61224   1.62558    0.004
 5311.00    1.72349   1.62615    0.004
 5312.00    1.77392   1.62541    0.004
 5313.00    1.82677   1.62405    0.004
 5314.00    1.88107   1.62269    0.004
 5315.00    1.96746   1.62151    0.004
 5316.00    2.07057   1.62128    0.004
 5317.00    2.18418   1.62320    0.004
 5318.00    2.30254   1.62462    0.004
 5319.00    2.20548   1.61835    0.004
 5320.00    2.02474   1.61470    0.004
 5321.00    2.02930   1.61782    0.004
 5322.00    2.09511   1.62395    0.004
 5323.00    1.75614   1.62523    0.004
 5324.00    1.30493   1.62505    0.004
 5325.00    1.44195   1.62198    0.004
 5326.00    1.71313   1.61891    0.004
 5327.00    1.77567   1.61812    0.004
 5328.00    1.80012   1.62080    0.004
 5329.00    1.62921   1.62287    0.004
 5330.00    1.43090   1.62413    0.004
 5331.00    1.69539   1.62497    0.004
 5332.00    2.00657   1.62488    0.004
 5333.00    2.13872   1.62425    0.004
 5334.00    2.25938   1.62428    0.004
 5335.00    2.06699   1.62455    0.004
 5336.00    1.86580   1.62479    0.004
 5337.00    1.88293   1.62458    0.004
 5338.00    1.88698   1.62412    0.004
 5339.00    1.51761   1.62405    0.004
 5340.00    1.19542   1.62371    0.004
 5341.00    1.55019   1.62361    0.004
 5342.00    1.90110   1.62399    0.004
 5343.00    2.21586   1.62477    0.004
 5344.00    2.44809   1.62177    0.004
 5345.00    2.11749   1.61967    0.004
 5346.00    1.82110   1.62103    0.004
 5347.00    1.70535   1.62441    0.004
 5348.00    1.63264   1.62525    0.004
 5349.00    1.74269   1.62531    0.004
 5350.00    1.79215   1.62535    0.004
 5351.00    1.62926   1.62524    0.004
 5352.00    1.50633   1.62517    0.004
 5353.00    1.50118   1.62563    0.004
 5354.00    1.56389   1.62615    0.004
 5355.00    1.79713   1.62607    0.004
 5356.00    1.98393   1.62607    0.004
 5357.00    2.07023   1.62579    0.004
 5358.00    2.09459   1.62510    0.004
 5359.00    2.00257   1.62441    0.004
 5360.00    1.88020   1.62410    0.004
 5361.00    1.70805   1.62353    0.004
 5362.00    1.68190   1.62316    0.004
 5363.00    1.86572   1.62328    0.004
 5364.00    1.96222   1.62399    0.004
 5365.00    1.94825   1.62416    0.004
 5366.00    1.82881   1.62402    0.004
 5367.00    1.59179   1.62394    0.004
 5368.00    1.62075   1.62381   -2.000
 5369.00    1.91126   1.62344   -2.000
 5370.00    2.19655   1.62310   -2.000
 5371.00    2.47733   1.62348   -2.000
 5372.00    2.75231   1.62419   -2.000
 5373.00    3.02287   1.62465   -2.000
 5374.00    2.77034   1.62415   -2.000
 5375.00    2.16660   1.62372   -2.000
 5376.00    1.91023   1.62388   -2.000
 5377.00    1.85818   1.62449   -2.000
 5378.00    1.79770   1.62470   -2.000
 5379.00    1.73288   1.62419   -2.000
 5380.00    1.56312   1.62387   -2.000
 5381.00    1.34673   1.62368   -2.000
 5382.00    1.32657   1.62378   -2.000
 5383.00    1.38132   1.62380    0.004
 5384.00    1.50569   1.62404    0.004
 5385.00    1.65263   1.62407    0.004
 5386.00    1.76024   1.62371    0.004
 5387.00    1.85717   1.62345    0.004
 5388.00    1.62311   1.62366    0.004
 5389.00    1.31532   1.62359    0.004
 5390.00    1.61933   1.62319    0.004
 5391.00    2.03200   1.62282    0.004
 5392.00    1.65796   1.62268    0.004
 5393.00    1.17718   1.62260    0.004
 5394.00    1.37565   1.62214    0.004
 5395.00    1.63974   1.62134    0.004
 5396.00    1.73705   1.62058    0.004
 5397.00    1.82432   1.62056    0.004
 5398.00    1.86047   1.62048    0.004
 5399.00    1.89333   1.61930    0.004
 5400.00    1.60177   1.61672    0.004
 5401.00    1.33731   1.61508    0.004
 5402.00    1.77180   1.61493    0.004
 5403.00    2.15279   1.61385    0.004
 5404.00    1.80842   1.61034    0.004
 5405.00    1.50084   1.60556    0.004
 5406.00    1.52416   1.59899    0.004
 5407.00    1.53001   1.58504    0.004
 5408.00    1.42049   1.55152    0.004
 5409.00    1.35589   1.47727    0.004
 5410.00    1.52229   1.39546    0.004
 5411.00    1.72077   1.37950    0.004
 5412.00    2.05238   1.44356    0.004
 5413.00    2.21361   1.52358    0.004
 5414.00    1.78960   1.57007    0.004
 5415.00    1.50766   1.59253    0.004
 5416.00    1.63675   1.60422    0.004
 5417.00    1.73315   1.61040    0.004
 5418.00    1.74880   1.61393    0.004
 5419.00    1.76801   1.61591    0.004
 5420.00    1.79480   1.61727    0.004
 5421.00    1.77783   1.61824    0.004
 5422.00    1.67990   1.61853    0.004
 5423.00    1.67626   1.61834    0.004
 5424.00    1.82497   1.61799    0.004
 5425.00    1.87152   1.61872    0.004
 5426.00    1.77326   1.61927    0.004
 5427.00    1.69292   1.61853    0.004
 5428.00    1.63492   1.61723    0.004
 5429.00    1.66592   1.61803    0.004
 5430.00    1.79473   1.61910    0.004
 5431.00    1.71281   1.61840    0.004
 5432.00    1.42659   1.61790    0.004
 5433.00    1.56664   1.61833    0.004
 5434.00    2.07114   1.61980    0.004
 5435.00    2.26949   1.61990    0.004
 5436.00    2.23730   1.62030    0.004
 5437.00    2.14928   1.62076    0.004
 5438.00    2.02432   1.62127    0.004
 5439.00    1.88018   1.62118    0.004
 5440.00    1.72493   1.62090    0.004
 5441.00    1.78024   1.62072    0.004
 5442.00    1.94185   1.62027    0.004
 5443.00    1.78948   1.62001    0.004
 5444.00    1.49991   1.61953    0.004
 5445.00    1.47622   1.61887    0.004
 5446.00    1.55224   1.61887    0.004
 5447.00    1.39872   1.61965    0.004
 5448.00    1.17216   1.62038    0.004
 5449.00    1.35690   1.62010    0.004
 5450.00    1.65098   1.61944    0.004
 5451.00    1.85503   1.61783    0.004
 5452.00    2.03949   1.61491    0.004
 5453.00    1.98062   1.61371    0.004
 5454.00    1.87971   1.61454    0.004
 5455.00    1.72950   1.61695    0.004
 5456.00    1.57282   1.61789    0.004
 5457.00    1.67371   1.61901    0.004
 5458.00    1.79839   1.61970    0.004
 5459.00    1.87534   1.61969    0.004
 5460.00    1.94961   1.61899    0.004
 5461.00    1.83852   1.61823    0.004
 5462.00    1.72493   1.61833    0.004
 5463.00    1.78201   1.61849    0.004
 5464.00    1.83329   1.61746    0.004
 5465.00    1.74865   1.61523    0.004
 5466.00    1.66373   1.61471    0.004
 5467.00    1.57538   1.61647    0.004
 5468.00    1.49738   1.61832    0.004
 5469.00    1.50901   1.61856    0.004
 5470.00    1.54368   1.61880    0.004
 5471.00    1.72598   1.61789    0.004
 5472.00    1.87339   1.61576    0.004
 5473.00    1.84597   1.61526    0.004
 5474.00    1.84252   1.61649    0.004
 5475.00    1.93640   1.61689    0.004
 5476.00    1.94062   1.61631    0.004
 5477.00    1.64299   1.61643    0.004
 5478.00    1.45567   1.61669   -2.000
 5479.00    1.58168   1.61754   -2.000
 5480.00    1.65886   1.61835   -2.000
 5481.00    1.61755   1.61848   -2.000
 5482.00    1.62183   1.61820   -2.000
 5483.00    1.72164   1.61785   -2.000
 5484.00    2.52751   1.61773   -2.000
 5485.00    4.61916   1.61691   -2.000
 5486.00    6.33113   1.61606   -2.000
 5487.00    7.43871   1.61561   -2.000
 5488.00    7.65751   1.61579   -2.000
 5489.00    6.63469   1.61656   -2.000
 5490.00    4.94487   1.61681   -2.000
 5491.00    2.43505   1.61634   -2.000
 5492.00    1.09764   1.61592   -2.000
 5493.00    1.03078   1.61566   -2.000
 5494.00    1.00608   1.61544   -2.000
 5495.00    1.02167   1.61543   -2.000
 5496.00    1.23069   1.61546   -2.000
 5497.00    1.60273   1.61583   -2.000
 5498.00    1.84146   1.61620   -2.000
 5499.00    1.98126   1.61652   -2.000
 5500.00    1.89595   1.61608   -2.000
 5501.00    1.66387   1.61522   -2.000
 5502.00    1.63989   1.61494    0.004
 5503.00    1.73463   1.61550    0.004
 5504.00    1.75415   1.61484    0.004
 5505.00    1.73631   1.61407    0.004
 5506.00    1.70906   1.60669    0.004
 5507.00    1.67777   1.60135    0.004
 5508.00    1.55829   1.60107    0.004
 5509.00    1.40632   1.60716    0.004
 5510.00    1.41144   1.61269    0.004
 5511.00    1.46559   1.61405    0.004
 5512.00    1.56156   1.61456    0.004
 5513.00    1.66841   1.61493    0.004
 5514.00    1.58573   1.61547    0.004
 5515.00    1.46281   1.61541    0.004
 5516.00    1.55209   1.61525    0.004
 5517.00    1.67699   1.61495    0.004
 5518.00    1.57627   1.61467    0.004
 5519.00    1.44697   1.61451    0.004
 5520.00    1.51508   1.61471    0.004
 5521.00    1.60060   1.61479    0.004
 5522.00    1.63701   1.61438    0.004
 5523.00    1.67086   1.61373    0.004
 5524.00    1.73863   1.61269    0.004
 5525.00    1.80413   1.61179    0.004
 5526.00    1.64952   1.61160    0.004
 5527.00    1.50665   1.61171    0.004
 5528.00    1.61629   1.61187    0.004
 5529.00    1.72250   1.61224    0.004
 5530.00    1.78685   1.61257    0.004
 5531.00    1.81755   1.61276    0.004
 5532.00    1.56776   1.61312    0.004
 5533.00    1.37824   1.61233    0.004
 5534.00    1.56374   1.61153    0.004
 5535.00    1.74181   1.61103    0.004
 5536.00    1.88365   1.61151    0.004
 5537.00    1.92740   1.61211    0.004
 5538.00    1.58173   1.61290    0.004
 5539.00    1.35418   1.61299    0.004
 5540.00    1.51637   1.61263    0.004
 5541.00    1.64539   1.61263    0.004
 5542.00    1.68189   1.61221    0.004
 5543.00    1.75930   1.61163    0.004
 5544.00    1.93431   1.61137    0.004
 5545.00    2.01824   1.61144    0.004
 5546.00    1.91439   1.61180    0.004
 5547.00    1.88482   1.61177    0.004
 5548.00    1.98846   1.61171    0.004
 5549.00    2.05647   1.61194    0.004
 5550.00    2.06862   1.61200    0.004
 5551.00    1.99039   1.61164    0.004
 5552.00    1.78769   1.61162    0.004
 5553.00    1.69696   1.61142    0.004
 5554.00    1.74190   1.61079    0.004
 5555.00    1.74010   1.61048    0.004
 5556.00    1.68837   1.61064    0.004
 5557.00    1.76494   1.61091    0.004
 5558.00    1.96243   1.61061    0.004
 5559.00    2.04049   1.61026    0.004
 5560.00    2.01931   1.61029    0.004
 5561.00    1.94934   1.60994    0.004
 5562.00    1.84366   1.60936    0.004
 5563.00    1.65678   1.60819    0.004
 5564.00    1.41775   1.60777    0.004
 5565.00    1.46863   1.60804    0.004
 5566.00    1.68240   1.60898    0.004
 5567.00    1.69920   1.60919    0.004
 5568.00    1.61969   1.60883    0.004
 5569.00    1.49144   1.60881    0.004
 5570.00    1.34261   1.60881    0.004
 5571.00    1.47610   1.60842    0.004
 5572.00    1.71173   1.60759    0.004
 5573.00    1.82206   1.60767    0.004
 5574.00    1.89405   1.60841    0.004
 5575.00    1.75807   1.60880    0.004
 5576.00    1.56914   1.60827    0.004
 5577.00    1.66906   1.60727    0.004
 5578.00    1.82882   1.60655    0.004
 5579.00    1.85168   1.60716    0.004
 5580.00    1.85221   1.60801    0.004
 5581.00    1.80131   1.60802    0.004
 5582.00    1.74412   1.60793    0.004
 5583.00    1.60613   1.60776    0.004
 5584.00    1.46134   1.60721    0.004
 5585.00    1.52938   1.60643    0.004
 5586.00    1.60772   1.60541    0.004
 5587.00    1.70004   1.60489    0.004
 5588.00    1.79029   1.60579    0.004
 5589.00    1.74578   1.60222    0.004
 5590.00    1.70879   1.55677    0.004
 5591.00    1.82094   1.51021    0.004
 5592.00    1.92522   1.50792    0.004
 5593.00    1.93798   1.56261    0.004
 5594.00    1.95758   1.59921    0.004
 5595.00    2.03216   1.60520    0.004
 5596.00    2.08303   1.60606    0.004
 5597.00    1.99059   1.60622    0.004
 5598.00    1.91766   1.60568    0.004
 5599.00    1.93772   1.60514    0.004
 5600.00    1.92944   1.60497    0.004
 5601.00    1.81102   1.60488    0.004
 5602.00    1.68505   1.60480    0.004
 5603.00    1.53466   1.60521    0.004
 5604.00    1.44901   1.60411    0.004
 5605.00    1.54068   1.60327    0.004
 5606.00    1.61799   1.60329    0.004
 5607.00    1.66164   1.60442    0.004
 5608.00    1.67876   1.60499    0.004
 5609.00    1.64205   1.60510    0.004
 5610.00    1.55498   1.60481    0.004
 5611.00    1.37898   1.60466    0.004
 5612.00    1.36667   1.60470    0.004
 5613.00    1.60728   1.60427    0.004
 5614.00    1.74079   1.60300    0.004
 5615.00    1.72898   1.60167    0.004
 5616.00    1.76245   1.60170    0.004
 5617.00    1.85003   1.60276    0.004
 5618.00    1.83682   1.60365    0.004
 5619.00    1.71741   1.60351    0.004
 5620.00    1.68060   1.60335    0.004
 5621.00    1.72054   1.60326    0.004
 5622.00    1.68414   1.60303    0.004
 5623.00    1.58521   1.60240    0.004
 5624.00    1.52568   1.60217    0.004
 5625.00    1.49457   1.60231    0.004
 5626.00    1.52120   1.60240    0.004
 5627.00    1.58438   1.60257    0.004
 5628.00    1.70850   1.60264    0.004
 5629.00    1.86634   1.60244    0.004
 5630.00    1.96527   1.60206    0.004
 5631.00    2.03584   1.60177    0.004
 5632.00    2.03378   1.60138    0.004
 5633.00    2.00153   1.60120    0.004
 5634.00    1.85320   1.60120    0.004
 5635.00    1.66363   1.60099    0.004
 5636.00    1.61370   1.60072    0.004
 5637.00    1.60565   1.60021    0.004
 5638.00    1.66816   1.59692    0.004
 5639.00    1.74825   1.59421    0.004
 5640.00    1.73276   1.59455    0.004
 5641.00    1.69797   1.59813    0.004
 5642.00    1.57664   1.59974    0.004
 5643.00    1.44161   1.59924    0.004
 5644.00    1.47239   1.59788    0.004
 5645.00    1.52269   1.59628    0.003
 5646.00    1.50192   1.59607    0.003
 5647.00    1.47548   1.59659    0.003
 5648.00    1.51115   1.59758    0.003
 5649.00    1.54958   1.59853    0.003
 5650.00    1.53688   1.59896    0.003
 5651.00    1.52439   1.59917    0.004
 5652.00    1.55011   1.59911    0.003
 5653.00    1.57073   1.59882    0.003
 5654.00    1.49720   1.59841    0.003
 5655.00    1.43143   1.59810    0.003
 5656.00    1.45173   1.59781    0.003
 5657.00    1.47374   1.59701    0.003
 5658.00    1.50901   1.59537    0.003
 5659.00    1.54909   1.59502    0.003
 5660.00    1.61749   1.59478    0.003
 5661.00    1.63434   1.59472    0.003
 5662.00    1.41139   1.59412    0.003
 5663.00    1.24883   1.59434    0.003
 5664.00    1.31587   1.59383    0.003
 5665.00    1.38829   1.59196    0.003
 5666.00    1.47779   1.59165    0.003
 5667.00    1.58182   1.59327    0.004
 5668.00    1.72497   1.59574    0.004
 5669.00    1.80147   1.59613    0.004
 5670.00    1.72421   1.59609    0.003
 5671.00    1.66193   1.59610    0.003
 5672.00    1.62958   1.59622    0.004
 5673.00    1.59459   1.59514    0.004
 5674.00    1.55503   1.59288    0.004
 5675.00    1.60745   1.59165    0.004
 5676.00    1.79992   1.59243    0.004
 5677.00    1.86279   1.59218    0.004
 5678.00    1.75229   1.58946    0.004
 5679.00    1.62089   1.58831    0.004
 5680.00    1.46484   1.59050    0.004
 5681.00    1.48736   1.59338    0.004
 5682.00    1.69535   1.59344    0.004
 5683.00    1.80668   1.59356    0.003
 5684.00    1.82947   1.59238    0.003
 5685.00    1.76705   1.59130    0.003
 5686.00    1.63584   1.59133    0.003
 5687.00    1.54695   1.59273    0.003
 5688.00    1.48814   1.59355    0.003
 5689.00    1.46964   1.59328    0.003
 5690.00    1.47628   1.59279    0.003
 5691.00    1.56821   1.59267    0.003
 5692.00    1.70663   1.59288    0.003
 5693.00    1.81739   1.59455    0.003
 5694.00    1.91506   1.59760    0.003
 5695.00    1.87914   1.59777    0.003
 5696.00    1.78867   1.59611    0.003
 5697.00    1.67709   1.59338    0.003
 5698.00    1.55816   1.59389    0.003
 5699.00    1.53624   1.59202    0.003
 5700.00    1.54284   1.59095    0.003
 5701.00    1.68177   1.59078    0.003
 5702.00    1.85294   1.59077    0.004
 5703.00    1.79099   1.59073    0.003
 5704.00    1.68312   1.59030    0.003
 5705.00    1.51960   1.58964    0.003
 5706.00    1.34753   1.58933    0.003
 5707.00    1.34815   1.58901    0.003
 5708.00    1.36833   1.58852    0.003
 5709.00    1.43405   1.58776    0.004
 5710.00    1.50322   1.58731    0.004
 5711.00    1.59687   1.58735    0.004
 5712.00    1.69152   1.58847    0.004
 5713.00    1.57060   1.58895    0.004
 5714.00    1.44791   1.58895    0.004
 5715.00    1.32136   1.58889    0.003
 5716.00    1.21804   1.58884    0.003
 5717.00    1.51413   1.58905    0.003
 5718.00    1.78291   1.58893    0.003
 5719.00    1.76277   1.58848    0.003
 5720.00    1.72691   1.58770    0.003
 5721.00    1.57331   1.58522    0.003
 5722.00    1.45271   1.58397    0.003
 5723.00    1.52048   1.58515    0.003
 5724.00    1.57005   1.58757    0.003
 5725.00    1.53691   1.58753    0.003
 5726.00    1.52705   1.58721    0.003
 5727.00    1.60380   1.58711    0.003
 5728.00    1.68853   1.58705    0.003
 5729.00    1.79810   1.58672    0.003
 5730.00    1.84217   1.58621    0.003
 5731.00    1.71314   1.58605    0.003
 5732.00    1.60287   1.58612    0.003
 5733.00    1.53514   1.58595    0.003
 5734.00    1.52436   1.58599    0.003
 5735.00    1.62551   1.58619    0.003
 5736.00    1.71814   1.58656    0.003
 5737.00    1.79621   1.58441    0.003
 5738.00    1.82496   1.58012    0.003
 5739.00    1.77973   1.57854    0.003
 5740.00    1.77296   1.58020    0.000
 5741.00    1.81692   1.58377    0.000
 5742.00    1.84180   1.58419    0.000
 5743.00    1.84453   1.58406    0.000
 5744.00    1.82595   1.58409    0.000
 5745.00    1.78556   1.58338    0.000
 5746.00    1.74251   1.58249    0.000
 5747.00    1.69705   1.58214    0.000
 5748.00    1.72552   1.58268    0.000
 5749.00    1.81283   1.58327    0.000
 5750.00    1.85458   1.58355    0.000
 5751.00    1.86441   1.58302    0.000
 5752.00    1.85417   1.58241    0.000
 5753.00    1.83160   1.58196    0.000
 5754.00    1.85761   1.58129    0.000
 5755.00    1.90968   1.58121    0.000
 5756.00    1.88443   1.58154    0.000
 5757.00    1.82316   1.58218    0.000
 5758.00    1.92282   1.58224    0.000
 5759.00    2.08709   1.58200    0.000
 5760.00    1.98016   1.58174    0.000
 5761.00    1.78038   1.58122    0.000
 5762.00    1.56577   1.58050    0.000
 5763.00    1.34689   1.58043    0.000
 5764.00    1.34439   1.58062    0.000
 5765.00    1.39344   1.58057    0.000
 5766.00    1.46831   1.57970    0.000
 5767.00    1.54815   1.57927    0.000
 5768.00    1.55298   1.57940    0.000
 5769.00    1.54665   1.57975    0.000
 5770.00    1.55218   1.57961    0.000
 5771.00    1.55901   1.57934    0.000
 5772.00    1.67607   1.57932    0.000
 5773.00    1.80104   1.57886    0.000
 5774.00    1.81139   1.57841    0.000
 5775.00    1.81751   1.57824    0.000
 5776.00    1.82018   1.57811    0.000
 5777.00    1.82045   1.57773    0.000
 5778.00    1.73541   1.57688    0.000
 5779.00    1.66079   1.57527    0.000
 5780.00    1.75382   1.57325    0.000
 5781.00    1.82537   1.57237    0.000
 5782.00    1.67932   1.57309    0.000
 5783.00    1.55252   1.57426    0.000
 5784.00    1.56510   1.57505    0.000
 5785.00    1.57715   1.57562    0.000
 5786.00    1.58623   1.57601    0.000
 5787.00    1.60070   1.57624    0.000
 5788.00    1.63904   1.57617    0.000
 5789.00    1.67837   1.57578    0.000
 5790.00    1.72130   1.57520    0.000
 5791.00    1.77172   1.57510   -2.000
 5792.00    1.84503   1.57540   -2.000
 5793.00    1.91346   1.57550   -2.000
 5794.00    1.96921   1.57487   -2.000
 5795.00    2.02058   1.57434   -2.000
 5796.00    2.06216   1.57347   -2.000
 5797.00    2.10114   1.57252   -2.000
 5798.00    2.13509   1.56619   -2.000
 5799.00    2.16360   1.52197   -2.000
 5800.00    2.18292   1.47789   -2.000
 5801.00    2.22183   1.47580   -2.000
 5802.00    2.28972   1.52511   -2.000
 5803.00    2.32345   1.56325   -2.000
 5804.00    2.31280   1.57127   -2.000
 5805.00    2.20478   1.57267   -2.000
 5806.00    1.98527   1.57278   -2.000
 5807.00    1.86633   1.57196   -2.000
 5808.00    1.84895   1.57316   -2.000
 5809.00    1.86361   1.55968   -2.000
 5810.00    1.90683   1.51886   -2.000
 5811.00    1.85276   1.49583    0.000
 5812.00    1.72234   1.50621    0.000
 5813.00    1.67689   1.55020    0.000
 5814.00    1.69008   1.56772    0.000
 5815.00    1.78120   1.57095    0.000
 5816.00    1.91948   1.57087    0.000
 5817.00    1.86108   1.57026    0.000
 5818.00    1.69879   1.56976    0.000
 5819.00    1.76883   1.56953    0.000
 5820.00    1.94532   1.56966    0.000
 5821.00    2.15094   1.57037    0.000
 5822.00    2.36805   1.57092    0.000
 5823.00    2.47988   1.57170    0.000
 5824.00    2.55634   1.58193    0.000
 5825.00    2.42523   1.59357    0.000
 5826.00    2.23552   1.59483    0.000
 5827.00    2.14647   1.58266    0.000
 5828.00    2.08084   1.57186    0.000
 5829.00    1.96191   1.56937    0.000
 5830.00    1.83302   1.56937    0.000
 5831.00    1.63592   1.56968    0.000
 5832.00    1.42897   1.57056    0.000
 5833.00    1.44801   1.57046    0.000
 5834.00    1.49069   1.57026    0.000
 5835.00    1.55573   1.56966    0.000
 5836.00    1.62227   1.56926    0.000
 5837.00    1.86047   1.56879    0.000
 5838.00    2.10435   1.56802    0.000
 5839.00    2.03536   1.56799    0.000
 5840.00    1.96458   1.56760    0.000
 5841.00    1.84360   1.56737    0.000
 5842.00    1.73461   1.56721    0.000
 5843.00    1.80662   1.56715    0.000
 5844.00    1.87297   1.56671    0.000
 5845.00    1.88439   1.56634    0.000
 5846.00    1.87030   1.56503    0.000
 5847.00    1.67732   1.56447    0.000
 5848.00    1.50211   1.56495    0.000
 5849.00    1.42292   1.56574    0.000
 5850.00    1.37900   1.56491    0.000
 5851.00    1.48785   1.56401    0.000
 5852.00    1.55485   1.56328    0.000
 5853.00    1.47249   1.56301    0.000
 5854.00    1.41512   1.56379    0.000
 5855.00    1.43267   1.56491    0.000
 5856.00    1.47180   1.56536    0.000
 5857.00    1.56596   1.56511    0.000
 5858.00    1.60775   1.56489    0.000
 5859.00    1.53454   1.56472    0.000
 5860.00    1.45954   1.56385    0.000
 5861.00    1.38115   1.56378    0.000
 5862.00    1.37236   1.56407    0.000
 5863.00    1.47925   1.56410    0.000
 5864.00    1.60177   1.56352    0.000
 5865.00    1.74708   1.56310    0.000
 5866.00    1.84784   1.56246    0.000
 5867.00    1.89154   1.56204    0.000
 5868.00    1.82593   1.56168    0.000
 5869.00    1.63695   1.56147    0.000
 5870.00    1.55756   1.56228    0.000
 5871.00    1.58729   1.55874    0.000
 5872.00    1.65430   1.55647    0.000
 5873.00    1.75405   1.46718    0.000
 5874.00    1.80195   1.32857    0.000
 5875.00    1.80975   1.27944    0.000
 5876.00    1.75962   1.35437    0.000
 5877.00    1.67009   1.49547    0.000
 5878.00    1.58254   1.54393    0.000
 5879.00    1.49618   1.55444    0.000
 5880.00    1.45124   1.55728    0.000
 5881.00    1.42786   1.55827    0.000
 5882.00    1.47492   1.55837    0.000
 5883.00    1.55375   1.55830    0.000
 5884.00    1.59472   1.55853    0.000
 5885.00    1.62102   1.55841    0.000
 5886.00    1.53207   1.55847    0.000
 5887.00    1.40511   1.55671    0.000
 5888.00    1.39107   1.55156    0.000
 5889.00    1.40827   1.54494    0.000
 5890.00    1.42177   1.54118    0.000
 5891.00    1.43443   1.54591    0.000
 5892.00    1.41856   1.55455    0.000
 5893.00    1.39751   1.55962    0.000
 5894.00    1.33086   1.55784    0.000
 5895.00    1.25785   1.55137    0.000
 5896.00    1.33484   1.54609    0.000
 5897.00    1.42689   1.54683    0.000
 5898.00    1.43704   1.55186    0.000
 5899.00    1.44198   1.55524    0.000
 5900.00    1.46662   1.55625    0.000
 5901.00    1.49140   1.55602    0.003
 5902.00    1.36809   1.55562    0.003
 5903.00    1.24989   1.55536    0.003
 5904.00    1.27553   1.55556    0.003
 5905.00    1.31291   1.55498    0.003
 5906.00    1.51734   1.55480    0.003
 5907.00    1.70037   1.55533    0.003
 5908.00    1.68407   1.55567    0.003
 5909.00    1.65454   1.55493    0.003
 5910.00    1.53521   1.55444    0.003
 5911.00    1.42375   1.55430    0.003
 5912.00    1.35372   1.55351    0.003
 5913.00    1.29552   1.55270    0.003
 5914.00    1.28742   1.55265    0.003
 5915.00    1.30310   1.55319    0.003
 5916.00    1.40194   1.55353    0.003
 5917.00    1.45458   1.55325    0.003
 5918.00    1.37141   1.55313    0.003
 5919.00    1.29300   1.55320    0.003
 5920.00    1.22653   1.55315    0.003
 5921.00    1.21003   1.55350    0.003
 5922.00    1.30143   1.55351    0.003
 5923.00    1.32520   1.55345    0.003
 5924.00    1.22216   1.55293    0.003
 5925.00    1.21266   1.55218    0.003
 5926.00    1.35628   1.55140    0.003
 5927.00    1.48737   1.55064    0.003
 5928.00    1.60048   1.55059    0.003
 5929.00    1.61136   1.55039    0.003
 5930.00    1.49315   1.54939    0.003
 5931.00    1.43595   1.54870    0.003
 5932.00    1.44666   1.54882    0.003
 5933.00    1.47662   1.54923    0.003
 5934.00    1.52548   1.54968    0.003
 5935.00    1.52716   1.55042    0.003
 5936.00    1.48800   1.55064    0.003
 5937.00    1.40435   1.55101    0.003
 5938.00    1.28675   1.55026    0.003
 5939.00    1.22066   1.54884    0.003
 5940.00    1.18909   1.54718    0.003
 5941.00    1.16818   1.54698    0.003
 5942.00    1.15352   1.54768    0.003
 5943.00    1.15733   1.54803    0.003
 5944.00    1.17060   1.54798    0.003
 5945.00    1.16860   1.54776    0.003
 5946.00    1.15984   1.54792    0.003
 5947.00    1.21317   1.54742    0.003
 5948.00    1.29016   1.54708    0.003
 5949.00    1.34064   1.54652    0.003
 5950.00    1.38254   1.54592    0.003
 5951.00    1.39429   1.54545    0.003
 5952.00    1.39788   1.54544    0.003
 5953.00    1.36583   1.54566    0.003
 5954.00    1.32586   1.54564    0.003
 5955.00    1.28309   1.54389    0.003
 5956.00    1.23982   1.54271    0.003
 5957.00    1.30356   1.54260    0.003
 5958.00    1.38176   1.54357    0.003
 5959.00    1.46004   1.54544    0.003
 5960.00    1.53834   1.54509    0.003
 5961.00    1.46620   1.54503    0.003
 5962.00    1.38508   1.54540    0.003
 5963.00    1.49736   1.54569    0.003
 5964.00    1.61338   1.54562    0.003
 5965.00    1.54193   1.54550    0.003
 5966.00    1.47384   1.54539    0.003
 5967.00    1.49115   1.54515    0.003
 5968.00    1.50919   1.54456    0.003
 5969.00    1.53705   1.54406    0.003
 5970.00    1.55462   1.54360    0.003
 5971.00    1.48016   1.54344    0.003
 5972.00    1.42429   1.54303    0.003
 5973.00    1.49079   1.54209    0.003
 5974.00    1.53504   1.54108    0.003
 5975.00    1.46523   1.54005    0.003
 5976.00    1.38873   1.53890    0.003
 5977.00    1.28449   1.53634    0.003
 5978.00    1.20672   1.53491    0.003
 5979.00    1.21963   1.53567    0.003
 5980.00    1.25678   1.53874    0.003
 5981.00    1.36385   1.54054    0.003
 5982.00    1.42126   1.54083    0.003
 5983.00    1.35630   1.54011    0.003
 5984.00    1.29676   1.53988    0.003
 5985.00    1.24872   1.54035    0.003
 5986.00    1.23290   1.54018    0.003
 5987.00    1.27652   1.53927    0.003
 5988.00    1.36173   1.53902    0.003
 5989.00    1.51401   1.53921    0.003
 5990.00    1.61693   1.53958    0.003
 5991.00    1.65001   1.53968    0.003
 5992.00    1.64745   1.54005    0.003
 5993.00    1.60054   1.53984    0.003
 5994.00    1.55251   1.53954    0.003
 5995.00    1.50324   1.53923    0.003
 5996.00    1.49638   1.53907    0.003
 5997.00    1.53057   1.53908    0.003
 5998.00    1.53378   1.53867    0.003
 5999.00    1.51056   1.53834    0.003
 6000.00    1.46338   1.53788    0.003
 6001.00    1.39818   1.53662    0.003
 6002.00    1.41056   1.53565    0.003
 6003.00    1.47416   1.53523    0.003
 6004.00    1.46431   1.53492    0.003
 6005.00    1.41198   1.53475    0.003
 6006.00    1.38895   1.53476    0.003
 6007.00    1.38069   1.53494    0.003
 6008.00    1.37867   1.53534    0.003
 6009.00    1.37936   1.53591    0.003
 6010.00    1.38902   1.53571    0.003
 6011.00    1.40203   1.53536    0.003
 6012.00    1.41732   1.53563    0.003
 6013.00    1.43333   1.53574    0.003
 6014.00    1.46796   1.53547    0.003
 6015.00    1.50752   1.53546    0.003
 6016.00    1.44946   1.53565    0.003
 6017.00    1.37023   1.53572    0.003
 6018.00    1.32548   1.53543    0.003
 6019.00    1.28667   1.53462    0.003
 6020.00    1.34482   1.53404    0.003
 6021.00    1.41564   1.53367    0.003
 6022.00    1.50146   1.53364    0.003
 6023.00    1.58866   1.53352    0.003
 6024.00    1.62210   1.53370    0.003
 6025.00    1.65254   1.53423    0.003
 6026.00    1.52757   1.53388    0.003
 6027.00    1.40014   1.53305    0.003
 6028.00    1.36629   1.53216    0.003
 6029.00    1.33753   1.53189    0.003
 6030.00    1.42685   1.53205    0.003
 6031.00    1.51014   1.53213    0.003
 6032.00    1.51670   1.53199    0.003
 6033.00    1.53504   1.53106    0.003
 6034.00    1.65493   1.52952    0.003
 6035.00    1.75578   1.52819    0.003
 6036.00    1.73504   1.52722    0.003
 6037.00    1.69898   1.52726    0.003
 6038.00    1.58638   1.52809    0.003
 6039.00    1.49526   1.52902    0.003
 6040.00    1.49109   1.52930    0.003
 6041.00    1.48202   1.52886    0.003
 6042.00    1.45645   1.52881    0.003
 6043.00    1.43250   1.52916    0.003
 6044.00    1.41317   1.52922    0.003
 6045.00    1.41320   1.52907    0.003
 6046.00    1.46009   1.52873    0.003
 6047.00    1.48067   1.52886    0.003
 6048.00    1.44624   1.52906    0.003
 6049.00    1.40750   1.52896    0.003
 6050.00    1.36096   1.52880    0.003
 6051.00    1.31546   1.52878    0.003
 6052.00    1.27163   1.52830    0.003
 6053.00    1.22890   1.52820    0.003
 6054.00    1.18774   1.52774    0.003
 6055.00    1.18372   1.52735    0.003
 6056.00    1.22530   1.52746    0.003
 6057.00    1.27612   1.52749    0.003
 6058.00    1.33693   1.52735    0.003
 6059.00    1.37694   1.52686    0.003
 6060.00    1.39710   1.52662    0.003
 6061.00    1.36909   1.52675    0.003
 6062.00    1.30054   1.52649    0.003
 6063.00    1.27449   1.52580    0.003
 6064.00    1.27993   1.52487    0.003
 6065.00    1.35733   1.52425    0.003
 6066.00    1.48155   1.52434    0.003
 6067.00    1.51190   1.52408    0.003
 6068.00    1.48879   1.52340    0.003
 6069.00    1.40673   1.52251    0.003
 6070.00    1.29543   1.52142    0.003
 6071.00    1.23492   1.52061    0.003
 6072.00    1.19619   1.51875    0.003
 6073.00    1.21384   1.51811    0.003
 6074.00    1.25222   1.51836    0.003
 6075.00    1.31778   1.51936    0.003
 6076.00    1.39179   1.52080    0.003
 6077.00    1.37424   1.52116    0.003
 6078.00    1.33293   1.52120    0.003
 6079.00    1.21601   1.52167    0.003
 6080.00    1.08308   1.52223    0.003
 6081.00    1.02071   1.52196    0.003
 6082.00    0.97013   1.52157    0.003
 6083.00    1.05204   1.52198    0.003
 6084.00    1.15065   1.52204    0.003
 6085.00    1.17734   1.52172    0.003
 6086.00    1.19773   1.52167    0.003
 6087.00    1.17481   1.52183    0.003
 6088.00    1.14965   1.52151    0.003
 6089.00    1.13101   1.52130    0.003
 6090.00    1.11190   1.52092    0.003
 6091.00    1.04973   1.52054    0.003
 6092.00    0.98870   1.52046    0.003
 6093.00    0.95194   1.52125    0.003
 6094.00    0.92045   1.52090    0.003
 6095.00    0.95272   1.52032    0.003
 6096.00    0.99738   1.52087    0.003
 6097.00    1.14476   1.52209    0.003
 6098.00    1.28310   1.52226    0.003
 6099.00    1.36539   1.52110    0.003
 6100.00    1.42628   1.51909    0.003
 6101.00    1.38288   1.51794    0.003
 6102.00    1.36884   1.51745    0.003
 6103.00    1.47108   1.51773    0.003
 6104.00    1.55673   1.51858    0.003
 6105.00    1.58777   1.51838    0.003
 6106.00    1.58880   1.51798    0.003
 6107.00    1.50635   1.51724    0.003
 6108.00    1.40853   1.51696    0.003
 6109.00    1.27413   1.51661    0.003
 6110.00    1.18791   1.51604    0.003
 6111.00    1.20084   1.51512    0.003
 6112.00    1.21915   1.51429    0.003
 6113.00    1.24711   1.51318    0.003
 6114.00    1.30689   1.51183    0.003
 6115.00    1.41647   1.50982    0.003
 6116.00    1.48897   1.50817    0.003
 6117.00    1.51049   1.50761    0.003
 6118.00    1.50827   1.50866    0.003
 6119.00    1.47732   1.50946    0.003
 6120.00    1.47266   1.51000    0.003
 6121.00    1.49605   1.51023    0.003
 6122.00    1.46422   1.51120    0.003
 6123.00    1.38046   1.51249    0.003
 6124.00    1.33857   1.51283    0.003
 6125.00    1.33142   1.51314    0.003
 6126.00    1.39420   1.51298    0.003
 6127.00    1.50803   1.51308    0.003
 6128.00    1.49998   1.51305    0.003
 6129.00    1.41379   1.51316    0.003
 6130.00    1.34078   1.51300    0.003
 6131.00    1.27518   1.51307    0.003
 6132.00    1.31078   1.51273    0.003
 6133.00    1.39578   1.51233    0.003
 6134.00    1.42582   1.51191    0.003
 6135.00    1.43269   1.51146    0.003
 6136.00    1.38565   1.51083    0.003
 6137.00    1.31915   1.51071    0.003
 6138.00    1.32100   1.51104    0.003
 6139.00    1.34372   1.51106    0.003
 6140.00    1.38011   1.51050    0.003
 6141.00    1.41996   1.50969    0.003
 6142.00    1.42115   1.50955    0.003
 6143.00    1.41435   1.51003    0.003
 6144.00    1.30166   1.51057    0.003
 6145.00    1.17176   1.51043    0.003
 6146.00    1.08631   1.51002    0.003
 6147.00    1.00626   1.50940    0.003
 6148.00    1.05606   1.50862    0.003
 6149.00    1.11670   1.50764    0.003
 6150.00    1.20982   1.50712    0.003
 6151.00    1.30449   1.50768    0.003
 6152.00    1.29162   1.50791    0.003
 6153.00    1.27780   1.50788    0.003
 6154.00    1.29989   1.50649    0.003
 6155.00    1.32585   1.50554    0.003
 6156.00    1.42768   1.50437    0.003
 6157.00    1.51589   1.50484    0.003
 6158.00    1.44693   1.50624    0.003
 6159.00    1.37599   1.50673    0.003
 6160.00    1.28917   1.50654    0.003
 6161.00    1.22961   1.50526    0.003
 6162.00    1.33409   1.50434    0.003
 6163.00    1.42549   1.50387    0.003
 6164.00    1.45467   1.50295    0.003
 6165.00    1.47041   1.50143    0.003
 6166.00    1.43412   1.49965    0.003
 6167.00    1.40038   1.49765    0.003
 6168.00    1.37488   1.49492    0.003
 6169.00    1.35427   1.49313    0.003
 6170.00    1.34702   1.49354    0.003
 6171.00    1.32521   1.49460    0.003
 6172.00    1.26933   1.49605    0.003
 6173.00    1.24248   1.49774    0.003
 6174.00    1.27438   1.49960    0.003
 6175.00    1.32202   1.50081    0.003
 6176.00    1.39738   1.50108    0.003
 6177.00    1.43525   1.50170    0.003
 6178.00    1.41527   1.50188    0.003
 6179.00    1.39658   1.50168    0.003
 6180.00    1.37961   1.50159    0.003
 6181.00    1.36378   1.50169    0.003
 6182.00    1.34933   1.50181    0.003
 6183.00    1.31888   1.50158    0.003
 6184.00    1.27161   1.50130    0.003
 6185.00    1.22387   1.50156    0.003
 6186.00    1.17570   1.50152    0.003
 6187.00    1.16543   1.50113    0.003
 6188.00    1.18616   1.50116    0.003
 6189.00    1.18187   1.50111    0.003
 6190.00    1.15959   1.50015    0.003
 6191.00    1.11593   1.49961    0.003
 6192.00    1.05875   1.50052    0.003
 6193.00    1.25081   1.50078    0.003
 6194.00    1.58050   1.50074    0.003
 6195.00    2.42012   1.50051    0.003
 6196.00    3.50460   1.50058   -2.000
 6197.00    3.96442   1.49914   -2.000
 6198.00    4.16529   1.49762   -2.000
 6199.00    3.40899   1.49650   -2.000
 6200.00    2.31344   1.49734   -2.000
 6201.00    1.32238   1.49896   -2.000
 6202.00    0.36258   1.49840   -2.000
 6203.00    0.11687   1.49789   -2.000
 6204.00    0.04852   1.49742   -2.000
 6205.00    0.24828   1.49745   -2.000
 6206.00    0.50201   1.49723   -2.000
 6207.00    0.81577   1.49748   -2.000
 6208.00    1.13900   1.49763    0.003
 6209.00    1.25755   1.49791    0.003
 6210.00    1.35212   1.49787    0.003
 6211.00    1.32507   1.49725    0.003
 6212.00    1.28837   1.49619    0.003
 6213.00    1.17167   1.49581    0.003
 6214.00    1.05145   1.49588    0.003
 6215.00    1.11336   1.49582    0.003
 6216.00    1.17619   1.49610    0.003
 6217.00    1.18739   1.49608    0.003
 6218.00    1.19855   1.49527    0.003
 6219.00    1.20920   1.49454    0.003
 6220.00    1.22604   1.49420    0.003
 6221.00    1.31122   1.49394    0.003
 6222.00    1.37969   1.49349    0.003
 6223.00    1.31912   1.49317    0.003
 6224.00    1.26267   1.49253    0.003
 6225.00    1.23044   1.49182    0.003
 6226.00    1.19439   1.49130    0.003
 6227.00    1.14064   1.49029    0.003
 6228.00    1.09026   1.48937    0.003
 6229.00    1.05260   1.48759    0.003
 6230.00    1.01487   1.48411    0.003
 6231.00    0.97694   1.48092    0.003
 6232.00    0.96850   1.47919    0.003
 6233.00    1.03927   1.47945    0.003
 6234.00    1.10496   1.48119    0.003
 6235.00    1.15896   1.48383    0.003
 6236.00    1.19136   1.48549    0.003
 6237.00    1.18073   1.48555    0.003
 6238.00    1.20115   1.48562    0.003
 6239.00    1.27549   1.48694    0.003
 6240.00    1.31283   1.48827    0.003
 6241.00    1.29396   1.48869    0.003
 6242.00    1.26463   1.48844    0.003
 6243.00    1.22134   1.48885    0.003
 6244.00    1.16405   1.48935    0.003
 6245.00    1.09032   1.48892    0.003
 6246.00    1.03351   1.48840    0.003
 6247.00    0.99425   1.48895    0.003
 6248.00    0.98578   1.48933    0.003
 6249.00    1.00548   1.48962    0.003
 6250.00    1.00756   1.48939    0.003
 6251.00    0.99544   1.48852    0.003
 6252.00    1.04341   1.48812    0.003
 6253.00    1.13401   1.48818    0.003
 6254.00    1.21197   1.48846    0.003
 6255.00    1.28208   1.48805    0.003
 6256.00    1.40108   1.48788    0.003
 6257.00    1.54667   1.48778    0.003
 6258.00    1.80094   1.48785    0.003
 6259.00    2.10656   1.48795    0.003
 6260.00    2.18414   1.48785    0.003
 6261.00    2.16879   1.48808    0.004
 6262.00    1.95471   1.48822    0.004
 6263.00    1.67148   1.48777    0.004
 6264.00    1.42390   1.48706    0.004
 6265.00    1.18677   1.48651    0.004
 6266.00    1.13746   1.48634    0.004
 6267.00    1.13376   1.48642    0.003
 6268.00    1.17293   1.48632    0.003
 6269.00    1.22051   1.48600    0.003
 6270.00    1.28308   1.48513    0.003
 6271.00    1.34793   1.48513    0.003
 6272.00    1.33437   1.48557    0.003
 6273.00    1.31196   1.48551    0.003
 6274.00    1.19615   1.48522    0.003
 6275.00    1.07331   1.48488    0.003
 6276.00    1.10022   1.48476    0.003
 6277.00    1.13316   1.48408    0.003
 6278.00    1.20795   1.48295    0.003
 6279.00    1.28100   1.48253    0.003
 6280.00    1.27131   1.48275    0.000
 6281.00    1.25997   1.48267    0.000
 6282.00    1.22054   1.48219    0.000
 6283.00    1.18430   1.48111    0.000
 6284.00    1.18168   1.47939    0.000
 6285.00    1.18087   1.47813    0.000
 6286.00    1.19368   1.47881    0.000
 6287.00    1.20077   1.48028    0.000
 6288.00    1.17538   1.48089    0.000
 6289.00    1.14907   1.48063    0.000
 6290.00    1.11857   1.48067    0.000
 6291.00    1.10974   1.48130    0.000
 6292.00    1.18134   1.48145    0.000
 6293.00    1.23065   1.48060    0.000
 6294.00    1.21079   1.48003    0.000
 6295.00    1.18177   1.48023    0.000
 6296.00    1.12865   1.48012    0.000
 6297.00    1.07875   1.47978    0.000
 6298.00    1.03617   1.47928    0.000
 6299.00    1.02200   1.47837    0.000
 6300.00    1.06357   1.47776    0.000
 6301.00    1.08886   1.47722    0.000
 6302.00    1.08633   1.47705    0.000
 6303.00    1.09281   1.47583    0.000
 6304.00    1.11279   1.47408    0.000
 6305.00    1.14064   1.47249    0.000
 6306.00    1.17883   1.47091    0.000
 6307.00    1.18007   1.46858    0.000
 6308.00    1.13847   1.46500    0.000
 6309.00    1.11192   1.46167    0.000
 6310.00    1.10074   1.46026    0.000
 6311.00    1.13623   1.46110    0.000
 6312.00    1.21379   1.46370    0.000
 6313.00    1.21343   1.46630    0.000
 6314.00    1.15114   1.46885    0.000
 6315.00    1.09571   1.47065    0.000
 6316.00    1.04506   1.47273    0.000
 6317.00    1.05513   1.47337    0.000
 6318.00    1.10241   1.47364    0.000
 6319.00    1.09882   1.47415    0.000
 6320.00    1.06799   1.47481    0.000
 6321.00    1.06978   1.47473    0.003
 6322.00    1.08674   1.47440    0.003
 6323.00    1.13395   1.47552    0.003
 6324.00    1.19328   1.47554    0.003
 6325.00    1.21618   1.47520    0.003
 6326.00    1.22664   1.47482    0.003
 6327.00    1.20982   1.47467    0.003
 6328.00    1.18517   1.47471    0.003
 6329.00    1.21665   1.47458    0.003
 6330.00    1.26145   1.47458    0.003
 6331.00    1.23641   1.47446    0.003
 6332.00    1.19801   1.47375    0.003
 6333.00    1.17332   1.47277    0.003
 6334.00    1.15066   1.47195    0.003
 6335.00    1.14013   1.47209    0.003
 6336.00    1.13092   1.47215    0.003
 6337.00    1.15866   1.47240    0.003
 6338.00    1.18903   1.47250    0.003
 6339.00    1.19530   1.47184    0.003
 6340.00    1.20068   1.47142    0.003
 6341.00    1.08113   1.47122    0.003
 6342.00    0.96547   1.47124    0.003
 6343.00    1.00310   1.47092    0.003
 6344.00    1.03981   1.46827    0.003
 6345.00    1.06173   1.45987    0.003
 6346.00    1.07874   1.45633    0.003
 6347.00    1.04638   1.45774    0.003
 6348.00    1.01793   1.46479    0.003
 6349.00    1.01769   1.46905    0.003
 6350.00    1.00565   1.46893    0.003
 6351.00    0.92831   1.46911    0.003
 6352.00    0.86677   1.46920    0.003
 6353.00    0.87511   1.46906    0.003
 6354.00    0.90417   1.46870    0.003
 6355.00    1.00852   1.46833    0.003
 6356.00    1.09950   1.46833    0.003
 6357.00    1.14971   1.46819    0.003
 6358.00    1.15918   1.46859    0.003
 6359.00    1.06310   1.46810    0.003
 6360.00    0.97877   1.46803    0.003
 6361.00    0.92064   1.46751    0.003
 6362.00    0.88505   1.46729    0.003
 6363.00    0.89301   1.46732    0.003
 6364.00    0.89384   1.46699    0.003
 6365.00    0.88266   1.46682    0.003
 6366.00    0.88371   1.46687    0.003
 6367.00    0.90280   1.46615    0.003
 6368.00    0.94932   1.46530    0.003
 6369.00    1.03141   1.46043    0.003
 6370.00    1.09301   1.45724    0.003
 6371.00    1.13118   1.45718    0.003
 6372.00    1.11491   1.46126    0.003
 6373.00    1.04377   1.46562    0.003
 6374.00    1.01986   1.46552    0.003
 6375.00    1.03794   1.46549    0.003
 6376.00    1.03884   1.46534    0.003
 6377.00    1.02629   1.46460    0.003
 6378.00    1.04857   1.46304    0.003
 6379.00    1.09484   1.46160    0.003
 6380.00    1.10098   1.46093    0.003
 6381.00    1.08289   1.46108    0.003
 6382.00    1.09086   1.46241    0.003
 6383.00    1.11257   1.46276    0.003
 6384.00    1.15538   1.46285    0.003
 6385.00    1.20785   1.46346    0.003
 6386.00    1.23660   1.46318    0.003
 6387.00    1.25602   1.46298    0.003
 6388.00    1.24084   1.46318    0.003
 6389.00    1.21407   1.46322    0.003
 6390.00    1.22622   1.46286    0.003
 6391.00    1.24932   1.46225    0.003
 6392.00    1.21183   1.46143    0.003
 6393.00    1.16027   1.46081    0.003
 6394.00    1.06717   1.46080    0.003
 6395.00    0.96632   1.46046    0.003
 6396.00    0.99559   1.46005    0.003
 6397.00    1.04356   1.45907    0.003
 6398.00    1.01627   1.45821    0.003
 6399.00    0.98114   1.45660    0.003
 6400.00    1.03704   1.45390    0.003
 6401.00    1.09905   1.45135    0.003
 6402.00    1.11355   1.44863    0.003
 6403.00    1.12650   1.44503    0.003
 6404.00    0.98414   1.44015    0.003
 6405.00    0.84540   1.43673    0.003
 6406.00    0.82021   1.43718    0.003
 6407.00    0.80371   1.44082    0.003
 6408.00    0.91753   1.44596    0.003
 6409.00    1.02888   1.45024    0.003
 6410.00    1.11643   1.45238    0.003
 6411.00    1.18468   1.45375    0.003
 6412.00    1.11814   1.45527    0.003
 6413.00    1.06341   1.45643    0.003
 6414.00    1.07225   1.45654    0.003
 6415.00    1.08541   1.45634    0.003
 6416.00    1.11718   1.45614    0.003
 6417.00    1.14231   1.45652    0.003
 6418.00    1.14378   1.45678    0.003
 6419.00    1.16576   1.45660    0.003
 6420.00    1.24905   1.45620    0.003
 6421.00    1.31854   1.45619    0.003
 6422.00    1.35291   1.45662    0.003
 6423.00    1.35302   1.45707    0.003
 6424.00    1.27808   1.45713    0.003
 6425.00    1.24262   1.45715    0.003
 6426.00    1.28216   1.45676    0.003
 6427.00    1.32052   1.45694    0.003
 6428.00    1.35689   1.45657    0.003
 6429.00    1.34823   1.45594    0.003
 6430.00    1.27407   1.45587    0.003
 6431.00    1.23333   1.45569    0.003
 6432.00    1.23534   1.45549    0.003
 6433.00    1.22628   1.45529    0.003
 6434.00    1.20475   1.45549    0.003
 6435.00    1.15007   1.45533    0.003
 6436.00    1.06245   1.45452    0.003
 6437.00    1.07184   1.45322    0.003
 6438.00    1.16627   1.45307    0.003
 6439.00    1.23110   1.45312    0.003
 6440.00    1.27309   1.45374    0.003
 6441.00    1.19989   1.45283    0.003
 6442.00    1.04848   1.45274    0.003
 6443.00    0.98498   1.45254    0.003
 6444.00    0.97379   1.45192    0.003
 6445.00    1.05741   1.45186    0.003
 6446.00    1.19023   1.45228    0.003
 6447.00    1.23765   1.45233    0.003
 6448.00    1.24666   1.45129    0.003
 6449.00    1.18204   1.44978    0.003
 6450.00    1.08892   1.45005    0.003
 6451.00    1.04141   1.45013    0.003
 6452.00    1.00889   1.44911    0.003
 6453.00    1.05140   1.44799    0.003
 6454.00    1.11461   1.44625    0.003
 6455.00    1.08101   1.44631    0.003
 6456.00    1.02546   1.44694    0.003
 6457.00    1.03721   1.44906    0.003
 6458.00    1.06117   1.45459    0.003
 6459.00    1.12011   1.45657    0.003
 6460.00    1.18390   1.45444    0.003
 6461.00    1.18367   1.44968    0.003
 6462.00    1.17705   1.44614    0.003
 6463.00    1.10570   1.44770    0.003
 6464.00    1.03027   1.44790    0.003
 6465.00    0.96900   1.44547    0.003
 6466.00    0.90834   1.44420    0.003
 6467.00    0.91190   1.44451    0.003
 6468.00    0.92021   1.44681    0.003
 6469.00    1.06102   1.44784    0.003
 6470.00    1.19038   1.44789    0.003
 6471.00    1.15777   1.44788    0.003
 6472.00    1.11893   1.44811    0.003
 6473.00    1.02229   1.44774    0.003
 6474.00    0.93426   1.44708    0.003
 6475.00    0.90444   1.44681    0.003
 6476.00    0.88673   1.44556    0.003
 6477.00    0.93245   1.44440    0.003
 6478.00    0.97589   1.44429    0.003
 6479.00    1.00971   1.44428    0.003
 6480.00    1.04693   1.44384    0.003
 6481.00    1.09596   1.44337    0.003
 6482.00    1.11427   1.44353    0.003
 6483.00    1.04240   1.44399    0.003
 6484.00    0.99319   1.44445    0.003
 6485.00    1.00064   1.44427    0.003
 6486.00    1.03727   1.44444    0.003
 6487.00    1.13680   1.44445    0.003
 6488.00    1.19763   1.44402    0.003
 6489.00    1.18606   1.44354    0.003
 6490.00    1.17241   1.44286    0.003
 6491.00    1.15537   1.44236    0.003
 6492.00    1.16321   1.44168    0.003
 6493.00    1.20670   1.44075    0.003
 6494.00    1.20636   1.44026    0.003
 6495.00    1.15077   1.44023    0.003
 6496.00    1.09311   1.43918    0.003
 6497.00    1.03314   1.43908    0.003
 6498.00    1.02780   1.44012    0.003
 6499.00    1.07597   1.44106    0.003
 6500.00    1.10988   1.44136    0.003
 6501.00    1.13146   1.44115    0.003
 6502.00    1.11724   1.44073    0.003
 6503.00    1.07577   1.43920    0.003
 6504.00    1.03829   1.43756    0.003
 6505.00    1.00349   1.43469    0.003
 6506.00    1.05329   1.43316    0.003
 6507.00    1.15266   1.43408    0.003
 6508.00    1.21917   1.43543    0.003
 6509.00    1.26889   1.43742    0.003
 6510.00    1.26808   1.43797    0.003
 6511.00    1.24490   1.43800    0.003
 6512.00    1.19915   1.43778    0.003
 6513.00    1.14481   1.43691    0.003
 6514.00    1.11252   1.43492    0.003
 6515.00    1.08734   1.43304    0.003
 6516.00    1.09411   1.43267    0.003
 6517.00    1.10953   1.43265    0.003
 6518.00    1.13055   1.43202    0.003
 6519.00    1.15282   1.43154    0.003
 6520.00    1.15549   1.43005    0.003
 6521.00    1.15472   1.42823    0.003
 6522.00    1.16086   1.42471    0.003
 6523.00    1.16793   1.41938    0.003
 6524.00    1.08123   1.41235    0.003
 6525.00    0.98558   1.40521    0.003
 6526.00    0.89016   1.40227    0.003
 6527.00    0.79476   1.40478    0.003
 6528.00    0.93370   1.41071    0.000
 6529.00    1.07723   1.41685    0.000
 6530.00    1.03434   1.42028    0.000
 6531.00    0.98933   1.42238    0.000
 6532.00    0.89090   1.42399    0.000
 6533.00    0.80810   1.42512    0.000
 6534.00    0.93438   1.42560    0.000
 6535.00    1.04705   1.42520    0.000
 6536.00    1.03852   1.42450    0.000
 6537.00    1.01729   1.42398    0.000
 6538.00    0.91275   1.42310    0.000
 6539.00    0.83850   1.42195    0.000
 6540.00    0.91902   1.42056    0.000
 6541.00    1.01215   1.42001    0.000
 6542.00    1.15736   1.41827    0.000
 6543.00    1.26434   1.41536    0.000
 6544.00    1.24067   1.41126    0.000
 6545.00    1.22578   1.40814    0.000
 6546.00    1.23618   1.40558    0.000
 6547.00    1.21827   1.40437    0.000
 6548.00    1.13074   1.40114    0.000
 6549.00    1.04153   1.39603    0.000
 6550.00    0.94875   1.39077    0.000
 6551.00    0.92499   1.38341    0.000
 6552.00    1.02836   1.37438    0.000
 6553.00    1.10699   1.36208    0.000
 6554.00    1.14578   1.34527    0.000
 6555.00    1.14919   1.32218    0.000
 6556.00    1.10264   1.28753    0.000
 6557.00    1.07772   1.23017    0.000
 6558.00    1.07969   1.16126    0.000
 6559.00    1.11094   1.08438    0.000
 6560.00    1.17427   1.00880    0.000
 6561.00    1.24128   0.95295    0.000
 6562.00    1.31184   0.93382    0.000
 6563.00    1.30758   0.98278    0.000
 6564.00    1.23958   1.07530    0.000
 6565.00    1.19695   1.17460    0.000
 6566.00    1.17336   1.24915    0.000
 6567.00    1.12889   1.29468    0.000
 6568.00    1.07065   1.32414    0.000
 6569.00    1.00157   1.34444    0.000
 6570.00    0.92624   1.35920    0.000
 6571.00    0.87805   1.37056    0.000
 6572.00    0.84351   1.37960    0.000
 6573.00    0.81775   1.38679    0.000
 6574.00    0.79582   1.39233    0.000
 6575.00    0.83588   1.39368    0.000
 6576.00    0.89908   1.39210    0.000
 6577.00    1.02284   1.39295    0.000
 6578.00    1.16577   1.39745    0.000
 6579.00    1.26752   1.40464    0.000
 6580.00    1.35839   1.40793    0.000
 6581.00    1.27716   1.40414    0.000
 6582.00    1.15873   1.40481    0.000
 6583.00    1.08554   1.40720    0.000
 6584.00    1.02011   1.41364    0.000
 6585.00    1.01195   1.41624    0.000
 6586.00    1.01123   1.41698    0.000
 6587.00    0.97842   1.41782    0.000
 6588.00    0.94268   1.41825    0.000
 6589.00    0.83844   1.41868    0.000
 6590.00    0.73041   1.41864    0.000
 6591.00    0.77540   1.41834    0.000
 6592.00    0.82516   1.41867    0.000
 6593.00    1.01780   1.41909    0.000
 6594.00    1.20093   1.42019    0.000
 6595.00    1.16590   1.42066    0.000
 6596.00    1.13101   1.42015    0.000
 6597.00    1.09773   1.41960    0.000
 6598.00    1.06288   1.41996    0.000
 6599.00    1.01455   1.42082    0.000
 6600.00    0.98219   1.42127    0.000
 6601.00    1.05147   1.42193    0.000
 6602.00    1.10820   1.42213    0.000
 6603.00    1.10243   1.42184    0.000
 6604.00    1.08415   1.42177    0.000
 6605.00    1.01541   1.42171    0.000
 6606.00    0.94937   1.42164    0.000
 6607.00    0.89237   1.42157    0.000
 6608.00    0.87872   1.42065    0.000
 6609.00    0.98765   1.42006   -1.000
 6610.00    1.06797   1.42042   -1.000
 6611.00    1.07913   1.42085   -1.000
 6612.00    1.07526   1.42081   -1.000
 6613.00    1.04002   1.41981   -1.000
 6614.00    1.01924   1.41899   -1.000
 6615.00    1.02469   1.41913   -1.000
 6616.00    1.03213   1.42042    0.014
 6617.00    1.04275   1.42071    0.004
 6618.00    1.02758   1.42065    0.003
 6619.00    0.97650   1.42038    0.003
 6620.00    0.90281   1.42050    0.003
 6621.00    0.80144   1.42000    0.003
 6622.00    0.77025   1.41990    0.003
 6623.00    0.81482   1.41983    0.003
 6624.00    0.92436   1.41999    0.003
 6625.00    1.09579   1.41927    0.003
 6626.00    1.09805   1.41893    0.003
 6627.00    0.95822   1.41840    0.003
 6628.00    0.83334   1.41854    0.003
 6629.00    0.71951   1.41892    0.003
 6630.00    0.72901   1.41866    0.003
 6631.00    0.81860   1.41857    0.003
 6632.00    0.89377   1.41826    0.003
 6633.00    0.96075   1.41840    0.003
 6634.00    1.00888   1.41835    0.003
 6635.00    1.04768   1.41874    0.003
 6636.00    1.05209   1.41936    0.003
 6637.00    1.04177   1.41891    0.003
 6638.00    1.01556   1.41859    0.003
 6639.00    0.98351   1.41804    0.003
 6640.00    0.96376   1.41795    0.003
 6641.00    0.94783   1.41788    0.003
 6642.00    0.92098   1.41798    0.003
 6643.00    0.89131   1.41769    0.003
 6644.00    0.80917   1.41763    0.003
 6645.00    0.71597   1.41736    0.003
 6646.00    0.71372   1.41773    0.003
 6647.00    0.72663   1.41746    0.003
 6648.00    0.77830   1.41713    0.003
 6649.00    0.83483   1.41705    0.003
 6650.00    0.89286   1.41720    0.003
 6651.00    0.95102   1.41691    0.003
 6652.00    0.97817   1.41635    0.003
 6653.00    1.00374   1.41601    0.003
 6654.00    0.95632   1.41571    0.003
 6655.00    0.90877   1.41540    0.003
 6656.00    0.94423   1.41598    0.003
 6657.00    0.97875   1.41595    0.003
 6658.00    0.99361   1.41587    0.003
 6659.00    1.00223   1.41555    0.003
 6660.00    0.93557   1.41498    0.003
 6661.00    0.87918   1.41395    0.003
 6662.00    0.90754   1.41357    0.003
 6663.00    0.93844   1.41416    0.003
 6664.00    0.98501   1.41370    0.003
 6665.00    1.02010   1.41269    0.003
 6666.00    0.99946   1.41208    0.003
 6667.00    0.97619   1.41221    0.003
 6668.00    0.94249   1.41260    0.003
 6669.00    0.92858   1.41324    0.003
 6670.00    0.97966   1.41208    0.003
 6671.00    1.02739   1.41146    0.003
 6672.00    1.06582   1.41043    0.003
 6673.00    1.07224   1.40874    0.003
 6674.00    1.00262   1.40702    0.003
 6675.00    0.97621   1.39910    0.003
 6676.00    1.03854   1.38391    0.003
 6677.00    1.11632   1.37233    0.003
 6678.00    1.22171   1.36934    0.003
 6679.00    1.27110   1.37363    0.003
 6680.00    1.23299   1.37476    0.003
 6681.00    1.20771   1.37093    0.003
 6682.00    1.20004   1.36964    0.003
 6683.00    1.19112   1.37388    0.003
 6684.00    1.18069   1.38309    0.003
 6685.00    1.17042   1.39306    0.003
 6686.00    1.16033   1.39933    0.003
 6687.00    1.11497   1.40325    0.003
 6688.00    1.03650   1.40545    0.003
 6689.00    0.98237   1.40731    0.003
 6690.00    0.94837   1.40825    0.003
 6691.00    0.96934   1.40865    0.003
 6692.00    1.03036   1.40856    0.003
 6693.00    1.08717   1.40846    0.003
 6694.00    1.14128   1.40906    0.003
 6695.00    1.14808   1.40944    0.003
 6696.00    1.12841   1.40961    0.000
 6697.00    1.10580   1.40954    0.000
 6698.00    1.08176   1.40899    0.000
 6699.00    1.10566   1.40794    0.000
 6700.00    1.14973   1.40757    0.000
 6701.00    1.21895   1.40839    0.000
 6702.00    1.29721   1.40929    0.000
 6703.00    1.22332   1.40922    0.000
 6704.00    1.10310   1.40887    0.000
 6705.00    0.98663   1.40876    0.000
 6706.00    0.87111   1.40867    0.000
 6707.00    0.88952   1.40878    0.000
 6708.00    0.93549   1.40873    0.000
 6709.00    0.98206   1.40840    0.000
 6710.00    1.02872   1.40806    0.000
 6711.00    1.09535   1.40772    0.000
 6712.00    1.16440   1.40781    0.000
 6713.00    1.17452   1.40772    0.000
 6714.00    1.17975   1.40714    0.000
 6715.00    1.23265   1.40653    0.000
 6716.00    1.28780   1.40566    0.000
 6717.00    1.19771   1.40530    0.000
 6718.00    1.10889   1.40614    0.000
 6719.00    1.20730   1.40613    0.000
 6720.00    1.31055   1.40599    0.000
 6721.00    1.50801   1.40540    0.000
 6722.00    1.69761   1.40506    0.000
 6723.00    1.79701   1.40543    0.000
 6724.00    1.87735   1.40438    0.000
 6725.00    1.80583   1.40179    0.000
 6726.00    1.70443   1.39941    0.000
 6727.00    1.42386   1.39990    0.000
 6728.00    1.17533   1.39742    0.000
 6729.00    1.07858   1.39428    0.000
 6730.00    1.01458   1.39280    0.000
 6731.00    1.07706   1.39478    0.000
 6732.00    1.13037   1.40034    0.000
 6733.00    1.15416   1.40465    0.000
 6734.00    1.17988   1.40473    0.000
 6735.00    1.21087   1.40442    0.000
 6736.00    1.23256   1.40431    0.000
 6737.00    1.23251   1.40444    0.000
 6738.00    1.21978   1.40432    0.000
 6739.00    1.18145   1.40349    0.000
 6740.00    1.13502   1.40091    0.000
 6741.00    1.07432   1.39774    0.000
 6742.00    1.05744   1.38609    0.000
 6743.00    1.10802   1.38196    0.000
 6744.00    1.13049   1.38384    0.000
 6745.00    1.11493   1.39137    0.000
 6746.00    1.07575   1.40136    0.000
 6747.00    1.00845   1.40225    0.000
 6748.00    0.96795   1.40241    0.000
 6749.00    0.95559   1.40303    0.000
 6750.00    0.98436   1.40271    0.000
 6751.00    1.05122   1.40211    0.000
 6752.00    1.04157   1.40148    0.000
 6753.00    0.96948   1.40182    0.003
 6754.00    0.96297   1.40177    0.003
 6755.00    1.00358   1.40116    0.003
 6756.00    0.92258   1.40054    0.003
 6757.00    0.76490   1.40111    0.003
 6758.00    0.78312   1.40102    0.003
 6759.00    0.89828   1.40015    0.003
 6760.00    1.12122   1.39730    0.004
 6761.00    1.39580   1.39631    0.004
 6762.00    1.53939   1.39662    0.004
 6763.00    1.62881   1.39852    0.004
 6764.00    1.59161   1.39998    0.004
 6765.00    1.50963   1.39994    0.004
 6766.00    1.39941   1.39977    0.004
 6767.00    1.28076   1.39965    0.004
 6768.00    1.18546   1.39907    0.003
 6769.00    1.09596   1.39940    0.003
 6770.00    1.04661   1.39953    0.003
 6771.00    1.00532   1.39920    0.003
 6772.00    1.18260   1.39906    0.003
 6773.00    1.39424   1.39870    0.003
 6774.00    1.27279   1.39856    0.003
 6775.00    1.11249   1.39867    0.003
 6776.00    1.00160   1.39881    0.003
 6777.00    0.89462   1.39819    0.003
 6778.00    1.11198   1.39584    0.003
 6779.00    1.34347   1.39436    0.003
 6780.00    1.25923   1.39467    0.003
 6781.00    1.17062   1.39507    0.003
 6782.00    1.03221   1.39447    0.003
 6783.00    0.90228   1.39381    0.003
 6784.00    0.92571   1.39365    0.003
 6785.00    0.94700   1.39451    0.003
 6786.00    0.94486   1.39494    0.003
 6787.00    0.95250   1.39532    0.003
 6788.00    1.03529   1.39571    0.003
 6789.00    1.10567   1.39537    0.003
 6790.00    1.10368   1.39471    0.003
 6791.00    1.11084   1.39456    0.003
 6792.00    1.16038   1.39518    0.003
 6793.00    1.22404   1.39581    0.003
 6794.00    1.34111   1.39598    0.003
 6795.00    1.40077   1.39587    0.003
 6796.00    1.27917   1.39548    0.003
 6797.00    1.15673   1.39555    0.003
 6798.00    1.03201   1.39496    0.003
 6799.00    1.03025   1.39406    0.003
 6800.00    1.31098   1.39413    0.003
 6801.00    1.44743   1.39451    0.003
 6802.00    1.29695   1.39541    0.003
 6803.00    1.19856   1.39554    0.003
 6804.00    1.19042   1.39465    0.003
 6805.00    1.11353   1.39472    0.003
 6806.00    0.93235   1.39485    0.003
 6807.00    0.91175   1.39472    0.003
 6808.00    1.10518   1.39435    0.003
 6809.00    1.16871   1.39420    0.003
 6810.00    1.07977   1.39356    0.003
 6811.00    1.04371   1.39315    0.003
 6812.00    1.06240   1.39300    0.003
 6813.00    1.16861   1.39235    0.004
 6814.00    1.35472   1.39242    0.004
 6815.00    1.52515   1.39207    0.003
 6816.00    1.68297   1.39267    0.003
 6817.00    1.58782   1.39255    0.003
 6818.00    1.31358   1.39240    0.003
 6819.00    1.18714   1.39225    0.003
 6820.00    1.15252   1.39233    0.003
 6821.00    1.16180   1.39222    0.003
 6822.00    1.19492   1.39209    0.003
 6823.00    1.14992   1.39195    0.003
 6824.00    1.06807   1.39207    0.003
 6825.00    1.01214   1.39244    0.003
 6826.00    0.96674   1.39204    0.003
 6827.00    0.92520   1.39111    0.003
 6828.00    0.88498   1.39069    0.003
 6829.00    0.83239   1.39055    0.003
 6830.00    0.77617   1.39063    0.003
 6831.00    0.90186   1.39050    0.003
 6832.00    1.07160   1.38984    0.003
 6833.00    1.14130   1.38993    0.003
 6834.00    1.19141   1.39033    0.003
 6835.00    1.33391   1.39043    0.003
 6836.00    1.49049   1.38977    0.003
 6837.00    1.41141   1.38959    0.004
 6838.00    1.30589   1.38971    0.004
 6839.00    1.12542   1.38956    0.004
 6840.00    0.93935   1.38862    0.004
 6841.00    0.84381   1.38844    0.004
 6842.00    0.75186   1.38830    0.003
 6843.00    0.73763   1.38890    0.003
 6844.00    0.73048   1.38803    0.003
 6845.00    0.98384   1.38709    0.003
 6846.00    1.20827   1.38641    0.003
 6847.00    0.94401   1.38724    0.003
 6848.00    0.71578   1.38842    0.003
 6849.00    0.86458   1.38933    0.003
 6850.00    1.00020   1.38896    0.003
 6851.00    1.03792   1.38931    0.003
 6852.00    1.08181   1.38921    0.003
 6853.00    1.16061   1.38879    0.003
 6854.00    1.22419   1.38859    0.003
 6855.00    1.21903   1.38870    0.003
 6856.00    1.18886   1.38883    0.003
 6857.00    1.06614   1.38791    0.003
 6858.00    1.00162   1.38721    0.003
 6859.00    1.11740   1.38779    0.003
 6860.00    1.19557   1.38844    0.003
 6861.00    1.17477   1.38854    0.003
 6862.00    1.16259   1.38843    0.003
 6863.00    1.16988   1.38880    0.003
 6864.00    1.18045   1.38761    0.003
 6865.00    1.19747   1.38790    0.003
 6866.00    1.15111   1.38803    0.003
 6867.00    0.99662   1.38715    0.004
 6868.00    0.92595   1.38665    0.004
 6869.00    0.98056   1.38726    0.004
 6870.00    1.02140   1.38868    0.004
 6871.00    1.04414   1.38860    0.004
 6872.00    1.01590   1.38844    0.004
 6873.00    0.92867   1.38699    0.004
 6874.00    0.87960   1.38598    0.004
 6875.00    0.86948   1.38577    0.004
 6876.00    0.83218   1.38535    0.004
 6877.00    0.77043   1.38542    0.003
 6878.00    0.74577   1.38425    0.003
 6879.00    0.75054   1.38329    0.003
 6880.00    0.84855   1.38257    0.003
 6881.00    1.01162   1.38161    0.003
 6882.00    1.08114   1.38039    0.003
 6883.00    1.09340   1.37917    0.003
 6884.00    1.07748   1.37770    0.003
 6885.00    1.04650   1.37440    0.003
 6886.00    1.03653   1.36870    0.003
 6887.00    1.03631   1.35921    0.003
 6888.00    1.04044   1.34570    0.003
 6889.00    1.04633   1.33540    0.003
 6890.00    0.92444   1.33333    0.004
 6891.00    0.75901   1.34067    0.004
 6892.00    0.77122   1.35281    0.004
 6893.00    0.83436   1.36290    0.004
 6894.00    0.93934   1.36978    0.004
 6895.00    1.05422   1.37402    0.004
 6896.00    1.22552   1.37787    0.004
 6897.00    1.40757   1.37989    0.004
 6898.00    1.36384   1.38079    0.004
 6899.00    1.28674   1.38117    0.004
 6900.00    1.18531   1.38098    0.004
 6901.00    1.08124   1.38158    0.004
 6902.00    1.01665   1.38196    0.004
 6903.00    0.95485   1.38151    0.004
 6904.00    0.94478   1.38052    0.004
 6905.00    0.93658   1.38002    0.004
 6906.00    0.93987   1.37935    0.004
 6907.00    0.94179   1.37996    0.003
 6908.00    0.89468   1.38031    0.003
 6909.00    0.84737   1.37987    0.004
 6910.00    0.79665   1.38047    0.004
 6911.00    0.75542   1.38086    0.004
 6912.00    0.80929   1.38123    0.004
 6913.00    0.85573   1.38133    0.004
 6914.00    0.84877   1.38113    0.004
 6915.00    0.83066   1.38092    0.004
 6916.00    0.75110   1.38025    0.004
 6917.00    0.69160   1.38004    0.004
 6918.00    0.72060   1.38041    0.004
 6919.00    0.73084   1.38026    0.004
 6920.00    0.67308   1.38013    0.004
 6921.00    0.67277   1.37997    0.004
 6922.00    0.84702   1.38049    0.004
 6923.00    1.00177   1.38057    0.004
 6924.00    1.10610   1.38070    0.004
 6925.00    1.12109   1.38050    0.004
 6926.00    0.93752   1.38034    0.004
 6927.00    0.81414   1.37911    0.004
 6928.00    0.80676   1.37912    0.004
 6929.00    0.84279   1.37921    0.004
 6930.00    0.95178   1.37928    0.004
 6931.00    0.97913   1.37911    0.004
 6932.00    0.88623   1.37810    0.004
 6933.00    0.89856   1.37815    0.004
 6934.00    1.04715   1.37774    0.004
 6935.00    1.21282   1.37749    0.004
 6936.00    1.39800   1.37783    0.004
 6937.00    1.35280   1.37790    0.004
 6938.00    1.07580   1.37800    0.004
 6939.00    0.90581   1.37810    0.004
 6940.00    0.83078   1.37790    0.004
 6941.00    0.83980   1.37744    0.004
 6942.00    0.91454   1.37727    0.004
 6943.00    1.07855   1.37707    0.004
 6944.00    1.30394   1.37660    0.004
 6945.00    1.16562   1.37693    0.004
 6946.00    0.80806   1.37729    0.004
 6947.00    0.84803   1.37740    0.004
 6948.00    1.09713   1.37776    0.004
 6949.00    1.04067   1.37758    0.004
 6950.00    0.84475   1.37710    0.004
 6951.00    0.78691   1.37664    0.004
 6952.00    0.78330   1.37670    0.004
 6953.00    0.91053   1.37627    0.004
 6954.00    1.08154   1.37685    0.004
 6955.00    1.11378   1.37694    0.004
 6956.00    1.10705   1.37703    0.004
 6957.00    1.09599   1.37737    0.004
 6958.00    1.08393   1.37691    0.004
 6959.00    1.02131   1.37667    0.004
 6960.00    0.94932   1.37622    0.004
 6961.00    0.97236   1.37630    0.004
 6962.00    1.00901   1.37608    0.004
 6963.00    0.85936   1.37562    0.004
 6964.00    0.69041   1.37570    0.004
 6965.00    0.71235   1.37604    0.004
 6966.00    0.74702   1.37585    0.004
 6967.00    0.68545   1.37536    0.004
 6968.00    0.62086   1.37541    0.004
 6969.00    0.81123   1.37497    0.004
 6970.00    0.99122   1.37533    0.004
 6971.00    0.85275   1.37513    0.004
 6972.00    0.72456   1.37546    0.004
 6973.00    0.74937   1.37500    0.004
 6974.00    0.76651   1.37451    0.004
 6975.00    0.71006   1.37402    0.004
 6976.00    0.69293   1.37380    0.004
 6977.00    0.94938   1.37383    0.004
 6978.00    1.15394   1.37365    0.004
 6979.00    1.08005   1.37427    0.004
 6980.00    0.99134   1.37382    0.004
 6981.00    0.83882   1.37360    0.004
 6982.00    0.71707   1.37369    0.004
 6983.00    0.70456   1.37402    0.004
 6984.00    0.68901   1.37353    0.004
 6985.00    0.66442   1.37305    0.004
 6986.00    0.70416   1.37341    0.004
 6987.00    0.90729   1.37295    0.004
 6988.00    1.01488   1.37273    0.004
 6989.00    0.91357   1.37278    0.004
 6990.00    0.76243   1.37259    0.004
 6991.00    0.51677   1.37237    0.004
 6992.00    0.42387   1.37216    0.004
 6993.00    0.58389   1.37191    0.004
 6994.00    0.73792   1.37197    0.004
 6995.00    0.88327   1.37203    0.004
 6996.00    0.98144   1.37156    0.004
 6997.00    1.01941   1.37132    0.004
 6998.00    0.89668   1.37082    0.004
 6999.00    0.59320   1.37089    0.004
 7000.00    0.56844   1.37151    0.004
 7001.00    0.82016   1.37160    0.004
 7002.00    0.93981   1.37137    0.004
 7003.00    0.94392   1.37113    0.004
 7004.00    0.83428   1.37145    0.004
 7005.00    0.63699   1.37100    0.004
 7006.00    0.50939   1.37161    0.004
 7007.00    0.42901   1.37168    0.004
 7008.00    0.54039   1.37119    0.004
 7009.00    0.76562   1.37124    0.004
 7010.00    0.91887   1.37103    0.004
 7011.00    1.03486   1.37081    0.004
 7012.00    0.92419   1.37057    0.004
 7013.00    0.71178   1.37039    0.004
 7014.00    0.70284   1.37072    0.004
 7015.00    0.77244   1.37022    0.004
 7016.00    0.77069   1.37024    0.004
 7017.00    0.74553   1.37033    0.004
 7018.00    0.80053   1.37042    0.004
 7019.00    0.87758   1.37046    0.004
 7020.00    0.68518   1.36966    0.004
 7021.00    0.43186   1.36968    0.004
 7022.00    0.57973   1.36946    0.004
 7023.00    0.80008   1.36898    0.004
 7024.00    0.83522   1.36931    0.004
 7025.00    0.84469   1.36939    0.004
 7026.00    0.99551   1.36887    0.004
 7027.00    1.16037   1.36920    0.004
 7028.00    0.91884   1.36928    0.004
 7029.00    0.65187   1.36960    0.004
 7030.00    0.68331   1.36996    0.004
 7031.00    0.72270   1.36974    0.004
 7032.00    0.62616   1.36925    0.004
 7033.00    0.53099   1.36930    0.004
 7034.00    0.47322   1.36964    0.004
 7035.00    0.42926   1.36942    0.004
 7036.00    0.57928   1.36916    0.004
 7037.00    0.72812   1.36892    0.004
 7038.00    0.86602   1.36953    0.004
 7039.00    0.98261   1.37047    0.004
 7040.00    0.95560   1.37059    0.004
 7041.00    0.90407   1.37036    0.004
 7042.00    0.72432   1.36926    0.004
 7043.00    0.62004   1.36842    0.004
 7044.00    0.83345   1.36815    0.004
 7045.00    0.94769   1.36822    0.004
 7046.00    0.71695   1.36825    0.004
 7047.00    0.52324   1.36775    0.004
 7048.00    0.43792   1.36752    0.004
 7049.00    0.41103   1.36754    0.004
 7050.00    0.53001   1.36705   -2.000
 7051.00    0.58476   1.36706   -2.000
 7052.00    0.50137   1.36711   -2.000
 7053.00    0.52753   1.36659   -2.000
 7054.00    0.75829   1.36666   -2.000
 7055.00    0.83843   1.36698   -2.000
 7056.00    0.67289   1.36617   -2.000
 7057.00    0.73172   1.36619   -2.000
 7058.00    1.11146   1.36568   -2.000
 7059.00    1.30797   1.36628   -2.000
 7060.00    1.27392   1.36611   -2.000
 7061.00    1.15938   1.36585   -2.000
 7062.00    0.95559   1.36591   -2.000
 7063.00    0.92428   1.36536   -2.000
 7064.00    1.06167   1.36308   -2.000
 7065.00    0.95656   1.36073   -2.000
 7066.00    0.64229   1.35926   -2.000
 7067.00    0.56490   1.35962   -2.000
 7068.00    0.66748   1.36170   -2.000
 7069.00    0.76104   1.36354   -2.000
 7070.00    0.84856   1.36506   -2.000
 7071.00    0.95561   1.36542   -2.000
 7072.00    1.07407   1.36574   -2.000
 7073.00    1.06842   1.36580   -2.000
 7074.00    0.99951   1.36587   -2.000
 7075.00    1.07906   1.36559   -2.000
 7076.00    1.22417   1.36563   -2.000
 7077.00    1.24438   1.36512   -2.000
 7078.00    1.21723   1.36487   -2.000
 7079.00    1.05394   1.36488   -2.000
 7080.00    0.84682   1.36465   -2.000
 7081.00    0.73334   1.36469   -2.000
 7082.00    0.64508   1.36443   -2.000
 7083.00    0.67948   1.36443   -2.000
 7084.00    0.74096   1.36390   -2.000
 7085.00    0.78274   1.36367   -2.000
 7086.00    0.82106   1.36342   -2.000
 7087.00    0.95275   1.36373   -2.000
 7088.00    1.09694   1.36375   -2.000
 7089.00    0.90115   1.36320   -2.000
 7090.00    0.67306   1.36296   -2.000
 7091.00    0.76159   1.36297   -2.000
 7092.00    0.86871   1.36331   -2.000
 7093.00    0.77135   1.36336   -2.000
 7094.00    0.67030   1.36284   -2.000
 7095.00    0.75284   1.36287   -2.000
 7096.00    0.82943   1.36260   -2.000
 7097.00    0.75808   1.36322   -2.000
 7098.00    0.69519   1.36388   -2.000
 7099.00    0.74475   1.36364   -2.000
 7100.00    0.76785   1.36365   -2.000
 7101.00    0.55641   1.36339   -2.000
 7102.00    0.40950   1.36374   -2.000
 7103.00    0.68411   1.36437   -2.000
 7104.00    0.93379   1.36386   -2.000
 7105.00    1.05646   1.36386   -2.000
 7106.00    1.10703   1.36359   -2.000
 7107.00    0.86086   1.36394   -2.000
 7108.00    0.67627   1.36395   -2.000
 7109.00    0.70158   1.36337   -2.000
 7110.00    0.72184   1.36251   -2.000
 7111.00    0.72761   1.36223   -2.000
 7112.00    0.80505   1.36230   -2.000
 7113.00    1.05836   1.36292   -2.000
 7114.00    1.17251   1.36236   -2.000
 7115.00    0.99217   1.36207   -2.000
 7116.00    0.87943   1.36242   -2.000
 7117.00    0.89096   1.36274   -2.000
 7118.00    0.94137   1.36218   -2.000
 7119.00    1.05426   1.36224   -2.000
 7120.00    1.36123   1.36255   -2.000
 7121.00    1.94180   1.36200   -2.000
 7122.00    1.96435   1.36171   -2.000
 7123.00    1.29474   1.36146   -2.000
 7124.00    0.72369   1.36151   -2.000
 7125.00    0.26039   1.36152   -2.000
 7126.00    0.29160   1.36155   -2.000
 7127.00    0.79968   1.36217   -2.000
 7128.00    0.94827   1.36192   -2.000
 7129.00    0.79115   1.36134   -2.000
 7130.00    0.63650   1.36073   -2.000
 7131.00    0.48371   1.36109   -2.000
 7132.00    0.41045   1.36144   -2.000
 7133.00    0.38952   1.36176   -2.000
 7134.00    0.70393   1.36179   -2.000
 7135.00    1.21150   1.36150   -2.000
 7136.00    1.03845   1.36125   -2.000
 7137.00    0.52388   1.36157   -2.000
 7138.00    0.44174   1.36101   -2.000
 7139.00    0.54738   1.36131   -2.000
 7140.00    0.63734   1.36076   -2.000
 7141.00    0.72144   1.36076   -2.000
 7142.00    0.79701   1.36050   -2.000
 7143.00    0.86989   1.36050   -2.000
 7144.00    0.94629   1.36022   -2.000
 7145.00    1.02362   1.35993   -2.000
 7146.00    0.76329   1.35934   -2.000
 7147.00    0.43018   1.35903   -2.000
 7148.00    0.50421   1.35935   -2.000
 7149.00    0.64782   1.35940   -2.000
 7150.00    0.56191   1.35915   -2.000
 7151.00    0.44630   1.35890   -2.000
 7152.00    0.16881   1.35950   -2.000
 7153.00   -0.12338   1.35952   -2.000
 7154.00    0.23006   1.35924   -2.000
 7155.00    0.61883   1.35866   -2.000
 7156.00    1.35826   1.35897   -2.000
 7157.00    2.09392   1.35929   -2.000
 7158.00    1.81481   1.35869   -2.000
 7159.00    1.47267   1.35839   -2.000
 7160.00   -0.30036   1.35875   -2.000
 7161.00   -1.83863   1.35907   -2.000
 7162.00   -0.42019   1.35847   -2.000
 7163.00    0.85286   1.35786   -2.000
 7164.00    0.88556   1.35755   -2.000
 7165.00    1.06961   1.35727   -2.000
 7166.00    2.21287   1.35790   -2.000
 7167.00    2.94120   1.35796   -2.000
 7168.00    1.60934   1.35795   -2.000
 7169.00    0.55851   1.35828   -2.000
 7170.00    0.63889   1.35829   -2.000
 7171.00    0.72655   1.35860   -2.000
 7172.00    0.83856   1.35863   -2.000
 7173.00    0.91241   1.35835   -2.000
 7174.00    0.87861   1.35775   -2.000
 7175.00    0.79990   1.35773   -2.000
 7176.00    0.61289   1.35744   -2.000
 7177.00    0.47982   1.35623   -2.000
 7178.00    0.45906   1.35564   -2.000
 7179.00    0.51196   1.35565   -2.000
 7180.00    0.69819   1.35625   -2.000
 7181.00    0.76127   1.35691   -2.000
 7182.00    0.62940   1.35754   -2.000
 7183.00    0.63175   1.35787   -2.000
 7184.00    0.82059   1.35821   -2.000
 7185.00    0.82231   1.35822   -2.000
 7186.00    0.59523   1.35758   -2.000
 7187.00    0.48592   1.35667   -2.000
 7188.00    0.50356   1.35729   -2.000
 7189.00    0.39747   1.35794   -2.000
 7190.00    0.17372   1.35829   -2.000
 7191.00    0.37140   1.35797   -2.000
 7192.00    0.92239   1.35735   -2.000
 7193.00    1.18024   1.35703   -2.000
 7194.00    1.22173   1.35768   -2.000
 7195.00    1.19251   1.35800   -2.000
 7196.00    1.11746   1.35738   -2.000
 7197.00    1.17570   1.35742   -2.000
 7198.00    1.30955   1.35773   -2.000
 7199.00    1.01774   1.35804   -2.000
 7200.00    0.51572   1.35742   -2.000
 7201.00    0.02165   1.35677   -2.000
 7202.00   -0.46903   1.35651   -2.000
 7203.00   -0.04069   1.35746   -2.000
 7204.00    0.72392   1.35778   -2.000
 7205.00    1.31612   1.35680   -2.000
 7206.00    1.85492   1.35586   -2.000
 7207.00    1.53449   1.35590   -2.000
 7208.00    0.99228   1.35684   -2.000
 7209.00    0.90016   1.35718   -2.000
 7210.00    0.90271   1.35779   -2.000
 7211.00    0.41422   1.35748   -2.000
 7212.00   -0.15584   1.35683   -2.000
 7213.00   -0.10234   1.35564   -2.000
 7214.00    0.02907   1.35593   -2.000
 7215.00   -0.00156   1.35590   -2.000
 7216.00   -0.04622   1.35562   -2.000
 7217.00   -0.01820   1.35593   -2.000
 7218.00    0.01351   1.35562   -2.000
