###################################################################
## OUTPUT of StarlightChains_v04.for    [Cid@UFSC - 01/Apr/2007] ##
###################################################################

## Some input info
KUG0210-078._39_29.txt                   [arq_obs]
Base.CB07.vall.4m                        [arq_base]
Masks.EmLines.NEW.gm                     [arq_masks]
StCv04.C11.config                        [arq_config]
   66                                    [N_base]
    0                                    [N_YAV_components = # of components with extra extinction!]
    0                                    [i_FitPowerLaw (1/0 = Yes/No)]
-9.99                                    [alpha_PowerLaw]
CCM                                      [red_law_option]
 1.458241                                [q_norm = A(l_norm)/A(V)]

## (Re)Sampling Parameters
 3741.00                                 [l_ini (A)]
 7218.00                                 [l_fin (A)]
    1.00                                 [dl    (A)]     (OBS: dl_cushion =    50.00 A)

## Normalization info
 4020.00                                 [l_norm (A) - for base]
 4010.00                                 [llow_norm (A) - window for f_obs]
 4060.00                                 [lupp_norm (A) - window for f_obs]
7.741983E-18                             [fobs_norm (in input units)]

## S/N
 3691.00                                 [llow_SN (A) - window for S/N]
 7268.00                                 [lupp_SN (A) - window for S/N]
   3.911                                 [S/N in S/N window]
   2.890                                 [S/N in norm. window]
   0.013                                 [S/N_err in S/N window]
   0.009                                 [S/N_err in norm. window]
  1.0000                                 [fscale_chi2]

## etc...
    -2007686                             [idum_orig]
  2399                                   [NOl_eff]
  2287                                   [Nl_eff]
   112    NSIGMA                         [Ntot_cliped & clip_method]
  6900460                                [Nglobal_steps]
   7                                     [N_chains]
  41                                     [NEX0s_base = N_base in EX0s-fits]
 0   0   1      112   2.0   3.572E+03    [Clip-Bug, RC-Crash & Burn-In warning-flags, n_censored_weights, wei_nsig_threshold & wei_limit]
    55     53.974     53.163      0.811  [idt_all, wdt_TotTime, wdt_UsrTime & wdt_SysTime (sec)]

## Synthesis Results - Best model ##

 2.51957E-05                             [chi2/Nl_eff]
    59.34351                             [adev (%)]

   127.47402                             [sum-of-x (%)]
 1.35094E-17                             [Flux_tot (units of input spectrum!)]
 5.27219E-13                             [Mini_tot (???)]
 2.67076E-13                             [Mcor_tot (???)]

-367.04                                  [v0_min  (km/s)]
 181.73                                  [vd_min  (km/s)]
 0.2338                                  [AV_min  (mag)]
 0.0000                                  [YAV_min (mag)]

# j     x_j(%)      Mini_j(%)     Mcor_j(%)     age_j(yr)     Z_j      (L/M)_j    YAV?  Mstars   component_j        a/Fe...       SSP_chi2r SSP_adev(%)   SSP_AV   SSP_x(%)
  1      0.0000     0.0000E+00    0.0000E+00    1.000000E+06  0.00400  1.094E-02    0   1.0000   age020_m42            0.0000     2.5525E-05    57.4386   3.3939   112.7506
  2     12.3633     6.2021E-03    1.2242E-02    3.160000E+06  0.00400  4.007E-02    0   0.9999   age045_m42            0.0000     2.5872E-05    58.3487   2.7237   117.2794
  3      5.2603     4.1646E-03    7.8002E-03    5.010000E+06  0.00400  2.539E-02    0   0.9488   age055_m42            0.0000     2.5736E-05    58.0367   3.0229   115.5887
  4      0.0000     0.0000E+00    0.0000E+00    6.610000E+06  0.00400  2.620E-02    0   0.9220   age061_m42            0.0000     2.6054E-05    58.6358   2.6579   117.0867
  5      0.0000     0.0000E+00    0.0000E+00    1.000000E+07  0.00400  1.322E-02    0   0.8862   age070_m42            0.0000     2.6396E-05    60.6293   2.3903   118.7330
  6      6.7800     1.7289E-02    2.9252E-02    1.445000E+07  0.00400  7.883E-03    0   0.8571   age078_m42            0.0000     2.6274E-05    60.1319   2.6986   116.7870
  7      0.0000     0.0000E+00    0.0000E+00    2.512000E+07  0.00400  5.251E-03    0   0.8174   age090_m42            0.0000     2.6543E-05    61.0661   2.2674   118.9812
  8      0.1128     6.2165E-04    9.6344E-04    4.000000E+07  0.00400  3.649E-03    0   0.7851   age104_m42            0.0000     2.6556E-05    61.0259   2.0459   119.6043
  9      0.1779     1.1545E-03    1.7387E-03    5.500000E+07  0.00400  3.098E-03    0   0.7629   age110_m42            0.0000     2.6598E-05    60.4579   2.2017   119.4637
 10      0.0000     0.0000E+00    0.0000E+00    1.015200E+08  0.00400  2.228E-03    0   0.7207   age116_m42            0.0000     2.6672E-05    59.9945   2.2268   119.3987
 11      0.2027     3.7276E-03    4.8918E-03    2.861200E+08  0.00400  1.093E-03    0   0.6648   age125_m42            0.0000     2.6930E-05    61.2808   1.6676   121.8853
 12      0.0019     5.8309E-05    7.3264E-05    5.088000E+08  0.00400  6.597E-04    0   0.6365   age130_m42            0.0000     2.6794E-05    60.3696   1.6608   122.7841
 13      1.9904     1.8766E-01    2.1479E-01    1.434000E+09  0.00400  2.132E-04    0   0.5798   age139_m42            0.0000     2.6153E-05    59.4220   0.6865   125.2849
 14      0.1868     6.3695E-02    6.7609E-02    4.250000E+09  0.00400  5.895E-05    0   0.5377   age158_m42            0.0000     2.5357E-05    56.7111   0.1995   122.9108
 15      0.0000     0.0000E+00    0.0000E+00    7.500000E+09  0.00400  3.510E-05    0   0.5212   age171_m42            0.0000     2.5334E-05    56.2342   0.0000   122.5781
 16      0.0000     0.0000E+00    0.0000E+00    1.300000E+10  0.00400  2.005E-05    0   0.5034   age193_m42            0.0000     2.5404E-05    56.0030  -0.1760   122.3350
 17      0.0000     0.0000E+00    0.0000E+00    1.800000E+10  0.00400  1.525E-05    0   0.4967   age213_m42            0.0000     2.5424E-05    55.9843  -0.2003   121.8581
 18      0.0000     0.0000E+00    0.0000E+00    1.000000E+06  0.00800  1.238E-02    0   1.0000   age020_m52            0.0000     2.5485E-05    57.4416   3.3902   112.9920
 19      1.7629     1.1528E-03    2.2679E-03    3.160000E+06  0.00800  3.074E-02    0   0.9966   age045_m52            0.0000     2.5422E-05    57.3783   3.3171   113.8252
 20      0.9978     7.5173E-04    1.4013E-03    5.010000E+06  0.00800  2.668E-02    0   0.9443   age055_m52            0.0000     2.5653E-05    57.9162   3.0977   115.0089
 21      0.0000     0.0000E+00    0.0000E+00    6.610000E+06  0.00800  2.136E-02    0   0.9177   age061_m52            0.0000     2.5538E-05    60.0296   1.8714   121.1114
 22      0.3409     5.6405E-04    9.8285E-04    1.000000E+07  0.00800  1.215E-02    0   0.8827   age070_m52            0.0000     2.6424E-05    61.1056   2.5588   118.9696
 23      0.0000     0.0000E+00    0.0000E+00    1.445000E+07  0.00800  8.717E-03    0   0.8552   age078_m52            0.0000     2.6247E-05    60.2753   2.6680   118.1732
 24      1.3053     4.6921E-03    7.5600E-03    2.512000E+07  0.00800  5.592E-03    0   0.8162   age090_m52            0.0000     2.6627E-05    61.3168   2.3296   120.3482
 25      0.0000     0.0000E+00    0.0000E+00    4.000000E+07  0.00800  3.896E-03    0   0.7841   age104_m52            0.0000     2.6684E-05    61.2460   2.2469   120.8910
 26      0.0000     0.0000E+00    0.0000E+00    1.015200E+08  0.00800  2.148E-03    0   0.7226   age116_m52            0.0000     2.6555E-05    60.2877   2.1893   120.4802
 27      0.0000     0.0000E+00    0.0000E+00    2.861200E+08  0.00800  9.925E-04    0   0.6683   age125_m52            0.0000     2.6920E-05    60.6066   1.7280   123.7909
 28      0.0000     0.0000E+00    0.0000E+00    9.047900E+08  0.00800  3.141E-04    0   0.6138   age135_m52            0.0000     2.6243E-05    59.3668   0.9090   129.7250
 29      2.5403     2.9705E-01    3.4322E-01    1.434000E+09  0.00800  1.719E-04    0   0.5853   age139_m52            0.0000     2.5827E-05    58.6055   0.3090   127.9856
 30      0.0000     0.0000E+00    0.0000E+00    2.500000E+09  0.00800  7.872E-05    0   0.5600   age150_m52            0.0000     2.5470E-05    56.6975   0.0191   125.9091
 31      3.4154     1.5833E+00    1.6959E+00    4.250000E+09  0.00800  4.336E-05    0   0.5426   age158_m52            0.0000     2.5399E-05    56.3622  -0.0027   125.1057
 32      0.0000     0.0000E+00    0.0000E+00    6.250000E+09  0.00800  3.159E-05    0   0.5319   age166_m52            0.0000     2.5540E-05    55.9083  -0.2148   125.4607
 33      3.9080     5.7719E+00    5.7802E+00    1.300000E+10  0.00800  1.361E-05    0   0.5073   age193_m52            0.0000     2.5852E-05    55.2844  -0.6919   124.9340
 34     35.5166     7.2216E+01    7.1136E+01    1.800000E+10  0.00800  9.886E-06    0   0.4990   age213_m52            0.0000     2.6179E-05    54.9005  -0.8115   124.7755
 35      0.0000     0.0000E+00    0.0000E+00    1.000000E+06  0.02000  1.544E-02    0   1.0000   age020_m62            0.0000     2.5408E-05    57.4400   3.3829   113.4149
 36      0.8365     4.4694E-04    8.6975E-04    3.160000E+06  0.02000  3.762E-02    0   0.9858   age045_m62            0.0000     2.5354E-05    57.4046   3.3230   114.3889
 37      0.0000     0.0000E+00    0.0000E+00    5.010000E+06  0.02000  3.296E-02    0   0.9342   age055_m62            0.0000     2.5814E-05    58.0906   2.9905   116.5949
 38      7.5801     1.3204E-02    2.3096E-02    8.710000E+06  0.02000  1.154E-02    0   0.8861   age067_m62            0.0000     2.7489E-05    65.0338   2.0052   122.1397
 39      0.0000     0.0000E+00    0.0000E+00    1.445000E+07  0.02000  7.663E-03    0   0.8472   age078_m62            0.0000     2.6663E-05    62.6704   2.2025   121.4833
 40      1.1827     5.2459E-03    8.3870E-03    2.512000E+07  0.02000  4.532E-03    0   0.8099   age090_m62            0.0000     2.7011E-05    63.0951   2.2025   120.6062
 41      0.0000     0.0000E+00    0.0000E+00    5.500000E+07  0.02000  2.733E-03    0   0.7595   age110_m62            0.0000     2.6601E-05    61.0778   2.2268   120.2191
 42      0.0000     0.0000E+00    0.0000E+00    1.609000E+08  0.02000  1.369E-03    0   0.6985   age120_m62            0.0000     2.6944E-05    60.6464   2.0865   122.2358
 43      0.0000     0.0000E+00    0.0000E+00    2.861200E+08  0.02000  9.013E-04    0   0.6714   age125_m62            0.0000     2.7151E-05    60.5482   1.8522   124.8239
 44      0.0000     0.0000E+00    0.0000E+00    5.088000E+08  0.02000  5.028E-04    0   0.6449   age130_m62            0.0000     2.6689E-05    59.5963   1.4612   128.7180
 45      0.0000     0.0000E+00    0.0000E+00    9.047900E+08  0.02000  2.428E-04    0   0.6179   age135_m62            0.0000     2.5782E-05    57.9306   0.8364   129.8448
 46      0.0000     0.0000E+00    0.0000E+00    1.434000E+09  0.02000  1.263E-04    0   0.5908   age139_m62            0.0000     2.5494E-05    56.8824   0.3731   128.9389
 47      7.6663     2.5748E+00    2.8835E+00    2.500000E+09  0.02000  5.985E-05    0   0.5673   age150_m62            0.0000     2.5451E-05    55.9090  -0.0152   128.2819
 48      0.0000     0.0000E+00    0.0000E+00    4.250000E+09  0.02000  3.271E-05    0   0.5468   age158_m62            0.0000     2.5853E-05    55.0556  -0.3315   127.6139
 49      7.1401     1.0553E+01    1.0764E+01    1.000000E+10  0.02000  1.360E-05    0   0.5167   age181_m62            0.0000     2.6689E-05    54.5410  -0.6962   127.6391
 50      1.7512     4.9411E+00    4.8897E+00    1.800000E+10  0.02000  7.124E-06    0   0.5013   age213_m62            0.0000     2.7392E-05    54.2304  -0.9225   127.2744
 51      0.0000     0.0000E+00    0.0000E+00    1.000000E+06  0.05000  2.592E-02    0   0.9998   age020_m72            0.0000     2.5297E-05    57.3516   3.3687   113.7561
 52      0.0000     0.0000E+00    0.0000E+00    3.160000E+06  0.05000  4.845E-02    0   0.9577   age045_m72            0.0000     2.5526E-05    57.4694   3.2213   115.0292
 53      0.0000     0.0000E+00    0.0000E+00    5.010000E+06  0.05000  3.072E-02    0   0.9147   age055_m72            0.0000     2.6239E-05    61.1482   2.7530   118.6914
 54      8.1818     1.1303E-02    1.9807E-02    6.610000E+06  0.05000  1.455E-02    0   0.8877   age061_m72            0.0000     2.9132E-05    68.6931   2.0221   123.3522
 55      0.1075     2.3809E-04    4.0062E-04    1.000000E+07  0.05000  9.074E-03    0   0.8524   age070_m72            0.0000     2.6901E-05    62.2478   2.9188   118.4443
 56      0.0000     0.0000E+00    0.0000E+00    2.512000E+07  0.05000  4.250E-03    0   0.7902   age090_m72            0.0000     2.7021E-05    62.2477   2.6607   118.8362
 57      0.4820     3.1388E-03    4.7202E-03    4.000000E+07  0.05000  3.087E-03    0   0.7618   age104_m72            0.0000     2.7309E-05    62.8318   2.4479   119.9083
 58      1.3309     1.5737E-02    2.2045E-02    1.015200E+08  0.05000  1.700E-03    0   0.7096   age116_m72            0.0000     2.7099E-05    61.3034   2.2277   121.6936
 59      0.0000     0.0000E+00    0.0000E+00    2.861200E+08  0.05000  7.384E-04    0   0.6633   age125_m72            0.0000     2.7147E-05    59.9835   1.7147   126.7139
 60      0.0000     0.0000E+00    0.0000E+00    5.088000E+08  0.05000  3.819E-04    0   0.6372   age130_m72            0.0000     2.6229E-05    58.2055   1.1921   130.4271
 61     14.3514     1.7212E+00    2.0761E+00    9.047900E+08  0.05000  1.676E-04    0   0.6110   age135_m72            0.0000     2.5507E-05    55.8616   0.4457   130.7561
 62      0.0000     0.0000E+00    0.0000E+00    1.434000E+09  0.05000  8.837E-05    0   0.5874   age139_m72            0.0000     2.5583E-05    55.7311  -0.0246   130.4832
 63      0.0000     0.0000E+00    0.0000E+00    2.500000E+09  0.05000  4.233E-05    0   0.5598   age150_m72            0.0000     2.5969E-05    54.8870  -0.3443   129.2618
 64      0.0000     0.0000E+00    0.0000E+00    6.250000E+09  0.05000  1.435E-05    0   0.5249   age166_m72            0.0000     2.6798E-05    54.4521  -0.8034   127.5687
 65      0.0000     0.0000E+00    0.0000E+00    1.300000E+10  0.05000  6.513E-06    0   0.5036   age193_m72            0.0000     2.7962E-05    53.6417  -1.0000   126.1629
 66      0.0000     0.0000E+00    0.0000E+00    1.800000E+10  0.05000  4.527E-06    0   0.4945   age213_m72            0.0000     2.9346E-05    53.0881  -1.0000   120.5734


## Synthesis Results - Average & Chains ##

# j      x_j: min, <> & last-chain-values for 1 ...  7 chains
  1      0.0000      0.2962      0.0957      0.0000      0.2866      0.1649      0.3072      0.2249      1.4822
  2     12.3633      0.2064      0.0868      0.9245      0.0311      0.0648      0.0281      0.0000      0.7463
  3      5.2603      0.2362      0.0878      1.2641      0.0561      0.0686      0.3353      0.1694      0.1560
  4      0.0000      0.2845      0.0106      0.3364      0.0000      0.0106      0.0000      0.3034      0.0034
  5      0.0000      0.2259      0.0000      0.0000      0.3210      0.0793      0.0000      0.1856      0.1786
  6      6.7800      0.2258      0.1052      0.4642      0.2839      0.1570      0.1529      0.2650      0.0000
  7      0.0000      0.2919      0.1597      0.0000      0.0000      0.0087      0.0000      0.0188      0.6824
  8      0.1128      0.1833      0.0519      0.9228      0.1090      0.1362      0.2388      0.1392      0.0582
  9      0.1779      0.2713      0.1227      0.4821      0.0000      0.1211      0.0891      0.0000      1.4563
 10      0.0000      0.3845      0.0767      0.0256      0.0000      0.0995      0.4084      0.1103      0.0000
 11      0.2027      0.3031      0.1858      1.0902      0.3322      0.0000      0.0000      0.0986      0.0000
 12      0.0019      0.2100      0.0759      0.8786      0.0000      0.1181      0.0787      0.1527      0.0000
 13      1.9904      0.2718      0.0000      2.1141      0.0000      0.1683      0.0000      0.0851      0.2443
 14      0.1868      0.2567      0.0000      1.6348      0.0000      0.0048      0.0595      0.2209      0.0000
 15      0.0000      0.1936      0.0000      0.1527      0.1543      0.0367      0.0000      0.0972      1.2010
 16      0.0000      0.1742      0.0780      0.0000      0.0685      0.0113      0.2831      0.0584      0.0815
 17      0.0000      0.2020      0.1857      0.2207      0.0506      0.2498      0.1630      0.0648      0.4116
 18      0.0000      0.2221      0.1157      0.7169      0.0000      0.0185      0.1748      0.2182      0.3671
 19      1.7629      0.2592      0.0578      0.5832      0.0883      0.1730      0.1453      0.1965      0.0437
 20      0.9978      0.2321      0.0000      0.6293      0.0746      0.0809      0.0682      0.0622      1.1731
 21      0.0000      0.2307      0.0816      0.0000      0.0323      0.0613      0.0639      0.0576      0.0287
 22      0.3409      0.2461      0.1045      0.5736      0.0985      0.0852      0.1421      0.1044      0.3188
 23      0.0000      0.2883      0.1870      0.2803      0.1681      0.1699      0.0000      0.0518      0.8030
 24      1.3053      0.2284      0.0661      0.5751      0.0000      0.0369      0.1035      0.0000      0.0000
 25      0.0000      0.3632      0.1624      0.0000      0.0005      0.0273      0.0289      0.2018      0.0000
 26      0.0000      0.2241      0.1738      0.0915      0.1600      0.0998      0.0228      0.2860      1.2642
 27      0.0000      0.2644      0.3777      1.4157      0.2884      0.0275      0.3980      0.0055      1.1726
 28      0.0000      0.1976      0.1608      0.4186      0.3733      0.0245      0.0000      0.0399      0.1360
 29      2.5403      0.2663      0.0000      0.7960      0.1566      0.1063      0.3225      0.0409      0.0000
 30      0.0000      0.2255      0.0638      0.0287      0.0073      0.1123      0.3148      0.0000      0.8560
 31      3.4154      0.2313      0.3632      1.8531      0.1666      0.0837      0.1467      0.3348      0.0000
 32      0.0000      0.2800      0.0265      0.0468      0.1106      0.3170      0.0011      0.3217      0.0187
 33      3.9080      0.2545      0.1234      0.6888      0.1323      0.1321      0.2397      0.1339      0.6463
 34     35.5166      0.2603      0.0000      0.6528      0.3182      0.1713      0.3244      0.2407      1.0888
 35      0.0000      0.2262      0.1358      0.0000      0.0821      0.0000      0.0211      0.0000      0.0000
 36      0.8365      0.2508      0.0220      0.5384      0.0899      0.0216      0.3278      0.1022      0.0000
 37      0.0000      0.2016      0.1866      0.2928      0.2025      0.1967      0.0867      0.0631      0.0000
 38      7.5801      1.6876      3.4258      2.2274      1.5294      1.6287      2.2948      1.2463      1.5732
 39      0.0000      0.2634      0.0000      0.3495      0.0466      0.0266      0.0000      0.2267      0.3383
 40      1.1827      0.2641      0.1595      0.5907      0.0886      0.0738      0.3402      0.1255      0.1974
 41      0.0000      0.2383      0.0000      0.7949      0.2260      0.0407      0.2322      0.0000      0.4669
 42      0.0000      0.3063      0.0631      0.9347      0.0942      0.0540      0.0000      0.0504      1.0159
 43      0.0000      0.2454      0.0574      0.2126      0.1164      0.0984      0.0069      0.0000      1.7212
 44      0.0000      0.1857      0.0000      0.0000      0.1765      0.1442      0.3755      0.1003      0.0000
 45      0.0000      0.2319      0.0487      0.0000      0.0000      0.1330      0.2152      0.0224      0.5770
 46      0.0000      0.2183      0.1138      0.8073      0.0885      0.0000      0.2383      0.0000      0.0000
 47      7.6663      0.2418      0.0546      2.8215      0.2927      0.0488      0.4104      0.2227      0.4224
 48      0.0000      0.1947      0.3111      0.2440      0.0877      0.0342      0.0000      0.1091      0.0000
 49      7.1401      0.2209      0.0271      0.4508      0.0844      0.0462      0.2933      0.3013      0.0000
 50      1.7512      1.2985      0.3585      1.0505      1.7148      1.4887      1.2655      1.4734      1.5021
 51      0.0000      0.2937      0.0698      0.0000      0.0348      0.1218      0.2149      0.0560      0.5261
 52      0.0000      0.2036      0.0479      0.3734      0.1114      0.0485      0.2765      0.0222      0.0000
 53      0.0000      0.1876      0.1256      0.0000      0.0668      0.0000      0.0000      0.1325      0.0493
 54      8.1818     22.2696     19.5921     20.8900     23.1986     23.5281     22.6453     23.3129     17.2190
 55      0.1075     10.9855     11.9437      9.2000     11.6543     11.7948     11.0878     11.5719      9.7524
 56      0.0000      0.2593      0.4559      0.1083      0.0871      0.2500      0.0906      0.0000      0.7827
 57      0.4820      0.2742      0.0000      1.1239      0.0044      0.1895      0.2242      0.0493      1.4819
 58      1.3309      0.2954      0.1455      0.5341      0.0000      0.0140      0.2513      0.2532      1.8035
 59      0.0000      0.2589      0.0303      0.4112      0.0478      0.1214      0.1409      0.0420      2.4087
 60      0.0000      0.1658      0.2847      0.4300      0.0000      0.2390      0.0000      0.2065      1.9639
 61     14.3514      0.2036      0.1259      0.8647      0.0000      0.0307      0.0000      0.2180      0.0103
 62      0.0000      0.2853      0.1632      0.0000      0.2168      0.1710      0.0700      0.0000      0.8085
 63      0.0000      0.2148      0.1436      0.0949      0.1004      0.1104      0.0627      0.1114      0.1658
 64      0.0000      0.3275      0.1519      1.9846      0.0942      0.3975      0.1412      0.0422      0.5488
 65      0.0000     66.0044     75.9153     47.2552     73.0683     72.9532     71.2052     72.5462     57.0078
 66      0.0000      0.3232      0.0967      2.8465      0.0000      0.1701      0.2001      0.1948      0.8514

# j      m_j: min, <> & last-chain-values for 1 ...  7 chains
  1  0.0000E+00  5.0900E-04  1.4712E-04  0.0000E+00  4.5017E-04  2.5902E-04  4.9375E-04  3.5490E-04  2.8389E-03
  2  1.2242E-02  9.6842E-05  3.6424E-05  5.3750E-04  1.3350E-05  2.7803E-05  1.2320E-05  0.0000E+00  3.9025E-04
  3  7.8002E-03  1.6596E-04  5.5219E-05  1.1006E-03  3.6039E-05  4.4057E-05  2.2030E-04  1.0931E-04  1.2218E-04
  4  0.0000E+00  1.8821E-04  6.2521E-06  2.7584E-04  0.0000E+00  6.3920E-06  0.0000E+00  1.8436E-04  2.5187E-06
  5  0.0000E+00  2.8475E-04  0.0000E+00  0.0000E+00  3.6970E-04  9.1357E-05  0.0000E+00  2.1483E-04  2.5087E-04
  6  2.9252E-02  4.6156E-04  1.9249E-04  1.1760E-03  5.3029E-04  2.9336E-04  2.9223E-04  4.9750E-04  0.0000E+00
  7  0.0000E+00  8.5426E-04  4.1822E-04  0.0000E+00  0.0000E+00  2.3140E-05  0.0000E+00  5.0610E-05  2.2258E-03
  8  9.6344E-04  7.4154E-04  1.8791E-04  4.6259E-03  4.0287E-04  5.0349E-04  9.0355E-04  5.1713E-04  2.6254E-04
  9  1.7387E-03  1.2561E-03  5.0847E-04  2.7660E-03  0.0000E+00  5.1264E-04  3.8572E-04  0.0000E+00  7.5144E-03
 10  0.0000E+00  2.3385E-03  4.1757E-04  1.9305E-04  0.0000E+00  5.5306E-04  2.3227E-03  6.1616E-04  0.0000E+00
 11  4.8918E-03  3.4662E-03  1.9012E-03  1.5450E-02  3.4716E-03  0.0000E+00  0.0000E+00  1.0351E-03  0.0000E+00
 12  7.3264E-05  3.8090E-03  1.2324E-03  1.9751E-02  0.0000E+00  1.9574E-03  1.3351E-03  2.5435E-03  0.0000E+00
 13  2.1479E-01  1.3900E-02  0.0000E+00  1.3395E-01  0.0000E+00  7.8661E-03  0.0000E+00  3.9954E-03  1.3920E-02
 14  6.7609E-02  4.4031E-02  0.0000E+00  3.4741E-01  0.0000E+00  7.4483E-04  9.5391E-03  3.4797E-02  0.0000E+00
 15  0.0000E+00  5.4038E-02  0.0000E+00  5.2823E-02  3.9366E-02  9.3746E-03  0.0000E+00  2.4932E-02  3.7368E-01
 16  0.0000E+00  8.2212E-02  3.2927E-02  0.0000E+00  2.9570E-02  4.8720E-03  1.2498E-01  2.5334E-02  4.2872E-02
 17  0.0000E+00  1.2370E-01  1.0177E-01  1.6748E-01  2.8304E-02  1.3981E-01  9.3326E-02  3.6445E-02  2.8090E-01
 18  0.0000E+00  3.3730E-04  1.5727E-04  1.3492E-03  0.0000E+00  2.5670E-05  2.4820E-04  3.0428E-04  6.2129E-04
 19  2.2679E-03  1.5800E-04  3.1515E-05  4.4050E-04  4.9192E-05  9.6375E-05  8.2819E-05  1.0999E-04  2.9663E-05
 20  1.4013E-03  1.5449E-04  0.0000E+00  5.1897E-04  4.5339E-05  4.9203E-05  4.2413E-05  3.8025E-05  8.7001E-04
 21  0.0000E+00  1.8634E-04  5.8983E-05  0.0000E+00  2.3845E-05  4.5249E-05  4.8276E-05  4.2726E-05  2.5880E-05
 22  9.8285E-04  3.3623E-04  1.2773E-04  9.7083E-04  1.2293E-04  1.0641E-04  1.8147E-04  1.3098E-04  4.8527E-04
 23  0.0000E+00  5.3177E-04  3.0856E-04  6.4075E-04  2.8331E-04  2.8646E-04  0.0000E+00  8.7807E-05  1.6507E-03
 24  7.5600E-03  6.2669E-04  1.6239E-04  1.9557E-03  0.0000E+00  9.2452E-05  2.6562E-04  0.0000E+00  0.0000E+00
 25  0.0000E+00  1.3742E-03  5.4976E-04  0.0000E+00  1.6909E-06  9.4435E-05  1.0227E-04  7.0135E-04  0.0000E+00
 26  0.0000E+00  1.4175E-03  9.8372E-04  7.1698E-04  9.2483E-04  5.7690E-04  1.3511E-04  1.6609E-03  8.9117E-03
 27  0.0000E+00  3.3474E-03  4.2785E-03  2.2209E-02  3.3367E-03  3.1771E-04  4.7125E-03  6.4349E-05  1.6544E-02
 28  0.0000E+00  7.2592E-03  5.2859E-03  1.9057E-02  1.2533E-02  8.2330E-04  0.0000E+00  1.3458E-03  5.5703E-03
 29  3.4322E-01  1.7048E-02  0.0000E+00  6.3149E-02  9.1604E-03  6.2183E-03  1.9304E-02  2.4064E-03  0.0000E+00
 30  0.0000E+00  3.0156E-02  7.6367E-03  4.7643E-03  8.9310E-04  1.3734E-02  3.9377E-02  0.0000E+00  1.2759E-01
 31  1.6959E+00  5.4417E-02  7.6447E-02  5.4027E-01  3.5814E-02  1.7989E-02  3.2273E-02  7.2338E-02  0.0000E+00
 32  0.0000E+00  8.8631E-02  7.5023E-03  1.8365E-02  3.1996E-02  9.1728E-02  3.1098E-04  9.3516E-02  6.5872E-03
 33  5.7802E+00  1.7839E-01  7.7384E-02  5.9815E-01  8.4700E-02  8.4619E-02  1.5711E-01  8.6201E-02  5.0482E-01
 34  7.1136E+01  2.4707E-01  0.0000E+00  7.6771E-01  2.7592E-01  1.4859E-01  2.8788E-01  2.0976E-01  1.1516E+00
 35  0.0000E+00  2.7549E-04  1.4793E-04  0.0000E+00  9.1363E-05  0.0000E+00  2.4075E-05  0.0000E+00  0.0000E+00
 36  8.6975E-04  1.2356E-04  9.7013E-06  3.2870E-04  4.0489E-05  9.7142E-06  1.5103E-04  4.6261E-05  0.0000E+00
 37  0.0000E+00  1.0745E-04  8.8981E-05  1.9336E-04  9.8632E-05  9.5826E-05  4.3215E-05  3.0872E-05  0.0000E+00
 38  2.3096E-02  2.4365E-03  4.4251E-03  3.9848E-03  2.0177E-03  2.1490E-03  3.0981E-03  1.6524E-03  2.5312E-03
 39  0.0000E+00  5.4763E-04  0.0000E+00  9.0018E-04  8.8458E-05  5.0454E-05  0.0000E+00  4.3270E-04  7.8376E-04
 40  8.3870E-03  8.8751E-04  4.7956E-04  2.4596E-03  2.7199E-04  2.2672E-04  1.0689E-03  3.8734E-04  7.3922E-04
 41  0.0000E+00  1.2450E-03  0.0000E+00  5.1469E-03  1.0791E-03  1.9421E-04  1.1344E-03  0.0000E+00  2.7190E-03
 42  0.0000E+00  2.9384E-03  5.4139E-04  1.1111E-02  8.2554E-04  4.7375E-04  0.0000E+00  4.4418E-04  1.0862E-02
 43  0.0000E+00  3.4374E-03  7.1929E-04  3.6905E-03  1.4897E-03  1.2603E-03  9.0088E-05  0.0000E+00  2.6866E-02
 44  0.0000E+00  4.4791E-03  0.0000E+00  0.0000E+00  3.8903E-03  3.1773E-03  8.4684E-03  2.2217E-03  0.0000E+00
 45  0.0000E+00  1.1098E-02  2.0863E-03  0.0000E+00  0.0000E+00  5.8153E-03  9.6296E-03  9.8562E-04  3.0770E-02
 46  0.0000E+00  1.9197E-02  8.9520E-03  8.7979E-02  7.1154E-03  0.0000E+00  1.9599E-02  0.0000E+00  0.0000E+00
 47  2.8835E+00  4.3089E-02  8.7067E-03  6.2311E-01  4.7669E-02  7.9453E-03  6.8396E-02  3.6442E-02  8.3893E-02
 48  0.0000E+00  6.1184E-02  8.7491E-02  9.5050E-02  2.5198E-02  9.8185E-03  0.0000E+00  3.1499E-02  0.0000E+00
 49  1.0764E+01  1.5776E-01  1.7319E-02  3.9906E-01  5.5119E-02  3.0185E-02  1.9594E-01  1.9763E-01  0.0000E+00
 50  4.8897E+00  1.7180E+00  4.2435E-01  1.7223E+00  2.0732E+00  1.8002E+00  1.5657E+00  1.7901E+00  2.2148E+00
 51  0.0000E+00  2.1299E-04  4.5282E-05  0.0000E+00  2.3083E-05  8.0724E-05  1.4576E-04  3.7283E-05  4.2518E-04
 52  0.0000E+00  7.5682E-05  1.5942E-05  1.7197E-04  3.7841E-05  1.6475E-05  9.6087E-05  7.5682E-06  0.0000E+00
 53  0.0000E+00  1.0501E-04  6.2925E-05  0.0000E+00  3.4160E-05  0.0000E+00  0.0000E+00  6.8100E-05  3.0730E-05
 54  1.9807E-02  2.5546E-02  2.0108E-02  2.9694E-02  2.4318E-02  2.4668E-02  2.4292E-02  2.4558E-02  2.2013E-02
 55  4.0062E-04  1.9403E-02  1.8874E-02  2.0136E-02  1.8810E-02  1.9040E-02  1.8313E-02  1.8769E-02  1.9197E-02
 56  0.0000E+00  9.0640E-04  1.4261E-03  4.6906E-04  2.7813E-04  7.9863E-04  2.9620E-04  0.0000E+00  3.0492E-03
 57  4.7202E-03  1.2720E-03  0.0000E+00  6.4619E-03  1.8866E-05  8.0351E-04  9.7295E-04  2.1000E-04  7.6629E-03
 58  2.2045E-02  2.3186E-03  1.0216E-03  5.1941E-03  2.7591E-07  1.0050E-04  1.8441E-03  1.8248E-03  1.5774E-02
 59  0.0000E+00  4.3724E-03  4.5821E-04  8.6069E-03  7.3782E-04  1.8734E-03  2.2260E-03  6.5082E-04  4.5339E-02
 60  0.0000E+00  5.2003E-03  7.9912E-03  1.6718E-02  0.0000E+00  6.8525E-03  0.0000E+00  5.9494E-03  6.8660E-02
 61  2.0761E+00  1.3957E-02  7.7194E-03  7.3442E-02  0.0000E+00  1.9219E-03  0.0000E+00  1.3724E-02  7.8874E-04
 62  0.0000E+00  3.5662E-02  1.8247E-02  0.0000E+00  2.4759E-02  1.9537E-02  8.1787E-03  0.0000E+00  1.1261E-01
 63  0.0000E+00  5.3417E-02  3.1941E-02  2.9243E-02  2.2805E-02  2.5081E-02  1.4578E-02  2.5435E-02  4.5951E-02
 64  0.0000E+00  2.2521E-01  9.3457E-02  1.6913E+00  5.9203E-02  2.4983E-01  9.0839E-02  2.6622E-02  4.2063E-01
 65  0.0000E+00  9.5958E+01  9.8745E+01  8.5131E+01  9.7072E+01  9.6936E+01  9.6805E+01  9.6853E+01  9.2365E+01
 66  0.0000E+00  6.6370E-01  1.7760E-01  7.2444E+00  0.0000E+00  3.1934E-01  3.8432E-01  3.6732E-01  1.9487E+00

# AV, chi2 & Mass for <> & i_chain = 1 ...  7 solutions
AV       0.2338     -0.1972     -0.2097      0.1565     -0.1804     -0.1771     -0.1492     -0.1721      0.0633
chi2 2.5196E-05  2.6777E-05  2.6452E-05  2.6263E-05  2.6434E-05  2.6443E-05  2.6419E-05  2.6451E-05  2.6296E-05
Mass 2.6708E-13  3.1595E-13  3.4726E-13  4.1004E-13  3.5366E-13  3.5517E-13  3.6039E-13  3.5588E-13  4.0226E-13
-367.04                                  [v0_min (km/s) before EX0s...]
 181.73                                  [vd_min (km/s) before EX0s...]


## Synthetic spectrum (Best Model) ##l_obs f_obs f_syn wei
 3478    [Nl_obs]
 3741.00   -0.39969   0.75028    0.000
 3742.00   -0.24940   0.71417    0.000
 3743.00   -0.15666   0.68583    0.000
 3744.00    0.18028   0.67199    0.000
 3745.00    0.65951   0.67804   -1.000
 3746.00    0.86079   0.70516   -1.000
 3747.00    0.92093   0.74845   -1.000
 3748.00    0.71674   0.79825   -1.000
 3749.00    0.39633   0.84331   -1.000
 3750.00    0.32617   0.87444   -1.000
 3751.00    0.35050   0.88773   -1.000
 3752.00    0.44017   0.88592   -1.000
 3753.00    0.55077   0.87659   -1.000
 3754.00    0.70692   0.86798   -1.000
 3755.00    0.87527   0.86496   -1.000
 3756.00    1.02746   0.86755   -1.000
 3757.00    1.17610   0.87217   -1.000
 3758.00    1.34518   0.87434   -1.000
 3759.00    1.51783   0.87074   -1.000
 3760.00    1.55661   0.86027   -1.000
 3761.00    1.57760   0.84398   -1.000
 3762.00    1.63700   0.82454   -1.000
 3763.00    1.70002   0.80582   -1.000
 3764.00    1.33091   0.79230   -1.000
 3765.00    0.93687   0.78804   -1.000
 3766.00    0.69588   0.79558   -1.000
 3767.00    0.46137   0.81472   -1.000
 3768.00    0.57331   0.84218   -1.000
 3769.00    0.68356   0.87327   -1.000
 3770.00    0.75276   0.90415   -1.000
 3771.00    0.83926   0.93283   -1.000
 3772.00    1.15258   0.95901   -1.000
 3773.00    1.42330   0.98326   -1.000
 3774.00    1.32008   1.00570   -1.000
 3775.00    1.17743   1.02541   -1.000
 3776.00    0.77911   1.04056   -1.000
 3777.00    0.42359   1.04904   -1.000
 3778.00    0.28469   1.04898   -1.000
 3779.00    0.10848   1.03925   -1.000
 3780.00   -0.22043   1.02021    0.000
 3781.00   -0.43229   0.99456    0.000
 3782.00   -0.24716   0.96672    0.000
 3783.00   -0.14088   0.94115    0.000
 3784.00   -0.26009   0.92035    0.000
 3785.00   -0.20542   0.90377    0.000
 3786.00    0.27407   0.88811   -1.000
 3787.00    0.63113   0.86886   -1.000
 3788.00    0.73013   0.84278   -1.000
 3789.00    0.77561   0.80970   -1.000
 3790.00    0.72307   0.77289   -1.000
 3791.00    0.65480   0.73841   -1.000
 3792.00    0.56136   0.71383   -1.000
 3793.00    0.50806   0.70624   -1.000
 3794.00    0.51115   0.71954   -1.000
 3795.00    0.54319   0.75257   -1.000
 3796.00    0.61102   0.79894   -1.000
 3797.00    0.52059   0.84929   -1.000
 3798.00    0.25772   0.89455   -1.000
 3799.00    0.15089   0.92887   -1.000
 3800.00    0.19402   0.95117   -1.000
 3801.00    0.35707   0.96483   -1.000
 3802.00    0.62176   0.97503   -1.000
 3803.00    0.66025   0.98534   -1.000
 3804.00    0.52996   0.99572   -1.000
 3805.00    0.49597   1.00276   -1.000
 3806.00    0.52511   1.00216   -1.000
 3807.00    0.65494   0.99176   -1.000
 3808.00    0.84254   0.97308   -1.000
 3809.00    0.69783   0.95052   -1.000
 3810.00    0.38703   0.92877   -1.000
 3811.00    0.22614   0.91020   -1.000
 3812.00    0.13009   0.89443   -1.000
 3813.00    0.44778   0.88008   -1.000
 3814.00    0.91892   0.86694   -1.000
 3815.00    0.87383   0.85647   -1.000
 3816.00    0.66646   0.85005   -1.000
 3817.00    0.47994   0.84662   -1.000
 3818.00    0.29889   0.84299   -1.000
 3819.00    0.26972   0.83611   -1.000
 3820.00    0.27309   0.82518   -1.000
 3821.00    0.36549   0.81164   -1.000
 3822.00    0.47300   0.79745   -1.000
 3823.00    0.39279   0.78305   -1.000
 3824.00    0.28850   0.76675   -1.000
 3825.00    0.30638   0.74578   -1.000
 3826.00    0.33523   0.71866   -1.000
 3827.00    0.47216   0.68692   -1.000
 3828.00    0.61489   0.65519   -1.000
 3829.00    0.43052   0.62952   -1.000
 3830.00    0.23877   0.61496   -1.000
 3831.00   -0.02387   0.61396    0.000
 3832.00   -0.27727   0.62622    0.000
 3833.00   -0.32562   0.64973    0.000
 3834.00   -0.34351   0.68213    0.000
 3835.00    0.01732   0.72129   -1.000
 3836.00    0.35292   0.76463   -1.000
 3837.00    0.47532   0.80876   -1.000
 3838.00    0.61173   0.84974   -1.000
 3839.00    0.83624   0.88402   -1.000
 3840.00    1.01742   0.90969   -1.000
 3841.00    0.98484   0.92671   -1.000
 3842.00    0.91360   0.93642   -1.000
 3843.00    0.68759   0.94099   -1.000
 3844.00    0.56759   0.94291   -1.000
 3845.00    0.80006   0.94428   -1.000
 3846.00    0.99472   0.94610   -1.000
 3847.00    1.08325   0.94772    0.000
 3848.00    1.13541   0.94737    0.000
 3849.00    1.10024   0.94350    0.000
 3850.00    0.99829   0.93576    0.000
 3851.00    0.75787   0.92513    0.000
 3852.00    0.45045   0.91390    0.000
 3853.00    0.02222   0.90514    0.000
 3854.00   -0.15431   0.90189    0.000
 3855.00    0.06612   0.90614    0.000
 3856.00    0.27765   0.91766    0.000
 3857.00    0.47686   0.93336    0.000
 3858.00    0.58327   0.94860    0.000
 3859.00    0.57661   0.95938    0.000
 3860.00    0.71986   0.96376    0.000
 3861.00    1.02414   0.96201    0.000
 3862.00    1.12904   0.95554    0.000
 3863.00    1.04504   0.94578    0.000
 3864.00    0.88124   0.93392    0.000
 3865.00    0.65078   0.92168    0.000
 3866.00    0.75839   0.91173    0.000
 3867.00    1.11465   0.90685    0.000
 3868.00    1.22428   0.90801    0.000
 3869.00    1.17461   0.91305    0.000
 3870.00    1.19046   0.91756    0.000
 3871.00    1.24333   0.91737    0.000
 3872.00    1.16923   0.91098    0.000
 3873.00    1.03266   0.89995    0.000
 3874.00    0.72921   0.88723    0.000
 3875.00    0.35481   0.87489    0.000
 3876.00    0.87329   0.86298    0.000
 3877.00    1.71699   0.84978    0.000
 3878.00    0.94894   0.83280    0.000
 3879.00   -0.31598   0.81000    0.000
 3880.00   -0.50808   0.78135    0.000
 3881.00   -0.42476   0.75025    0.000
 3882.00    0.05697   0.72324    0.025
 3883.00    0.62199   0.70789    0.025
 3884.00    0.42332   0.70980    0.025
 3885.00    0.09873   0.73019    0.025
 3886.00   -0.16529   0.76487    0.000
 3887.00   -0.42182   0.80604    0.000
 3888.00    1.12396   0.84597    0.026
 3889.00    2.82398   0.87984    0.026
 3890.00    2.75171   0.90628    0.026
 3891.00    2.59110   0.92636    0.026
 3892.00    2.43020   0.94198    0.025
 3893.00    2.26081   0.95470    0.025
 3894.00    1.54345   0.96542    0.025
 3895.00    0.86645   0.97448    0.025
 3896.00    1.01520   0.98148    0.024
 3897.00    1.17106   0.98572    0.024
 3898.00    1.41108   0.98728    0.023
 3899.00    1.56698   0.98765    0.023
 3900.00    1.03762   0.98967    0.022
 3901.00    0.61307   0.99629    0.021
 3902.00    0.82866   1.00909    0.021
 3903.00    0.96845   1.02700    0.021
 3904.00    0.74340   1.04659    0.021
 3905.00    0.53996   1.06399    0.021
 3906.00    0.42113   1.07627    0.021
 3907.00    0.32915   1.08203    0.021
 3908.00    0.32467   1.08144    0.021
 3909.00    0.30428   1.07548    0.021
 3910.00    0.24004   1.06517    0.022
 3911.00    0.08646   1.05117    0.023
 3912.00   -0.27807   1.03405    0.000
 3913.00   -0.21366   1.01490    0.000
 3914.00    0.72618   0.99556    0.024
 3915.00    1.08990   0.97833    0.025
 3916.00    0.43036   0.96501    0.026
 3917.00    0.05474   0.95546    0.026
 3918.00    0.12026   0.94724    0.025
 3919.00    0.38222   0.93650    0.025
 3920.00    0.91221   0.91967    0.025
 3921.00    0.54957   0.89493    0.024
 3922.00   -0.88533   0.86271    0.000
 3923.00   -1.45629   0.82516    0.000
 3924.00   -1.11224   0.78504    0.000
 3925.00   -0.05795   0.74532    0.000
 3926.00    1.65983   0.70923    0.025
 3927.00    1.57855   0.68053    0.025
 3928.00    0.01562   0.66329    0.024
 3929.00   -0.85841   0.66090    0.000
 3930.00   -1.23304   0.67457    0.000
 3931.00   -0.64556   0.70252    0.000
 3932.00    0.55420   0.74025    0.024
 3933.00    1.13282   0.78178    0.025
 3934.00    1.36574   0.82132    0.024
 3935.00    0.93832   0.85481    0.024
 3936.00    0.19125   0.88086    0.023
 3937.00    0.04623   0.90075    0.023
 3938.00    0.15292   0.91752    0.023
 3939.00    0.28184   0.93421    0.023
 3940.00    0.41871   0.95239    0.023
 3941.00    0.58143   0.97159    0.023
 3942.00    0.75195   0.99011    0.023
 3943.00    0.89104   1.00636    0.024
 3944.00    1.02225   1.01957    0.024
 3945.00    0.37183   1.02955    0.024
 3946.00   -0.43798   1.03644    0.000
 3947.00   -0.25810   1.04048    0.000
 3948.00    0.08024   1.04169    0.024
 3949.00    0.34482   1.03977    0.024
 3950.00    0.60059   1.03428    0.024
 3951.00    0.77683   1.02489    0.024
 3952.00    0.94659   1.01101    0.024
 3953.00    0.70049   0.99139    0.024
 3954.00    0.43526   0.96434    0.024
 3955.00   -0.08586   0.92885    0.000
 3956.00   -0.60096   0.88543    0.000
 3957.00   -0.63156   0.83592    0.000
 3958.00   -0.64699   0.78249    0.000
 3959.00   -0.37511   0.72677    0.000
 3960.00   -0.17952   0.67012    0.000
 3961.00   -0.84370   0.61495    0.000
 3962.00   -1.32008   0.56576    0.000
 3963.00   -0.32032   0.52909    0.000
 3964.00    0.41006   0.51164    0.000
 3965.00   -0.45797   0.51768    0.000
 3966.00   -0.92555   0.54724    0.000
 3967.00    0.48713   0.59623    0.000
 3968.00    1.56469   0.65796    0.000
 3969.00    1.35802   0.72532    0.000
 3970.00    1.19548   0.79247    0.000
 3971.00    1.17401   0.85543    0.000
 3972.00    0.95777   0.91180    0.000
 3973.00    0.21403   0.95997    0.000
 3974.00   -0.25952   0.99875    0.000
 3975.00   -0.10568   1.02774    0.000
 3976.00    0.05960   1.04800    0.000
 3977.00    0.24787   1.06216    0.000
 3978.00    0.24628   1.07365    0.000
 3979.00   -0.08744   1.08534    0.000
 3980.00   -0.05688   1.09848    0.000
 3981.00    0.53136   1.11262    0.022
 3982.00    1.11843   1.12638    0.022
 3983.00    1.70390   1.13849    0.023
 3984.00    2.11258   1.14843    0.023
 3985.00    2.31188   1.15633    0.023
 3986.00    2.11995   1.16226    0.024
 3987.00    1.51948   1.16568    0.023
 3988.00    0.88311   1.16581    0.023
 3989.00    0.21367   1.16262    0.023
 3990.00    0.32792   1.15748    0.023
 3991.00    1.07846   1.15332    0.023
 3992.00    1.44540   1.15339    0.023
 3993.00    1.53828   1.15948    0.024
 3994.00    1.65257   1.17059    0.024
 3995.00    1.78028   1.18300    0.023
 3996.00    1.62466   1.19189    0.023
 3997.00    1.31378   1.19346    0.023
 3998.00    1.18246   1.18676    0.023
 3999.00    1.13668   1.17454    0.023
 4000.00    1.70889   1.16225    0.023
 4001.00    2.53511   1.15534    0.024
 4002.00    1.85913   1.15666    0.024
 4003.00    0.65555   1.16566    0.023
 4004.00    0.52039   1.17938    0.023
 4005.00    0.70181   1.19420    0.023
 4006.00    1.29956   1.20758    0.023
 4007.00    1.99959   1.21860    0.023
 4008.00    2.13730   1.22737    0.023
 4009.00    2.16320   1.23412    0.023
 4010.00    1.75441   1.23903    0.023
 4011.00    1.27806   1.24242    0.023
 4012.00    1.12069   1.24463    0.023
 4013.00    1.00000   1.24574    0.023
 4014.00    0.43294   1.24519    0.023
 4015.00   -0.16863   1.24198    0.000
 4016.00    0.00088   1.23547    0.000
 4017.00    0.20287   1.22611    0.022
 4018.00    0.81174   1.21577    0.022
 4019.00    1.41914   1.20735    0.022
 4020.00    1.79943   1.20307    0.022
 4021.00    2.12680   1.20258    0.022
 4022.00    1.52120   1.20269    0.021
 4023.00    0.99612   1.19901    0.021
 4024.00    1.33749   1.18859    0.021
 4025.00    1.55660   1.17233    0.021
 4026.00    0.84759   1.15516    0.021
 4027.00    0.24280   1.14388    0.021
 4028.00    0.23919   1.14400    0.021
 4029.00    0.43627   1.15738    0.021
 4030.00    1.55314   1.18142    0.021
 4031.00    2.17825   1.21019    0.021
 4032.00    0.95877   1.23669    0.021
 4033.00    0.02801   1.25502    0.021
 4034.00    0.00242   1.26195    0.020
 4035.00    0.34235   1.25698    0.020
 4036.00    1.65471   1.24151    0.021
 4037.00    2.46866   1.21795    0.021
 4038.00    2.14450   1.19015    0.021
 4039.00    1.74667   1.16400    0.021
 4040.00    1.20317   1.14663    0.021
 4041.00    0.86863   1.14370    0.021
 4042.00    0.89404   1.15619    0.022
 4043.00    0.58510   1.17934    0.022
 4044.00   -0.22821   1.20471    0.000
 4045.00   -0.02676   1.22414    0.000
 4046.00    1.51984   1.23311    0.022
 4047.00    2.06109   1.23162    0.023
 4048.00    1.42861   1.22260    0.022
 4049.00    0.97352   1.21008    0.022
 4050.00    0.70108   1.19791    0.022
 4051.00    0.66836   1.18876    0.022
 4052.00    0.85334   1.18370    0.023
 4053.00    1.11982   1.18188    0.023
 4054.00    1.45154   1.18063    0.022
 4055.00    1.18469   1.17672    0.022
 4056.00    0.49636   1.16827    0.022
 4057.00    0.96992   1.15635    0.022
 4058.00    2.16117   1.14513    0.022
 4059.00    2.06501   1.13959    0.021
 4060.00    1.27417   1.14249    0.021
 4061.00    1.13595   1.15261    0.021
 4062.00    1.30360   1.16543    0.021
 4063.00    1.26195   1.17586    0.021
 4064.00    1.13575   1.18087    0.021
 4065.00    1.03942   1.18011    0.021
 4066.00    0.95339   1.17527    0.021
 4067.00    0.75667   1.16852    0.021
 4068.00    0.52780   1.16096    0.020
 4069.00    0.67124   1.15205    0.021
 4070.00    0.90411   1.14166    0.021
 4071.00    0.73017   1.13233    0.021
 4072.00    0.47741   1.12907    0.020
 4073.00    0.49706   1.13590    0.020
 4074.00    0.55777   1.15261    0.020
 4075.00    1.13508   1.17423    0.020
 4076.00    1.76955   1.19397    0.020
 4077.00    1.58268   1.20712    0.020
 4078.00    1.33567   1.21351    0.020
 4079.00    1.00449   1.21685    0.020
 4080.00    0.67008   1.22164    0.019
 4081.00    0.59738   1.23015    0.020
 4082.00    0.54817   1.24117    0.020
 4083.00    1.32950   1.25101    0.020
 4084.00    2.07273   1.25584    0.020
 4085.00    2.18797   1.25341    0.020
 4086.00    2.22219   1.24339    0.021
 4087.00    1.42251   1.22644    0.020
 4088.00    0.80694   1.20307    0.020
 4089.00    1.54229   1.17358    0.020
 4090.00    2.12298   1.13845    0.020
 4091.00    1.83601   1.09849    0.020
 4092.00    1.57529   1.05487    0.000
 4093.00    1.43198   1.00964    0.000
 4094.00    1.33736   0.96645    0.000
 4095.00    1.42149   0.93104    0.000
 4096.00    1.38941   0.91042    0.000
 4097.00    0.99989   0.91003    0.000
 4098.00    0.72643   0.93063    0.000
 4099.00    0.75635   0.96733    0.000
 4100.00    0.71405   1.01135    0.000
 4101.00    0.50960   1.05365    0.000
 4102.00    0.66683   1.08815    0.000
 4103.00    1.52788   1.11304    0.000
 4104.00    1.88297   1.13031    0.000
 4105.00    1.37956   1.14381    0.000
 4106.00    1.35971   1.15708    0.000
 4107.00    2.05865   1.17174    0.000
 4108.00    2.19981   1.18701    0.000
 4109.00    1.61215   1.20032    0.000
 4110.00    1.30386   1.20878    0.000
 4111.00    1.31714   1.21064    0.000
 4112.00    1.03326   1.20637    0.000
 4113.00    0.44772   1.19859    0.020
 4114.00    0.57591   1.19101    0.020
 4115.00    1.34313   1.18681    0.020
 4116.00    1.29567   1.18749    0.020
 4117.00    0.60545   1.19245    0.019
 4118.00    0.52424   1.19949    0.027
 4119.00    0.86564   1.20567    0.099
 4120.00    1.14675   1.20831   -1.000
 4121.00    1.39118   1.20583   -1.000
 4122.00    1.52754   1.19818   -1.000
 4123.00    1.60649   1.18661   -1.000
 4124.00    1.35375   1.17314   -1.000
 4125.00    0.94806   1.16019   -1.000
 4126.00    1.28009   1.15051    0.054
 4127.00    1.90503   1.14699    0.022
 4128.00    1.81693   1.15175    0.019
 4129.00    1.48749   1.16496    0.019
 4130.00    1.43989   1.18418    0.019
 4131.00    1.47249   1.20484    0.019
 4132.00    1.81774   1.22164    0.019
 4133.00    2.23639   1.22983    0.019
 4134.00    2.08868   1.22648    0.019
 4135.00    1.83406   1.21139    0.019
 4136.00    1.59035   1.18801    0.019
 4137.00    1.34824   1.16311    0.018
 4138.00    1.30869   1.14459    0.019
 4139.00    1.29068   1.13797    0.019
 4140.00    1.50706   1.14368    0.019
 4141.00    1.73966   1.15713    0.019
 4142.00    1.59070   1.17163    0.019
 4143.00    1.42858   1.18189    0.019
 4144.00    1.25202   1.18594    0.019
 4145.00    1.08341   1.18475    0.019
 4146.00    1.17834   1.18058    0.019
 4147.00    1.26062   1.17564    0.019
 4148.00    1.14717   1.17172    0.019
 4149.00    1.10724   1.17031    0.019
 4150.00    1.79207   1.17273    0.019
 4151.00    2.34997   1.17970    0.019
 4152.00    2.00672   1.19090    0.019
 4153.00    1.59115   1.20485    0.019
 4154.00    0.78078   1.21933    0.019
 4155.00    0.21159   1.23214    0.019
 4156.00    0.69654   1.24161    0.019
 4157.00    1.07237   1.24672    0.019
 4158.00    1.05575   1.24712    0.019
 4159.00    1.11047   1.24314    0.019
 4160.00    1.38049   1.23583    0.019
 4161.00    1.46600   1.22663    0.019
 4162.00    1.07768   1.21657    0.019
 4163.00    0.81410   1.20565    0.019
 4164.00    0.82605   1.19296    0.019
 4165.00    0.77694   1.17782    0.019
 4166.00    0.61089   1.16106    0.019
 4167.00    0.79453   1.14539    0.019
 4168.00    1.56264   1.13411    0.019
 4169.00    1.77032   1.12929    0.019
 4170.00    1.15705   1.13080    0.019
 4171.00    0.99743   1.13678    0.019
 4172.00    1.42209   1.14502    0.020
 4173.00    1.59658   1.15388    0.020
 4174.00    1.48718   1.16246    0.020
 4175.00    1.40746   1.17031    0.019
 4176.00    1.35743   1.17720    0.019
 4177.00    1.33286   1.18298    0.019
 4178.00    1.33074   1.18737    0.019
 4179.00    1.04234   1.18992    0.019
 4180.00    0.53129   1.19040    0.019
 4181.00    0.49314   1.18946    0.018
 4182.00    0.77839   1.18879    0.018
 4183.00    1.02114   1.19034    0.018
 4184.00    1.23843   1.19512    0.018
 4185.00    0.98741   1.20241    0.018
 4186.00    0.49147   1.20985    0.018
 4187.00    0.76473   1.21420    0.018
 4188.00    1.38688   1.21255    0.018
 4189.00    1.49558   1.20345    0.018
 4190.00    1.40392   1.18775    0.018
 4191.00    1.45303   1.16855    0.018
 4192.00    1.54890   1.14997    0.018
 4193.00    1.44810   1.13564    0.018
 4194.00    1.29250   1.12762    0.018
 4195.00    1.05183   1.12631    0.018
 4196.00    0.79166   1.13114    0.018
 4197.00    0.82673   1.14123    0.018
 4198.00    0.91606   1.15563    0.018
 4199.00    1.14077   1.17306    0.017
 4200.00    1.38462   1.19178    0.017
 4201.00    1.61025   1.20961    0.017
 4202.00    1.83403   1.22452    0.018
 4203.00    1.63447   1.23509    0.017
 4204.00    1.40733   1.24077    0.017
 4205.00    1.48410   1.24169    0.017
 4206.00    1.56968   1.23827    0.016
 4207.00    1.32244   1.23129    0.017
 4208.00    1.07509   1.22246    0.017
 4209.00    0.82488   1.21487    0.017
 4210.00    0.63740   1.21218    0.018
 4211.00    1.36326   1.21684    0.017
 4212.00    2.05193   1.22823    0.017
 4213.00    2.38886   1.24199    0.018
 4214.00    2.62554   1.25160    0.018
 4215.00    2.17309   1.25067    0.018
 4216.00    1.79743   1.23527    0.017
 4217.00    1.82988   1.20536    0.017
 4218.00    1.82720   1.16526    0.018
 4219.00    1.67443   1.12314    0.017
 4220.00    1.64927   1.08916    0.017
 4221.00    2.07370   1.07231    0.017
 4222.00    2.29695   1.07682    0.017
 4223.00    1.92444   1.10009    0.017
 4224.00    1.60292   1.13349    0.017
 4225.00    1.41010   1.16614    0.018
 4226.00    1.17086   1.18951    0.018
 4227.00    0.83078   1.20027    0.018
 4228.00    0.67055   1.20022    0.017
 4229.00    0.84950   1.19424    0.017
 4230.00    0.90166   1.18759    0.017
 4231.00    0.74504   1.18422    0.017
 4232.00    0.93920   1.18619    0.017
 4233.00    1.63969   1.19387    0.016
 4234.00    1.87483   1.20634    0.016
 4235.00    1.51912   1.22185    0.016
 4236.00    1.16678   1.23804    0.016
 4237.00    0.81819   1.25220    0.016
 4238.00    0.97735   1.26151    0.016
 4239.00    1.63756   1.26360    0.016
 4240.00    1.68721   1.25733    0.016
 4241.00    1.20551   1.24354    0.016
 4242.00    0.98451   1.22514    0.016
 4243.00    0.96337   1.20620    0.016
 4244.00    0.98955   1.19056    0.016
 4245.00    1.04762   1.18048    0.017
 4246.00    1.18190   1.17621    0.017
 4247.00    1.36119   1.17659    0.017
 4248.00    1.46622   1.18000    0.018
 4249.00    1.53302   1.18489    0.017
 4250.00    1.15201   1.18972    0.017
 4251.00    0.57120   1.19287    0.017
 4252.00    0.76170   1.19320    0.017
 4253.00    1.24793   1.19130    0.017
 4254.00    1.48067   1.19012    0.017
 4255.00    1.63079   1.19379    0.016
 4256.00    1.77344   1.20517    0.016
 4257.00    1.91405   1.22353    0.016
 4258.00    1.92628   1.24422    0.016
 4259.00    1.90974   1.26070    0.017
 4260.00    1.51582   1.26710    0.017
 4261.00    1.05441   1.26038    0.016
 4262.00    1.30937   1.24077    0.017
 4263.00    1.66235   1.21139    0.017
 4264.00    1.37449   1.17732    0.016
 4265.00    1.02403   1.14460    0.016
 4266.00    0.81940   1.11928    0.016
 4267.00    0.62369   1.10602    0.016
 4268.00    0.75610   1.10699    0.015
 4269.00    0.89695   1.12118    0.015
 4270.00    0.95684   1.14456    0.015
 4271.00    1.01947   1.17121    0.015
 4272.00    1.15455   1.19501    0.015
 4273.00    1.26994   1.21158    0.015
 4274.00    1.11447   1.21935    0.015
 4275.00    0.97563   1.21962    0.015
 4276.00    0.98785   1.21514    0.015
 4277.00    1.00474   1.20829    0.015
 4278.00    1.05271   1.19997    0.016
 4279.00    1.08762   1.18978    0.016
 4280.00    1.05491   1.17700    0.016
 4281.00    1.00268   1.16173    0.015
 4282.00    0.86894   1.14549   -2.000
 4283.00    0.90062   1.13107   -2.000
 4284.00    1.50334   1.12168   -2.000
 4285.00    1.97358   1.11945   -2.000
 4286.00    2.05874   1.12397   -2.000
 4287.00    1.95288   1.13189   -2.000
 4288.00    1.37322   1.13809   -2.000
 4289.00    0.85069   1.13759   -2.000
 4290.00    0.45030   1.12752   -2.000
 4291.00    0.25812   1.10786   -2.000
 4292.00    0.45254   1.08126   -2.000
 4293.00    0.78484   1.05213   -2.000
 4294.00    1.34079   1.02538   -2.000
 4295.00    1.50311   1.00496   -2.000
 4296.00    1.10547   0.99246   -2.000
 4297.00    0.73970   0.98676   -2.000
 4298.00    0.41382   0.98481    0.016
 4299.00    0.33358   0.98331    0.015
 4300.00    0.52431   0.98041    0.015
 4301.00    0.81259   0.97666    0.015
 4302.00    1.19579   0.97483    0.015
 4303.00    1.22615   0.97873    0.015
 4304.00    0.95379   0.99158    0.015
 4305.00    0.87809   1.01486    0.016
 4306.00    0.95102   1.04812    0.016
 4307.00    1.05109   1.08963    0.016
 4308.00    1.16920   1.13699    0.016
 4309.00    1.17501   1.18705    0.016
 4310.00    1.11554   1.23569    0.016
 4311.00    1.34222   1.27766    0.016
 4312.00    1.71393   1.30767    0.016
 4313.00    1.61480   1.32169    0.015
 4314.00    1.30906   1.31821    0.015
 4315.00    1.19987   1.29845    0.015
 4316.00    1.16470   1.26623    0.015
 4317.00    1.27857   1.22757    0.015
 4318.00    1.44007   1.19024    0.015
 4319.00    1.42066   1.16254    0.015
 4320.00    1.35289   1.15096    0.015
 4321.00    1.35566   1.15767    0.016
 4322.00    1.37387   1.17941    0.016
 4323.00    1.30863   1.20871    0.016
 4324.00    1.22887   1.23715    0.016
 4325.00    1.09494   1.25837    0.016
 4326.00    0.95385   1.26910    0.016
 4327.00    1.20087   1.26810    0.016
 4328.00    1.48416   1.25448    0.016
 4329.00    1.15471   1.22712    0.016
 4330.00    0.79023   1.18584    0.000
 4331.00    0.99242   1.13335    0.000
 4332.00    1.20531   1.07641    0.000
 4333.00    1.13213   1.02489    0.000
 4334.00    1.05566   0.98916    0.000
 4335.00    0.90009   0.97642    0.000
 4336.00    0.78035   0.98839    0.000
 4337.00    1.12704   1.02097    0.000
 4338.00    1.43354   1.06617    0.000
 4339.00    1.38890   1.11511    0.000
 4340.00    1.31122   1.16012    0.000
 4341.00    1.02016   1.19595    0.000
 4342.00    0.82599   1.21971    0.000
 4343.00    1.12062   1.23069    0.000
 4344.00    1.34129   1.23064    0.000
 4345.00    1.26011   1.22390    0.000
 4346.00    1.22933   1.21655    0.000
 4347.00    1.36904   1.21430    0.000
 4348.00    1.41392   1.22039    0.000
 4349.00    1.18820   1.23422    0.000
 4350.00    1.01988   1.25221    0.000
 4351.00    0.99150   1.27013    0.015
 4352.00    1.02579   1.28541    0.015
 4353.00    1.19193   1.29805    0.015
 4354.00    1.29098   1.30969    0.018
 4355.00    1.26738   1.32198    0.047
 4356.00    1.19961   1.33513   -1.000
 4357.00    1.06130   1.34751   -1.000
 4358.00    1.06301   1.35633   -1.000
 4359.00    1.26106   1.35914   -1.000
 4360.00    1.28823   1.35504   -1.000
 4361.00    1.10457   1.34511   -1.000
 4362.00    1.05706   1.33175    0.059
 4363.00    1.15763   1.31752    0.019
 4364.00    1.29119   1.30405    0.014
 4365.00    1.45642   1.29154    0.014
 4366.00    1.51222   1.27952    0.014
 4367.00    1.47546   1.26820    0.014
 4368.00    1.40453   1.25923    0.014
 4369.00    1.30814   1.25496    0.014
 4370.00    1.23384   1.25674    0.014
 4371.00    1.17398   1.26318    0.014
 4372.00    1.06316   1.26969    0.014
 4373.00    0.92314   1.26992    0.014
 4374.00    0.94215   1.25858    0.014
 4375.00    1.04047   1.23424    0.014
 4376.00    1.05137   1.20054    0.014
 4377.00    1.02455   1.16531    0.014
 4378.00    0.93861   1.13757    0.014
 4379.00    0.83080   1.12404    0.014
 4380.00    0.94310   1.12666    0.014
 4381.00    1.12443   1.14225    0.014
 4382.00    1.18264   1.16476    0.014
 4383.00    1.20864   1.18823    0.014
 4384.00    1.14344   1.20906    0.014
 4385.00    1.05876   1.22625    0.014
 4386.00    0.93069   1.24048    0.014
 4387.00    0.79528   1.25295    0.014
 4388.00    1.04853   1.26470    0.014
 4389.00    1.35144   1.27611    0.014
 4390.00    1.45151   1.28665    0.014
 4391.00    1.53347   1.29494    0.014
 4392.00    1.36944   1.29925    0.014
 4393.00    1.19232   1.29819    0.014
 4394.00    1.08436   1.29135    0.014
 4395.00    0.97930   1.27954    0.014
 4396.00    0.99926   1.26442    0.014
 4397.00    1.03952   1.24805    0.014
 4398.00    1.52602   1.23288    0.014
 4399.00    1.93907   1.22185    0.014
 4400.00    1.44444   1.21788    0.014
 4401.00    0.98222   1.22298    0.014
 4402.00    0.79262   1.23724    0.014
 4403.00    0.69885   1.25824    0.014
 4404.00    1.20575   1.28150    0.014
 4405.00    1.60275   1.30176    0.014
 4406.00    1.45910   1.31448    0.014
 4407.00    1.32171   1.31755    0.014
 4408.00    1.20923   1.31250    0.014
 4409.00    1.08294   1.30408    0.014
 4410.00    0.91080   1.29805    0.014
 4411.00    0.83914   1.29849    0.014
 4412.00    1.04897   1.30602    0.014
 4413.00    1.20696   1.31770    0.014
 4414.00    1.24069   1.32903    0.014
 4415.00    1.27418   1.33637    0.014
 4416.00    1.30716   1.33860    0.014
 4417.00    1.22719   1.33700    0.014
 4418.00    0.94387   1.33390    0.014
 4419.00    0.88790   1.33132    0.014
 4420.00    1.18977   1.32995    0.014
 4421.00    1.48381   1.32929    0.014
 4422.00    1.76701   1.32837    0.014
 4423.00    1.88798   1.32631    0.014
 4424.00    1.81163   1.32253    0.014
 4425.00    1.69870   1.31683    0.014
 4426.00    1.54655   1.30971    0.014
 4427.00    1.41268   1.30262    0.014
 4428.00    1.29608   1.29792    0.014
 4429.00    1.16441   1.29807    0.014
 4430.00    1.02017   1.30447    0.014
 4431.00    1.14731   1.31625    0.014
 4432.00    1.47369   1.32990    0.014
 4433.00    1.60363   1.34073    0.015
 4434.00    1.60692   1.34531    0.015
 4435.00    1.30424   1.34336    0.015
 4436.00    0.82899   1.33806    0.015
 4437.00    0.91849   1.33415    0.015
 4438.00    1.28524   1.33547    0.015
 4439.00    1.39706   1.34313    0.015
 4440.00    1.40070   1.35508    0.015
 4441.00    1.20073   1.36750    0.014
 4442.00    0.92675   1.37658    0.014
 4443.00    1.09527   1.37984    0.014
 4444.00    1.39986   1.37643    0.014
 4445.00    1.25272   1.36660    0.014
 4446.00    0.98993   1.35130    0.014
 4447.00    1.20658   1.33214    0.014
 4448.00    1.52314   1.31131    0.014
 4449.00    1.45044   1.29124    0.014
 4450.00    1.31378   1.27409    0.014
 4451.00    1.29637   1.26132    0.014
 4452.00    1.29367   1.25332    0.014
 4453.00    1.32351   1.24984    0.014
 4454.00    1.35612   1.25061    0.014
 4455.00    1.01362   1.25561    0.014
 4456.00    0.65261   1.26462    0.014
 4457.00    0.86989   1.27663    0.014
 4458.00    1.09575   1.28967    0.014
 4459.00    1.28215   1.30127    0.014
 4460.00    1.45381   1.30940    0.013
 4461.00    1.32698   1.31349    0.000
 4462.00    1.18483   1.31492    0.000
 4463.00    0.86267   1.31660    0.000
 4464.00    0.60755   1.32171    0.000
 4465.00    0.89611   1.33254    0.000
 4466.00    1.17047   1.34956    0.000
 4467.00    1.35847   1.37106    0.000
 4468.00    1.49477   1.39366    0.000
 4469.00    1.38303   1.41328    0.000
 4470.00    1.33249   1.42612    0.000
 4471.00    1.52104   1.42964    0.000
 4472.00    1.63590   1.42353    0.000
 4473.00    1.51121   1.41015    0.000
 4474.00    1.43465   1.39412    0.000
 4475.00    1.49052   1.38110    0.000
 4476.00    1.49092   1.37567    0.000
 4477.00    1.36061   1.37933    0.000
 4478.00    1.27494   1.38988    0.000
 4479.00    1.28022   1.40241    0.000
 4480.00    1.27482   1.41166    0.000
 4481.00    1.25051   1.41432    0.000
 4482.00    1.25152   1.41018    0.013
 4483.00    1.29182   1.40167    0.013
 4484.00    1.37919   1.39208    0.013
 4485.00    1.53067   1.38389    0.013
 4486.00    1.48489   1.37806    0.013
 4487.00    1.20257   1.37451    0.013
 4488.00    1.08670   1.37306    0.013
 4489.00    1.14681   1.37415    0.013
 4490.00    1.18629   1.37858    0.013
 4491.00    1.20652   1.38697    0.013
 4492.00    1.15483   1.39909    0.013
 4493.00    1.04401   1.41393    0.013
 4494.00    1.07588   1.43033    0.013
 4495.00    1.21100   1.44745    0.013
 4496.00    1.15854   1.46454    0.013
 4497.00    0.98692   1.48057    0.013
 4498.00    0.99606   1.49425    0.013
 4499.00    1.10561   1.50418    0.013
 4500.00    1.17669   1.50952    0.013
 4501.00    1.22919   1.51032    0.013
 4502.00    1.22133   1.50753    0.013
 4503.00    1.18830   1.50221    0.013
 4504.00    1.30822   1.49499    0.013
 4505.00    1.48272   1.48621    0.013
 4506.00    1.47971   1.47604    0.013
 4507.00    1.42318   1.46496    0.013
 4508.00    1.24241   1.45414    0.012
 4509.00    1.03054   1.44506    0.012
 4510.00    1.03967   1.43893    0.012
 4511.00    1.09374   1.43609    0.012
 4512.00    0.98295   1.43588    0.012
 4513.00    0.84586   1.43679    0.012
 4514.00    0.85133   1.43670    0.012
 4515.00    0.87374   1.43333    0.013
 4516.00    1.03129   1.42504    0.012
 4517.00    1.19977   1.41112    0.012
 4518.00    1.33504   1.39205    0.012
 4519.00    1.46880   1.36961    0.013
 4520.00    1.21632   1.34643    0.012
 4521.00    0.96463   1.32550    0.012
 4522.00    0.99595   1.30939    0.012
 4523.00    1.02063   1.29942    0.012
 4524.00    0.92066   1.29548    0.012
 4525.00    0.80433   1.29644    0.012
 4526.00    0.50476   1.30120    0.012
 4527.00    0.29847   1.30928    0.012
 4528.00    0.82215   1.32062    0.012
 4529.00    1.26626   1.33530    0.012
 4530.00    1.23988   1.35283    0.012
 4531.00    1.17474   1.37147    0.012
 4532.00    0.92816   1.38883    0.012
 4533.00    0.75933   1.40244    0.012
 4534.00    0.88763   1.41072    0.012
 4535.00    0.97801   1.41378    0.012
 4536.00    0.94744   1.41307    0.012
 4537.00    1.00717   1.41008    0.012
 4538.00    1.31086   1.40568    0.012
 4539.00    1.44353   1.40020    0.012
 4540.00    1.17991   1.39410    0.012
 4541.00    1.00926   1.38784    0.012
 4542.00    1.02498   1.38158    0.012
 4543.00    1.08341   1.37577    0.012
 4544.00    1.21641   1.37076    0.012
 4545.00    1.24287   1.36691    0.012
 4546.00    1.10654   1.36499    0.012
 4547.00    1.01857   1.36606    0.012
 4548.00    0.99552   1.37106    0.012
 4549.00    1.00681   1.38071    0.012
 4550.00    1.05870   1.39489    0.000
 4551.00    1.10016   1.41218    0.000
 4552.00    1.13075   1.42982    0.000
 4553.00    1.16580   1.44437    0.000
 4554.00    1.20497   1.45302    0.000
 4555.00    1.28149   1.45464    0.000
 4556.00    1.38828   1.45042    0.000
 4557.00    1.25709   1.44337    0.000
 4558.00    0.95619   1.43697    0.000
 4559.00    0.95641   1.43401    0.000
 4560.00    1.14507   1.43544    0.000
 4561.00    1.18263   1.43991    0.000
 4562.00    1.13754   1.44514    0.000
 4563.00    1.06824   1.44961    0.000
 4564.00    0.98743   1.45256    0.000
 4565.00    1.17777   1.45407    0.000
 4566.00    1.47931   1.45516    0.000
 4567.00    1.53290   1.45677    0.000
 4568.00    1.49960   1.45855    0.000
 4569.00    1.33188   1.45897    0.000
 4570.00    1.12443   1.45599    0.000
 4571.00    1.09344   1.44851    0.000
 4572.00    1.10569   1.43712    0.000
 4573.00    1.09787   1.42358    0.000
 4574.00    1.08607   1.41003    0.000
 4575.00    1.11769   1.39882    0.000
 4576.00    1.15604   1.39168    0.000
 4577.00    1.29263   1.38938    0.000
 4578.00    1.44045   1.39207    0.000
 4579.00    1.44331   1.39912    0.000
 4580.00    1.43503   1.40897    0.000
 4581.00    1.15743   1.41941    0.000
 4582.00    0.86861   1.42799    0.000
 4583.00    0.94593   1.43293    0.000
 4584.00    1.02729   1.43351    0.000
 4585.00    1.14588   1.42994    0.000
 4586.00    1.25310   1.42341    0.000
 4587.00    1.16178   1.41604    0.000
 4588.00    1.07814   1.40985    0.000
 4589.00    1.07662   1.40611    0.000
 4590.00    1.09926   1.40505    0.000
 4591.00    1.30439   1.40563    0.000
 4592.00    1.45204   1.40709    0.000
 4593.00    1.26921   1.40910    0.000
 4594.00    1.11104   1.41122    0.000
 4595.00    1.06552   1.41351    0.000
 4596.00    1.03660   1.41638    0.000
 4597.00    1.06976   1.42078    0.000
 4598.00    1.11683   1.42790    0.000
 4599.00    1.20740   1.43846    0.000
 4600.00    1.27353   1.45197    0.000
 4601.00    1.27475   1.46661    0.000
 4602.00    1.19187   1.48020    0.000
 4603.00    0.91736   1.49079    0.000
 4604.00    0.75643   1.49710    0.000
 4605.00    0.81963   1.49937    0.000
 4606.00    0.92799   1.49882    0.000
 4607.00    1.11403   1.49657    0.000
 4608.00    1.18716   1.49430    0.000
 4609.00    1.09027   1.49269    0.000
 4610.00    1.03349   1.49147    0.000
 4611.00    1.02975   1.49104    0.000
 4612.00    1.04736   1.49183    0.000
 4613.00    1.08984   1.49337    0.000
 4614.00    1.19986   1.49547    0.000
 4615.00    1.37929   1.49801    0.000
 4616.00    1.46576   1.50018    0.000
 4617.00    1.46796   1.50130    0.000
 4618.00    1.35464   1.50122    0.000
 4619.00    1.14904   1.49968    0.000
 4620.00    1.16740   1.49660    0.000
 4621.00    1.34319   1.49289    0.000
 4622.00    1.43890   1.48984    0.000
 4623.00    1.48524   1.48753    0.000
 4624.00    1.31927   1.48487    0.000
 4625.00    1.03897   1.48116    0.000
 4626.00    0.87041   1.47633    0.000
 4627.00    0.75411   1.47018    0.000
 4628.00    0.84051   1.46241    0.000
 4629.00    1.00863   1.45337    0.000
 4630.00    1.07112   1.44420    0.000
 4631.00    1.09727   1.43617    0.000
 4632.00    1.08633   1.43061    0.000
 4633.00    1.06466   1.42827    0.000
 4634.00    1.11179   1.42822    0.000
 4635.00    1.17541   1.42847    0.000
 4636.00    1.14486   1.42698    0.000
 4637.00    1.09613   1.42185    0.000
 4638.00    1.16407   1.41257    0.000
 4639.00    1.24951   1.40116    0.000
 4640.00    1.19033   1.39084    0.000
 4641.00    1.11523   1.38460    0.000
 4642.00    1.23665   1.38418    0.000
 4643.00    1.37236   1.38954    0.000
 4644.00    1.24004   1.39913    0.000
 4645.00    1.09758   1.40989    0.000
 4646.00    0.88102   1.41866    0.000
 4647.00    0.67593   1.42463    0.000
 4648.00    0.90986   1.42913    0.000
 4649.00    1.14582   1.43463    0.000
 4650.00    1.41519   1.44342    0.000
 4651.00    1.63130   1.45545    0.000
 4652.00    1.30242   1.46829    0.000
 4653.00    1.02510   1.47836    0.000
 4654.00    1.12464   1.48239    0.000
 4655.00    1.22129   1.47880    0.000
 4656.00    1.30187   1.46763    0.000
 4657.00    1.33225   1.44940    0.000
 4658.00    1.13866   1.42515    0.000
 4659.00    0.99029   1.39840    0.000
 4660.00    1.00755   1.37513    0.000
 4661.00    1.07097   1.36014    0.000
 4662.00    1.27601   1.35536    0.000
 4663.00    1.38533   1.36044    0.000
 4664.00    1.24504   1.37276    0.000
 4665.00    1.12172   1.38883    0.000
 4666.00    1.03643   1.40589    0.000
 4667.00    1.01416   1.42195    0.000
 4668.00    1.11430   1.43545    0.000
 4669.00    1.06381   1.44430    0.000
 4670.00    0.75823   1.44723    0.000
 4671.00    0.68184   1.44500    0.000
 4672.00    0.94553   1.43927    0.000
 4673.00    1.16209   1.43190    0.000
 4674.00    1.31720   1.42543    0.000
 4675.00    1.42204   1.42213    0.000
 4676.00    1.46910   1.42217    0.000
 4677.00    1.36820   1.42461    0.000
 4678.00    1.11735   1.42858    0.000
 4679.00    0.91185   1.43270    0.000
 4680.00    0.74685   1.43601    0.000
 4681.00    0.68739   1.43830    0.000
 4682.00    0.71104   1.43936    0.000
 4683.00    0.68104   1.43963    0.000
 4684.00    0.61388   1.44062    0.000
 4685.00    0.70161   1.44334    0.000
 4686.00    0.88342   1.44776    0.000
 4687.00    0.92064   1.45326    0.000
 4688.00    0.88119   1.45819    0.000
 4689.00    1.04546   1.45980    0.000
 4690.00    1.30347   1.45604    0.000
 4691.00    1.32602   1.44759    0.000
 4692.00    1.25527   1.43683    0.000
 4693.00    1.16492   1.42509    0.000
 4694.00    1.06796   1.41324    0.000
 4695.00    1.24295   1.40296    0.000
 4696.00    1.49512   1.39636    0.000
 4697.00    1.53434   1.39380    0.000
 4698.00    1.52370   1.39345    0.000
 4699.00    1.37168   1.39346    0.000
 4700.00    1.19307   1.39344    0.000
 4701.00    1.06606   1.39400    0.000
 4702.00    0.94656   1.39637    0.000
 4703.00    1.08766   1.40145    0.000
 4704.00    1.25631   1.40813    0.000
 4705.00    1.26428   1.41445    0.000
 4706.00    1.26122   1.41983    0.000
 4707.00    1.06802   1.42566    0.000
 4708.00    0.86835   1.43396    0.000
 4709.00    1.04440   1.44517    0.000
 4710.00    1.21269   1.45824    0.000
 4711.00    1.10995   1.47237    0.000
 4712.00    1.01859   1.48658    0.000
 4713.00    1.10199   1.49910    0.000
 4714.00    1.18546   1.50816    0.000
 4715.00    1.26975   1.51322    0.000
 4716.00    1.31671   1.51472    0.000
 4717.00    1.09980   1.51253    0.000
 4718.00    0.91078   1.50542    0.000
 4719.00    0.87351   1.49222    0.000
 4720.00    0.86181   1.47401    0.000
 4721.00    0.96158   1.45451    0.000
 4722.00    1.03650   1.43749    0.000
 4723.00    1.02227   1.42505    0.000
 4724.00    1.05646   1.41861    0.000
 4725.00    1.23639   1.41857    0.000
 4726.00    1.38370   1.42353    0.000
 4727.00    1.44738   1.43150    0.000
 4728.00    1.50324   1.44006    0.000
 4729.00    1.54190   1.44712    0.000
 4730.00    1.48341   1.45338    0.000
 4731.00    1.23921   1.45999    0.000
 4732.00    1.08908   1.46561    0.000
 4733.00    1.09586   1.46943    0.000
 4734.00    1.07251   1.47296    0.000
 4735.00    1.00511   1.47758    0.000
 4736.00    1.04328   1.48299    0.000
 4737.00    1.21717   1.48825    0.000
 4738.00    1.31963   1.49346    0.000
 4739.00    1.34116   1.49922    0.000
 4740.00    1.26187   1.50457    0.000
 4741.00    1.08185   1.50822    0.000
 4742.00    1.05005   1.51004    0.000
 4743.00    1.14884   1.50975    0.000
 4744.00    1.28349   1.50648    0.000
 4745.00    1.44599   1.50023    0.000
 4746.00    1.48873   1.49228    0.000
 4747.00    1.44971   1.48387    0.000
 4748.00    1.40059   1.47627    0.000
 4749.00    1.34541   1.47028    0.000
 4750.00    1.25098   1.46620    0.000
 4751.00    1.13606   1.46356    0.000
 4752.00    1.23474   1.46122    0.000
 4753.00    1.43012   1.45726    0.000
 4754.00    1.47846   1.44932    0.000
 4755.00    1.46955   1.43755    0.000
 4756.00    1.26247   1.42481    0.000
 4757.00    0.98972   1.41316    0.000
 4758.00    1.05661   1.40395    0.000
 4759.00    1.21792   1.39948    0.000
 4760.00    1.19728   1.40155    0.000
 4761.00    1.13502   1.40947    0.010
 4762.00    1.13179   1.42138    0.010
 4763.00    1.13938   1.43447    0.011
 4764.00    1.31801   1.44580    0.011
 4765.00    1.52073   1.45564    0.011
 4766.00    1.37060   1.46587    0.011
 4767.00    1.18468   1.47655    0.010
 4768.00    1.18486   1.48566    0.010
 4769.00    1.19708   1.49215    0.011
 4770.00    1.10911   1.49681    0.011
 4771.00    1.01819   1.49888    0.010
 4772.00    0.96219   1.49714    0.010
 4773.00    0.91137   1.49244    0.010
 4774.00    1.01045   1.48581    0.010
 4775.00    1.10809   1.47701    0.010
 4776.00    1.18501   1.46678    0.010
 4777.00    1.25089   1.45785    0.010
 4778.00    1.21299   1.45069    0.010
 4779.00    1.18157   1.44394    0.010
 4780.00    1.19457   1.43939    0.010
 4781.00    1.24126   1.43849    0.010
 4782.00    1.46647   1.44026    0.010
 4783.00    1.62587   1.44545    0.010
 4784.00    1.50503   1.45467    0.010
 4785.00    1.36670   1.46679    0.010
 4786.00    1.16694   1.48078    0.010
 4787.00    1.03887   1.49494    0.010
 4788.00    1.12265   1.50602    0.010
 4789.00    1.22815   1.51151    0.010
 4790.00    1.38835   1.51125    0.010
 4791.00    1.49130   1.50649    0.010
 4792.00    1.47008   1.49957    0.010
 4793.00    1.48239   1.49369    0.010
 4794.00    1.55779   1.49090    0.010
 4795.00    1.61840   1.49069    0.010
 4796.00    1.65470   1.49073    0.010
 4797.00    1.55778   1.48879    0.010
 4798.00    1.26890   1.48458    0.010
 4799.00    1.11441   1.47966    0.010
 4800.00    1.13025   1.47479    0.010
 4801.00    1.21164   1.47052    0.010
 4802.00    1.36623   1.46844    0.010
 4803.00    1.37338   1.46926    0.011
 4804.00    1.23529   1.47228    0.011
 4805.00    1.22648   1.47689    0.011
 4806.00    1.32998   1.48294    0.010
 4807.00    1.35127   1.49005    0.010
 4808.00    1.30964   1.49775    0.010
 4809.00    1.34553   1.50561    0.010
 4810.00    1.43357   1.51275    0.010
 4811.00    1.48477   1.51797    0.010
 4812.00    1.51425   1.52027    0.010
 4813.00    1.56703   1.51883    0.010
 4814.00    1.63179   1.51339    0.010
 4815.00    1.48346   1.50432    0.010
 4816.00    1.24027   1.49245    0.010
 4817.00    1.06475   1.48100    0.010
 4818.00    0.91513   1.47394    0.011
 4819.00    1.14805   1.47132    0.011
 4820.00    1.50533   1.47028    0.011
 4821.00    1.43451   1.46901    0.011
 4822.00    1.24713   1.46757    0.011
 4823.00    1.35123   1.46656    0.010
 4824.00    1.52045   1.46547    0.010
 4825.00    1.46774   1.46375    0.010
 4826.00    1.37547   1.46304    0.011
 4827.00    1.36998   1.46456    0.010
 4828.00    1.37631   1.46656    0.010
 4829.00    1.28833   1.46712    0.010
 4830.00    1.19118   1.46598    0.010
 4831.00    1.29400   1.46301    0.010
 4832.00    1.40895   1.45778    0.010
 4833.00    1.42471   1.45158    0.011
 4834.00    1.43842   1.44692    0.011
 4835.00    1.55737   1.44464    0.011
 4836.00    1.66338   1.44371    0.011
 4837.00    1.43138   1.44412    0.011
 4838.00    1.21695   1.44646    0.010
 4839.00    1.24241   1.44902    0.010
 4840.00    1.28004   1.44904    0.010
 4841.00    1.42771   1.44545    0.010
 4842.00    1.55672   1.43948    0.010
 4843.00    1.56200   1.43327    0.010
 4844.00    1.54508   1.42636    0.010
 4845.00    1.41369   1.41605    0.010
 4846.00    1.32580   1.40133    0.011
 4847.00    1.41897   1.38163    0.011
 4848.00    1.46073   1.35570    0.000
 4849.00    1.32550   1.32524    0.000
 4850.00    1.23415   1.29357    0.000
 4851.00    1.27006   1.26041    0.000
 4852.00    1.25488   1.22423    0.000
 4853.00    1.11327   1.18747    0.000
 4854.00    1.00528   1.15636    0.000
 4855.00    0.96904   1.13971    0.000
 4856.00    1.00651   1.14390    0.000
 4857.00    1.18058   1.16503    0.000
 4858.00    1.23697   1.19440    0.000
 4859.00    1.10286   1.22737    0.000
 4860.00    1.04062   1.25976    0.000
 4861.00    1.08045   1.28677    0.000
 4862.00    1.12167   1.30619    0.000
 4863.00    1.16462   1.31777    0.000
 4864.00    1.19464   1.32187    0.000
 4865.00    1.21042   1.32309    0.000
 4866.00    1.24890   1.32880    0.000
 4867.00    1.30943   1.34092    0.000
 4868.00    1.27799   1.35591    0.000
 4869.00    1.16780   1.37175    0.000
 4870.00    1.25587   1.38862    0.000
 4871.00    1.49351   1.40509    0.000
 4872.00    1.51835   1.41918    0.000
 4873.00    1.40214   1.42970    0.000
 4874.00    1.25347   1.43348    0.000
 4875.00    1.08597   1.43009    0.010
 4876.00    1.04116   1.42404    0.010
 4877.00    1.05839   1.41712    0.010
 4878.00    1.10272   1.40748    0.010
 4879.00    1.15890   1.39588    0.010
 4880.00    1.22588   1.38591    0.010
 4881.00    1.29692   1.37991    0.010
 4882.00    1.21323   1.37779    0.010
 4883.00    1.08018   1.37905    0.010
 4884.00    1.07612   1.38424    0.010
 4885.00    1.10644   1.39657    0.011
 4886.00    1.14710   1.41976    0.011
 4887.00    1.19000   1.44935    0.011
 4888.00    1.29060   1.47776    0.011
 4889.00    1.40120   1.50138    0.011
 4890.00    1.38713   1.51767    0.011
 4891.00    1.35665   1.52581    0.011
 4892.00    1.35184   1.52654    0.011
 4893.00    1.34942   1.52065    0.011
 4894.00    1.35950   1.51235    0.011
 4895.00    1.37029   1.50639    0.011
 4896.00    1.34757   1.50185    0.011
 4897.00    1.32461   1.49762    0.011
 4898.00    1.35839   1.49570    0.011
 4899.00    1.39482   1.49610    0.011
 4900.00    1.49431   1.49518    0.011
 4901.00    1.57896   1.48989    0.011
 4902.00    1.47180   1.48114    0.011
 4903.00    1.35853   1.47183    0.011
 4904.00    1.19229   1.46494    0.010
 4905.00    1.05426   1.46302    0.010
 4906.00    1.09781   1.46496    0.010
 4907.00    1.14545   1.46653    0.010
 4908.00    1.21372   1.46472    0.010
 4909.00    1.31042   1.45811    0.010
 4910.00    1.52287   1.44450    0.010
 4911.00    1.65338   1.42292    0.010
 4912.00    1.50736   1.39611    0.010
 4913.00    1.43524   1.37052    0.010
 4914.00    1.57351   1.35352    0.010
 4915.00    1.60616   1.34953    0.010
 4916.00    1.38187   1.35844    0.010
 4917.00    1.20050   1.37532    0.010
 4918.00    1.10923   1.39655    0.010
 4919.00    1.06898   1.42214    0.010
 4920.00    1.12186   1.45046    0.010
 4921.00    1.21251   1.47549    0.010
 4922.00    1.36337   1.49363    0.010
 4923.00    1.44826   1.50484    0.010
 4924.00    1.44082   1.50829    0.010
 4925.00    1.46561   1.50425    0.010
 4926.00    1.53012   1.49318    0.010
 4927.00    1.53381   1.47617    0.010
 4928.00    1.47147   1.45932    0.010
 4929.00    1.50850   1.44787    0.010
 4930.00    1.64070   1.43978    0.010
 4931.00    1.59487   1.43288    0.010
 4932.00    1.39872   1.42977    0.010
 4933.00    1.30925   1.43446    0.010
 4934.00    1.29909   1.44835    0.010
 4935.00    1.35538   1.46730    0.010
 4936.00    1.45506   1.48547    0.010
 4937.00    1.51902   1.50159    0.010
 4938.00    1.56254   1.51560    0.010
 4939.00    1.53122   1.52611    0.010
 4940.00    1.46263   1.53376    0.000
 4941.00    1.34015   1.54042    0.000
 4942.00    1.19446   1.54554    0.000
 4943.00    1.28019   1.54758    0.000
 4944.00    1.45138   1.54576    0.000
 4945.00    1.55366   1.53892    0.000
 4946.00    1.63439   1.52564    0.000
 4947.00    1.57115   1.50720    0.000
 4948.00    1.47033   1.48693    0.000
 4949.00    1.37373   1.46698    0.000
 4950.00    1.27803   1.44802    0.000
 4951.00    1.43579   1.43233    0.000
 4952.00    1.63625   1.42699    0.000
 4953.00    1.57262   1.43492    0.000
 4954.00    1.47539   1.44838    0.000
 4955.00    1.32660   1.45907    0.000
 4956.00    1.17325   1.46527    0.000
 4957.00    1.24452   1.46796    0.000
 4958.00    1.32765   1.46683    0.000
 4959.00    1.19418   1.46154    0.000
 4960.00    1.06146   1.45524    0.000
 4961.00    1.31252   1.45193    0.000
 4962.00    1.55161   1.45267    0.000
 4963.00    1.53031   1.45718    0.000
 4964.00    1.49485   1.46463    0.000
 4965.00    1.28553   1.47384    0.000
 4966.00    1.09862   1.48320    0.000
 4967.00    1.09924   1.48995    0.000
 4968.00    1.11865   1.49231    0.000
 4969.00    1.25535   1.48922    0.000
 4970.00    1.35105   1.47967    0.000
 4971.00    1.24578   1.46388    0.000
 4972.00    1.19585   1.44327    0.000
 4973.00    1.36624   1.42081    0.000
 4974.00    1.51415   1.39959    0.000
 4975.00    1.58769   1.38085    0.000
 4976.00    1.62856   1.36615    0.000
 4977.00    1.57810   1.35901    0.000
 4978.00    1.49961   1.36176    0.000
 4979.00    1.35411   1.37232    0.000
 4980.00    1.31202   1.38701    0.000
 4981.00    1.48353   1.40335    0.000
 4982.00    1.57066   1.41793    0.000
 4983.00    1.50620   1.42807    0.000
 4984.00    1.39694   1.43444    0.000
 4985.00    1.21729   1.43872    0.000
 4986.00    1.11426   1.44243    0.000
 4987.00    1.11694   1.44504    0.000
 4988.00    1.14054   1.44473    0.000
 4989.00    1.18953   1.44242    0.000
 4990.00    1.24767   1.43855    0.000
 4991.00    1.31559   1.43146    0.000
 4992.00    1.36237   1.42117    0.000
 4993.00    1.38920   1.40817    0.000
 4994.00    1.39819   1.39358    0.000
 4995.00    1.39233   1.38021    0.000
 4996.00    1.40003   1.37011    0.000
 4997.00    1.41765   1.36372    0.000
 4998.00    1.43218   1.36008    0.000
 4999.00    1.44471   1.35756    0.000
 5000.00    1.39905   1.35638    0.000
 5001.00    1.32062   1.35807    0.000
 5002.00    1.36246   1.36196    0.000
 5003.00    1.46323   1.36354    0.000
 5004.00    1.35261   1.35959    0.000
 5005.00    1.15247   1.35112    0.000
 5006.00    1.25551   1.34006    0.000
 5007.00    1.46848   1.32883    0.000
 5008.00    1.45475   1.32100    0.000
 5009.00    1.37148   1.31882    0.000
 5010.00    1.42183   1.32195    0.000
 5011.00    1.50631   1.32738    0.000
 5012.00    1.46857   1.33350    0.000
 5013.00    1.40545   1.34195    0.000
 5014.00    1.26603   1.35296    0.000
 5015.00    1.11413   1.36359    0.000
 5016.00    1.31546   1.37144    0.000
 5017.00    1.56015   1.37830    0.000
 5018.00    1.48741   1.38707    0.000
 5019.00    1.38784   1.39642    0.000
 5020.00    1.56179   1.40420    0.000
 5021.00    1.74911   1.41115    0.000
 5022.00    1.65838   1.41915    0.000
 5023.00    1.56242   1.42982    0.000
 5024.00    1.40912   1.44021    0.000
 5025.00    1.27222   1.44598    0.000
 5026.00    1.46458   1.44748    0.000
 5027.00    1.62774   1.44504    0.000
 5028.00    1.44973   1.43607    0.000
 5029.00    1.29359   1.41854    0.010
 5030.00    1.31392   1.39481    0.010
 5031.00    1.37053   1.37253    0.010
 5032.00    1.64700   1.35659    0.010
 5033.00    1.82404   1.34540    0.010
 5034.00    1.52551   1.33918    0.010
 5035.00    1.28255   1.34156    0.010
 5036.00    1.25607   1.35496    0.010
 5037.00    1.22054   1.37742    0.010
 5038.00    1.15563   1.40039    0.010
 5039.00    1.16784   1.41718    0.010
 5040.00    1.39173   1.42730    0.010
 5041.00    1.50083   1.43025    0.010
 5042.00    1.33999   1.42641    0.010
 5043.00    1.27022   1.41992    0.009
 5044.00    1.38558   1.41643    0.009
 5045.00    1.49189   1.41844    0.010
 5046.00    1.58219   1.42499    0.010
 5047.00    1.60651   1.43566    0.010
 5048.00    1.52870   1.44984    0.010
 5049.00    1.47498   1.46452    0.009
 5050.00    1.45403   1.47715    0.009
 5051.00    1.46904   1.48703    0.009
 5052.00    1.52711   1.49388    0.009
 5053.00    1.48560   1.49629    0.009
 5054.00    1.33899   1.49274    0.009
 5055.00    1.33391   1.48505    0.009
 5056.00    1.46056   1.47510    0.009
 5057.00    1.46204   1.46194    0.009
 5058.00    1.36079   1.44584    0.009
 5059.00    1.35528   1.43026    0.009
 5060.00    1.41892   1.42040    0.010
 5061.00    1.40934   1.41663    0.009
 5062.00    1.35335   1.41431    0.009
 5063.00    1.30433   1.41301    0.009
 5064.00    1.25919   1.41450    0.009
 5065.00    1.27919   1.41672    0.009
 5066.00    1.33058   1.41606    0.009
 5067.00    1.32546   1.41314    0.010
 5068.00    1.29682   1.40977    0.010
 5069.00    1.33890   1.40294    0.009
 5070.00    1.40616   1.39172    0.009
 5071.00    1.43951   1.38015    0.009
 5072.00    1.46265   1.37005    0.009
 5073.00    1.33637   1.35952    0.009
 5074.00    1.17278   1.35009    0.009
 5075.00    1.14391   1.34879    0.009
 5076.00    1.14235   1.35688    0.009
 5077.00    1.25389   1.36861    0.009
 5078.00    1.38340   1.38105    0.010
 5079.00    1.45820   1.39556    0.009
 5080.00    1.52653   1.41113    0.009
 5081.00    1.47055   1.42447    0.009
 5082.00    1.40457   1.43515    0.009
 5083.00    1.47341   1.44476    0.009
 5084.00    1.54831   1.45277    0.009
 5085.00    1.52922   1.45696    0.009
 5086.00    1.50877   1.45693    0.009
 5087.00    1.47611   1.45341    0.009
 5088.00    1.44158   1.44539    0.009
 5089.00    1.37222   1.43246    0.009
 5090.00    1.31727   1.41796    0.009
 5091.00    1.42277   1.40545    0.009
 5092.00    1.50951   1.39577    0.009
 5093.00    1.45010   1.38892    0.009
 5094.00    1.40703   1.38644    0.009
 5095.00    1.46034   1.38991    0.009
 5096.00    1.50621   1.39502    0.009
 5097.00    1.51736   1.39637    0.009
 5098.00    1.52501   1.39405    0.009
 5099.00    1.51926   1.39028    0.009
 5100.00    1.51381   1.38612    0.009
 5101.00    1.50927   1.38273    0.009
 5102.00    1.48476   1.38117    0.009
 5103.00    1.40642   1.38350    0.009
 5104.00    1.37528   1.39000    0.009
 5105.00    1.45331   1.39892    0.009
 5106.00    1.52058   1.41125    0.009
 5107.00    1.56633   1.42550    0.009
 5108.00    1.53466   1.43782    0.009
 5109.00    1.36810   1.44716    0.009
 5110.00    1.26449   1.45250    0.009
 5111.00    1.25691   1.45327    0.010
 5112.00    1.28639   1.44912    0.010
 5113.00    1.36553   1.43824    0.010
 5114.00    1.37762   1.42188    0.010
 5115.00    1.31060   1.40371    0.010
 5116.00    1.37632   1.38577    0.010
 5117.00    1.58017   1.36903    0.010
 5118.00    1.64913   1.35446    0.010
 5119.00    1.59430   1.34469    0.010
 5120.00    1.53725   1.34158    0.010
 5121.00    1.47841   1.34334    0.010
 5122.00    1.38396   1.34763    0.010
 5123.00    1.26418   1.35382    0.009
 5124.00    1.30954   1.36221    0.009
 5125.00    1.45805   1.37302    0.009
 5126.00    1.55377   1.38356    0.009
 5127.00    1.62067   1.39027    0.009
 5128.00    1.54142   1.39257    0.009
 5129.00    1.39284   1.39166    0.009
 5130.00    1.42237   1.38944    0.009
 5131.00    1.52479   1.38417    0.009
 5132.00    1.47908   1.37466    0.009
 5133.00    1.38158   1.36500    0.009
 5134.00    1.43121   1.35866    0.009
 5135.00    1.52420   1.35632    0.009
 5136.00    1.31616   1.35428    0.009
 5137.00    1.03457   1.34965    0.009
 5138.00    1.13439   1.34729    0.009
 5139.00    1.30956   1.34923    0.009
 5140.00    1.36131   1.35014    0.009
 5141.00    1.39402   1.34810    0.009
 5142.00    1.41267   1.34596    0.009
 5143.00    1.42972   1.34578    0.009
 5144.00    1.48338   1.34721    0.009
 5145.00    1.53983   1.34897    0.009
 5146.00    1.64026   1.35253    0.009
 5147.00    1.74251   1.36037    0.009
 5148.00    1.68750   1.37189    0.009
 5149.00    1.63006   1.38513    0.009
 5150.00    1.52490   1.39935    0.009
 5151.00    1.42170   1.41225    0.009
 5152.00    1.35229   1.41986    0.009
 5153.00    1.29892   1.41964    0.009
 5154.00    1.41632   1.41104    0.009
 5155.00    1.50833   1.39386    0.009
 5156.00    1.40923   1.36632    0.009
 5157.00    1.33265   1.32851    0.009
 5158.00    1.38506   1.28639    0.009
 5159.00    1.42877   1.24603    0.009
 5160.00    1.43291   1.20940    0.009
 5161.00    1.46372   1.17638    0.009
 5162.00    1.59404   1.14831    0.009
 5163.00    1.66333   1.13199    0.009
 5164.00    1.54219   1.13323    0.009
 5165.00    1.41125   1.14776    0.009
 5166.00    1.25435   1.16584    0.009
 5167.00    1.12157   1.18568    0.009
 5168.00    1.04359   1.21361    0.009
 5169.00    1.03084   1.24847    0.009
 5170.00    1.14652   1.27838    0.009
 5171.00    1.20916   1.29479    0.009
 5172.00    1.18076   1.29752    0.009
 5173.00    1.15664   1.28804    0.009
 5174.00    1.13896   1.26941    0.009
 5175.00    1.18460   1.25012    0.009
 5176.00    1.31386   1.23696    0.009
 5177.00    1.37930   1.22998    0.009
 5178.00    1.37047   1.22948    0.009
 5179.00    1.38650   1.24151    0.009
 5180.00    1.42802   1.26764    0.009
 5181.00    1.45976   1.29584    0.009
 5182.00    1.48265   1.31407    0.009
 5183.00    1.42403   1.32332    0.009
 5184.00    1.30041   1.33072    0.009
 5185.00    1.31523   1.33623    0.009
 5186.00    1.42716   1.33571    0.009
 5187.00    1.45949   1.33392    0.009
 5188.00    1.44285   1.33894    0.009
 5189.00    1.44867   1.35001    0.009
 5190.00    1.46658   1.36138    0.000
 5191.00    1.45139   1.37141    0.000
 5192.00    1.42076   1.38009    0.000
 5193.00    1.49094   1.38526    0.000
 5194.00    1.60167   1.38416    0.000
 5195.00    1.54472   1.37478    0.000
 5196.00    1.43022   1.35863    0.000
 5197.00    1.42701   1.34016    0.000
 5198.00    1.45596   1.32183    0.000
 5199.00    1.53960   1.30400    0.000
 5200.00    1.63629   1.29103    0.000
 5201.00    1.69698   1.28851    0.000
 5202.00    1.75075   1.29651    0.000
 5203.00    1.59150   1.31110    0.000
 5204.00    1.40040   1.33010    0.000
 5205.00    1.31969   1.35165    0.000
 5206.00    1.25107   1.37185    0.000
 5207.00    1.39525   1.38923    0.000
 5208.00    1.55480   1.40383    0.000
 5209.00    1.55033   1.41516    0.000
 5210.00    1.53974   1.42283    0.000
 5211.00    1.67621   1.42859    0.009
 5212.00    1.80820   1.43436    0.009
 5213.00    1.75222   1.43815    0.009
 5214.00    1.68566   1.43640    0.009
 5215.00    1.44765   1.42742    0.009
 5216.00    1.24850   1.41224    0.009
 5217.00    1.44496   1.39277    0.009
 5218.00    1.61771   1.37336    0.009
 5219.00    1.61794   1.35981    0.009
 5220.00    1.61255   1.35295    0.009
 5221.00    1.57591   1.35181    0.009
 5222.00    1.51606   1.35783    0.009
 5223.00    1.35300   1.37012    0.009
 5224.00    1.24933   1.38401    0.009
 5225.00    1.36261   1.39619    0.009
 5226.00    1.44003   1.40687    0.009
 5227.00    1.40764   1.41702    0.009
 5228.00    1.38280   1.42663    0.009
 5229.00    1.37760   1.43698    0.009
 5230.00    1.38276   1.44895    0.009
 5231.00    1.41108   1.46194    0.009
 5232.00    1.47140   1.47385    0.009
 5233.00    1.59376   1.48174    0.009
 5234.00    1.69339   1.48572    0.009
 5235.00    1.75459   1.48806    0.009
 5236.00    1.72599   1.48766    0.009
 5237.00    1.56440   1.48063    0.009
 5238.00    1.49543   1.46856    0.009
 5239.00    1.54706   1.45758    0.009
 5240.00    1.64344   1.44692    0.009
 5241.00    1.79116   1.43232    0.009
 5242.00    1.85116   1.41827    0.009
 5243.00    1.82244   1.41182    0.009
 5244.00    1.75989   1.41164    0.009
 5245.00    1.66718   1.41207    0.009
 5246.00    1.55177   1.41415    0.009
 5247.00    1.41850   1.42340    0.009
 5248.00    1.41048   1.43707    0.009
 5249.00    1.48906   1.44797    0.009
 5250.00    1.49024   1.45384    0.009
 5251.00    1.44449   1.45578    0.009
 5252.00    1.45947   1.45206    0.009
 5253.00    1.50659   1.43856    0.009
 5254.00    1.55108   1.41547    0.009
 5255.00    1.59436   1.38588    0.009
 5256.00    1.67865   1.35239    0.009
 5257.00    1.77917   1.31968    0.009
 5258.00    1.66029   1.29450    0.009
 5259.00    1.46750   1.27545    0.009
 5260.00    1.44750   1.25743    0.009
 5261.00    1.47642   1.24686    0.009
 5262.00    1.52447   1.25215    0.009
 5263.00    1.57700   1.26665    0.010
 5264.00    1.54803   1.28022    0.010
 5265.00    1.50380   1.29579    0.010
 5266.00    1.32266   1.31952    0.010
 5267.00    1.12169   1.34886    0.010
 5268.00    1.13973   1.37724    0.010
 5269.00    1.18081   1.40089    0.010
 5270.00    1.22174   1.41959    0.010
 5271.00    1.26267   1.43372    0.010
 5272.00    1.23824   1.44476    0.009
 5273.00    1.21161   1.45212    0.009
 5274.00    1.28675   1.45376    0.009
 5275.00    1.36422   1.45280    0.009
 5276.00    1.51290   1.45627    0.009
 5277.00    1.65239   1.46571    0.009
 5278.00    1.65185   1.47734    0.009
 5279.00    1.64918   1.48979    0.009
 5280.00    1.62573   1.50499    0.009
 5281.00    1.61133   1.52189    0.009
 5282.00    1.66072   1.53440    0.009
 5283.00    1.71068   1.53872    0.009
 5284.00    1.76379   1.53660    0.009
 5285.00    1.80860   1.53125    0.009
 5286.00    1.81729   1.52212    0.009
 5287.00    1.80930   1.50650    0.009
 5288.00    1.74163   1.48531    0.009
 5289.00    1.71460   1.46485    0.009
 5290.00    1.80964   1.45099    0.009
 5291.00    1.89113   1.44233    0.009
 5292.00    1.93796   1.43602    0.009
 5293.00    1.96104   1.43547    0.009
 5294.00    1.93185   1.44528    0.009
 5295.00    1.86816   1.46284    0.009
 5296.00    1.73862   1.48066    0.009
 5297.00    1.65774   1.49566    0.009
 5298.00    1.65785   1.50965    0.009
 5299.00    1.62727   1.52354    0.009
 5300.00    1.55188   1.53529    0.009
 5301.00    1.51385   1.54260    0.009
 5302.00    1.52376   1.54556    0.009
 5303.00    1.47039   1.54607    0.009
 5304.00    1.34546   1.54549    0.009
 5305.00    1.39566   1.54342    0.009
 5306.00    1.62052   1.53860    0.009
 5307.00    1.70687   1.53088    0.009
 5308.00    1.67139   1.52259    0.009
 5309.00    1.63961   1.51597    0.009
 5310.00    1.61071   1.51015    0.009
 5311.00    1.74754   1.50312    0.009
 5312.00    1.99730   1.49573    0.009
 5313.00    2.00998   1.48916    0.009
 5314.00    1.88109   1.48007    0.009
 5315.00    1.83052   1.46515    0.009
 5316.00    1.82077   1.44811    0.009
 5317.00    1.78733   1.43196    0.009
 5318.00    1.74320   1.41256    0.009
 5319.00    1.65547   1.38851    0.009
 5320.00    1.55080   1.37004    0.009
 5321.00    1.55115   1.36601    0.009
 5322.00    1.58622   1.37056    0.009
 5323.00    1.53862   1.37635    0.009
 5324.00    1.46811   1.38784    0.009
 5325.00    1.47427   1.41064    0.009
 5326.00    1.49791   1.43664    0.009
 5327.00    1.43686   1.45462    0.009
 5328.00    1.36036   1.46443    0.009
 5329.00    1.46191   1.47160    0.009
 5330.00    1.58843   1.47564    0.009
 5331.00    1.52758   1.47218    0.009
 5332.00    1.44783   1.46420    0.009
 5333.00    1.36055   1.45963    0.009
 5334.00    1.27278   1.45939    0.009
 5335.00    1.34287   1.45862    0.009
 5336.00    1.41774   1.45720    0.009
 5337.00    1.52877   1.45942    0.009
 5338.00    1.63713   1.46536    0.009
 5339.00    1.66892   1.46994    0.009
 5340.00    1.70132   1.47136    0.009
 5341.00    1.74252   1.47379    0.009
 5342.00    1.77202   1.48166    0.009
 5343.00    1.69197   1.49316    0.009
 5344.00    1.63477   1.50405    0.009
 5345.00    1.73345   1.51638    0.009
 5346.00    1.82478   1.53309    0.009
 5347.00    1.87730   1.55009    0.009
 5348.00    1.89409   1.56229    0.009
 5349.00    1.75922   1.57032    0.009
 5350.00    1.65112   1.57622    0.009
 5351.00    1.63692   1.57798    0.009
 5352.00    1.62948   1.57325    0.009
 5353.00    1.64197   1.56347    0.009
 5354.00    1.67057   1.55162    0.009
 5355.00    1.73965   1.53877    0.009
 5356.00    1.80258   1.52385    0.009
 5357.00    1.85220   1.50746    0.009
 5358.00    1.85967   1.49211    0.009
 5359.00    1.78795   1.47866    0.009
 5360.00    1.78264   1.46584    0.009
 5361.00    1.88626   1.45285    0.009
 5362.00    1.91222   1.44167    0.009
 5363.00    1.82647   1.43602    0.009
 5364.00    1.74956   1.43875    0.009
 5365.00    1.68383   1.44769    0.009
 5366.00    1.63175   1.45953    0.009
 5367.00    1.59489   1.47473    0.009
 5368.00    1.50178   1.49279   -2.000
 5369.00    1.35335   1.50964   -2.000
 5370.00    1.36742   1.52140   -2.000
 5371.00    1.52241   1.52723   -2.000
 5372.00    1.55912   1.52815   -2.000
 5373.00    1.50547   1.52673   -2.000
 5374.00    1.53140   1.52439   -2.000
 5375.00    1.61075   1.52083   -2.000
 5376.00    1.62288   1.51762   -2.000
 5377.00    1.59548   1.51569   -2.000
 5378.00    1.73783   1.51340   -2.000
 5379.00    1.96723   1.50989   -2.000
 5380.00    1.99184   1.50565   -2.000
 5381.00    1.92546   1.49936   -2.000
 5382.00    1.91389   1.49042   -2.000
 5383.00    1.92325   1.48028    0.009
 5384.00    1.89996   1.46900    0.009
 5385.00    1.86608   1.45690    0.009
 5386.00    1.90109   1.44655    0.009
 5387.00    1.95481   1.43811    0.009
 5388.00    1.82879   1.42890    0.009
 5389.00    1.66273   1.42174    0.009
 5390.00    1.62313   1.42166    0.009
 5391.00    1.60600   1.42420    0.009
 5392.00    1.52195   1.42273    0.009
 5393.00    1.42882   1.42092    0.009
 5394.00    1.40896   1.42267    0.009
 5395.00    1.39618   1.42056    0.009
 5396.00    1.53514   1.41015    0.009
 5397.00    1.68324   1.39817    0.009
 5398.00    1.64818   1.39099    0.009
 5399.00    1.60863   1.38774    0.009
 5400.00    1.61428   1.38569    0.009
 5401.00    1.61933   1.38608    0.009
 5402.00    1.60904   1.39368    0.009
 5403.00    1.59949   1.40981    0.009
 5404.00    1.59994   1.42808    0.009
 5405.00    1.59931   1.44328    0.009
 5406.00    1.58890   1.45765    0.009
 5407.00    1.57758   1.47412    0.009
 5408.00    1.56025   1.48985    0.009
 5409.00    1.55563   1.50056    0.009
 5410.00    1.61632   1.50607    0.009
 5411.00    1.64221   1.50846    0.009
 5412.00    1.52361   1.50894    0.009
 5413.00    1.46689   1.50830    0.009
 5414.00    1.62273   1.50678    0.009
 5415.00    1.72323   1.50250    0.009
 5416.00    1.66360   1.49616    0.009
 5417.00    1.61211   1.49232    0.009
 5418.00    1.58071   1.49152    0.009
 5419.00    1.59593   1.48845    0.009
 5420.00    1.71042   1.47932    0.009
 5421.00    1.75750   1.46722    0.009
 5422.00    1.67992   1.45909    0.009
 5423.00    1.65867   1.45423    0.009
 5424.00    1.72846   1.44521    0.009
 5425.00    1.79338   1.43455    0.009
 5426.00    1.85143   1.43211    0.009
 5427.00    1.82997   1.43838    0.009
 5428.00    1.70938   1.44706    0.009
 5429.00    1.64586   1.45845    0.009
 5430.00    1.64509   1.47501    0.009
 5431.00    1.65449   1.49401    0.009
 5432.00    1.67376   1.51104    0.009
 5433.00    1.65865   1.52332    0.009
 5434.00    1.61413   1.52964    0.009
 5435.00    1.62367   1.52953    0.009
 5436.00    1.67391   1.52295    0.009
 5437.00    1.67759   1.51014    0.009
 5438.00    1.65046   1.49339    0.009
 5439.00    1.69722   1.47931    0.009
 5440.00    1.78679   1.47216    0.009
 5441.00    1.82853   1.46813    0.009
 5442.00    1.84613   1.46414    0.009
 5443.00    1.75465   1.46249    0.009
 5444.00    1.61550   1.46451    0.009
 5445.00    1.60275   1.46580    0.009
 5446.00    1.63739   1.46229    0.008
 5447.00    1.61852   1.45558    0.008
 5448.00    1.58263   1.45276    0.008
 5449.00    1.64073   1.45594    0.008
 5450.00    1.72383   1.45908    0.009
 5451.00    1.73014   1.46011    0.009
 5452.00    1.71973   1.46357    0.009
 5453.00    1.71397   1.46951    0.009
 5454.00    1.70902   1.47155    0.009
 5455.00    1.59387   1.46978    0.009
 5456.00    1.46428   1.47051    0.009
 5457.00    1.64670   1.47329    0.009
 5458.00    1.85795   1.47348    0.009
 5459.00    1.81245   1.47386    0.009
 5460.00    1.75251   1.47736    0.009
 5461.00    1.80462   1.47873    0.009
 5462.00    1.85910   1.47518    0.009
 5463.00    1.89920   1.47087    0.009
 5464.00    1.93460   1.46480    0.008
 5465.00    1.85972   1.45389    0.009
 5466.00    1.79729   1.44309    0.009
 5467.00    1.89471   1.43517    0.009
 5468.00    1.95063   1.42474    0.009
 5469.00    1.64739   1.41455    0.009
 5470.00    1.39211   1.41352    0.009
 5471.00    1.44432   1.41811    0.009
 5472.00    1.51061   1.41996    0.009
 5473.00    1.64753   1.42273    0.009
 5474.00    1.74851   1.43241    0.009
 5475.00    1.70365   1.44378    0.009
 5476.00    1.67714   1.45205    0.009
 5477.00    1.71238   1.45936    0.009
 5478.00    1.70763   1.46625   -2.000
 5479.00    1.58930   1.47057   -2.000
 5480.00    1.64564   1.47399   -2.000
 5481.00    2.12600   1.47730   -2.000
 5482.00    2.49323   1.47804   -2.000
 5483.00    2.62343   1.47826   -2.000
 5484.00    2.38519   1.48016   -2.000
 5485.00    1.47599   1.48070   -2.000
 5486.00    0.67719   1.48000   -2.000
 5487.00    0.05415   1.48175   -2.000
 5488.00   -0.10968   1.48275   -2.000
 5489.00    0.36800   1.47915   -2.000
 5490.00    1.02941   1.47663   -2.000
 5491.00    1.91668   1.47809   -2.000
 5492.00    2.57082   1.47682   -2.000
 5493.00    2.97231   1.47058   -2.000
 5494.00    2.86005   1.46554   -2.000
 5495.00    2.25669   1.46362   -2.000
 5496.00    1.93182   1.46095   -2.000
 5497.00    1.84168   1.45592   -2.000
 5498.00    1.72907   1.45068   -2.000
 5499.00    1.59979   1.44848   -2.000
 5500.00    1.55578   1.44852   -2.000
 5501.00    1.56736   1.44675   -2.000
 5502.00    1.68448   1.44324    0.009
 5503.00    1.86183   1.44144    0.009
 5504.00    1.85789   1.44061    0.009
 5505.00    1.76387   1.43981    0.008
 5506.00    1.70296   1.44151    0.008
 5507.00    1.65627   1.44686    0.009
 5508.00    1.62136   1.45421    0.009
 5509.00    1.59077   1.46370    0.008
 5510.00    1.60495   1.47582    0.009
 5511.00    1.63310   1.48793    0.009
 5512.00    1.65148   1.49688    0.009
 5513.00    1.66731   1.50251    0.008
 5514.00    1.64354   1.50552    0.008
 5515.00    1.61137   1.50465    0.009
 5516.00    1.59810   1.49911    0.008
 5517.00    1.58801   1.49081    0.008
 5518.00    1.65160   1.48231    0.008
 5519.00    1.72451   1.47381    0.008
 5520.00    1.71313   1.46545    0.008
 5521.00    1.69432   1.46072    0.008
 5522.00    1.55953   1.46110    0.008
 5523.00    1.41868   1.46281    0.008
 5524.00    1.54013   1.46450    0.008
 5525.00    1.66623   1.46882    0.008
 5526.00    1.77399   1.47416    0.008
 5527.00    1.87133   1.47743    0.008
 5528.00    1.74455   1.48089    0.008
 5529.00    1.62422   1.48620    0.008
 5530.00    1.58248   1.49087    0.008
 5531.00    1.55874   1.49474    0.008
 5532.00    1.68497   1.49998    0.008
 5533.00    1.79439   1.50518    0.008
 5534.00    1.79926   1.50741    0.008
 5535.00    1.78063   1.50763    0.008
 5536.00    1.64720   1.50879    0.008
 5537.00    1.55366   1.51080    0.008
 5538.00    1.61843   1.51170    0.008
 5539.00    1.65584   1.51315    0.008
 5540.00    1.60296   1.51743    0.008
 5541.00    1.57773   1.52207    0.008
 5542.00    1.62966   1.52442    0.008
 5543.00    1.68742   1.52583    0.008
 5544.00    1.75911   1.52673    0.008
 5545.00    1.79510   1.52502    0.008
 5546.00    1.75751   1.52079    0.008
 5547.00    1.73488   1.51679    0.008
 5548.00    1.73906   1.51376    0.008
 5549.00    1.74576   1.51012    0.008
 5550.00    1.75643   1.50606    0.008
 5551.00    1.75187   1.50301    0.008
 5552.00    1.72637   1.50037    0.008
 5553.00    1.67265   1.49666    0.008
 5554.00    1.58474   1.49152    0.008
 5555.00    1.56419   1.48591    0.008
 5556.00    1.61561   1.48120    0.008
 5557.00    1.68264   1.47656    0.008
 5558.00    1.76438   1.47091    0.008
 5559.00    1.78321   1.46707    0.008
 5560.00    1.74977   1.46615    0.008
 5561.00    1.73918   1.46424    0.008
 5562.00    1.74530   1.46256    0.008
 5563.00    1.75890   1.46522    0.008
 5564.00    1.77731   1.46811    0.008
 5565.00    1.75823   1.46838    0.008
 5566.00    1.71809   1.47194    0.008
 5567.00    1.71218   1.47861    0.008
 5568.00    1.72302   1.48231    0.008
 5569.00    1.70000   1.48537    0.008
 5570.00    1.66269   1.49043    0.008
 5571.00    1.70544   1.49341    0.008
 5572.00    1.77717   1.49362    0.008
 5573.00    1.73266   1.49245    0.008
 5574.00    1.65258   1.48766    0.008
 5575.00    1.64590   1.47912    0.008
 5576.00    1.65791   1.46868    0.008
 5577.00    1.66062   1.45577    0.008
 5578.00    1.66140   1.44053    0.008
 5579.00    1.65868   1.42591    0.008
 5580.00    1.65538   1.41425    0.008
 5581.00    1.66196   1.40630    0.008
 5582.00    1.66974   1.40239    0.008
 5583.00    1.74523   1.40292    0.008
 5584.00    1.82641   1.40817    0.008
 5585.00    1.65225   1.41634    0.008
 5586.00    1.46573   1.42385    0.008
 5587.00    1.51689   1.42999    0.008
 5588.00    1.57016   1.43687    0.008
 5589.00    1.53781   1.44181    0.008
 5590.00    1.50558   1.44068    0.008
 5591.00    1.47578   1.43764    0.008
 5592.00    1.45908   1.43753    0.008
 5593.00    1.59445   1.43813    0.009
 5594.00    1.70680   1.43834    0.009
 5595.00    1.63421   1.44268    0.009
 5596.00    1.57960   1.45306    0.009
 5597.00    1.63361   1.46666    0.009
 5598.00    1.66929   1.48050    0.009
 5599.00    1.61761   1.49392    0.009
 5600.00    1.60242   1.50636    0.009
 5601.00    1.72896   1.51562    0.009
 5602.00    1.78944   1.51992    0.009
 5603.00    1.63616   1.51829    0.009
 5604.00    1.52886   1.51139    0.009
 5605.00    1.54752   1.50255    0.009
 5606.00    1.59709   1.49239    0.008
 5607.00    1.71922   1.47869    0.008
 5608.00    1.78773   1.46509    0.008
 5609.00    1.74746   1.45807    0.008
 5610.00    1.70709   1.45559    0.008
 5611.00    1.66655   1.45311    0.008
 5612.00    1.66636   1.45234    0.008
 5613.00    1.72849   1.45425    0.008
 5614.00    1.69961   1.45672    0.008
 5615.00    1.54723   1.45824    0.008
 5616.00    1.50768   1.45770    0.008
 5617.00    1.60292   1.45688    0.008
 5618.00    1.68064   1.45992    0.008
 5619.00    1.73988   1.46569    0.008
 5620.00    1.71621   1.47086    0.008
 5621.00    1.61549   1.47732    0.008
 5622.00    1.55001   1.48599    0.008
 5623.00    1.51340   1.49294    0.008
 5624.00    1.50964   1.49643    0.008
 5625.00    1.52957   1.49730    0.008
 5626.00    1.54293   1.49515    0.008
 5627.00    1.55213   1.49057    0.008
 5628.00    1.51150   1.48502    0.008
 5629.00    1.44329   1.47808    0.008
 5630.00    1.60549   1.47053    0.008
 5631.00    1.87855   1.46571    0.008
 5632.00    1.87868   1.46333    0.008
 5633.00    1.76543   1.46083    0.008
 5634.00    1.64772   1.45986    0.008
 5635.00    1.52843   1.46260    0.008
 5636.00    1.57977   1.46661    0.008
 5637.00    1.68230   1.47007    0.008
 5638.00    1.71050   1.47440    0.008
 5639.00    1.72019   1.47940    0.008
 5640.00    1.74408   1.48387    0.008
 5641.00    1.77084   1.48743    0.008
 5642.00    1.73138   1.48956    0.008
 5643.00    1.68143   1.48967    0.008
 5644.00    1.67059   1.48835    0.008
 5645.00    1.66435   1.48624    0.008
 5646.00    1.63804   1.48068    0.008
 5647.00    1.61012   1.46994    0.008
 5648.00    1.57708   1.45957    0.008
 5649.00    1.54381   1.45259    0.008
 5650.00    1.61027   1.44265    0.008
 5651.00    1.67464   1.43052    0.008
 5652.00    1.58205   1.42653    0.008
 5653.00    1.49644   1.42937    0.008
 5654.00    1.53961   1.43021    0.008
 5655.00    1.58708   1.43162    0.008
 5656.00    1.68217   1.43854    0.008
 5657.00    1.76134   1.44698    0.008
 5658.00    1.71704   1.45293    0.008
 5659.00    1.67812   1.45804    0.008
 5660.00    1.67075   1.46358    0.008
 5661.00    1.65890   1.46983    0.008
 5662.00    1.62620   1.47694    0.008
 5663.00    1.57634   1.48390    0.008
 5664.00    1.46123   1.49068    0.008
 5665.00    1.38259   1.49893    0.008
 5666.00    1.41967   1.50750    0.008
 5667.00    1.50123   1.51275    0.008
 5668.00    1.70247   1.51492    0.008
 5669.00    1.81637   1.51693    0.008
 5670.00    1.72874   1.51705    0.008
 5671.00    1.64841   1.51210    0.008
 5672.00    1.58264   1.50516    0.008
 5673.00    1.54036   1.49958    0.008
 5674.00    1.53894   1.49308    0.008
 5675.00    1.55248   1.48418    0.008
 5676.00    1.58880   1.47701    0.008
 5677.00    1.59520   1.47337    0.008
 5678.00    1.56157   1.47121    0.008
 5679.00    1.54460   1.46989    0.008
 5680.00    1.54724   1.47084    0.008
 5681.00    1.59663   1.47505    0.008
 5682.00    1.69457   1.48154    0.008
 5683.00    1.76039   1.48825    0.008
 5684.00    1.79678   1.49433    0.008
 5685.00    1.71310   1.50080    0.008
 5686.00    1.53246   1.50543    0.008
 5687.00    1.47571   1.50567    0.008
 5688.00    1.50700   1.50362    0.008
 5689.00    1.58163   1.50076    0.008
 5690.00    1.68328   1.49460    0.008
 5691.00    1.70821   1.48523    0.008
 5692.00    1.69135   1.47750    0.008
 5693.00    1.69481   1.47098    0.008
 5694.00    1.70790   1.46240    0.008
 5695.00    1.70074   1.45417    0.008
 5696.00    1.68532   1.44863    0.008
 5697.00    1.65722   1.44285    0.008
 5698.00    1.62470   1.43463    0.008
 5699.00    1.58211   1.42699    0.008
 5700.00    1.53657   1.42195    0.008
 5701.00    1.58746   1.41715    0.008
 5702.00    1.66184   1.41473    0.008
 5703.00    1.65764   1.41885    0.008
 5704.00    1.63797   1.42557    0.008
 5705.00    1.61641   1.43429    0.008
 5706.00    1.59456   1.44866    0.008
 5707.00    1.62750   1.46380    0.008
 5708.00    1.66665   1.47691    0.008
 5709.00    1.66991   1.49073    0.008
 5710.00    1.67045   1.50320    0.008
 5711.00    1.64337   1.51282    0.008
 5712.00    1.61518   1.52159    0.008
 5713.00    1.61949   1.52836    0.008
 5714.00    1.62357   1.53267    0.008
 5715.00    1.60701   1.53581    0.008
 5716.00    1.59914   1.53627    0.008
 5717.00    1.74049   1.53413    0.017
 5718.00    1.86621   1.53211   -1.000
 5719.00    1.82660   1.52907   -1.000
 5720.00    1.78598   1.52374   -1.000
 5721.00    1.73784   1.52047   -1.000
 5722.00    1.70074   1.52053   -1.000
 5723.00    1.72660   1.52005   -1.000
 5724.00    1.75260   1.51880   -1.000
 5725.00    1.77922   1.52057   -1.000
 5726.00    1.80427   1.52433    0.073
 5727.00    1.82350   1.52641    0.013
 5728.00    1.82655   1.52768    0.008
 5729.00    1.77920   1.52900    0.008
 5730.00    1.73083   1.52960    0.008
 5731.00    1.67975   1.52953    0.008
 5732.00    1.65817   1.52879    0.008
 5733.00    1.70354   1.52780    0.008
 5734.00    1.71919   1.52754    0.008
 5735.00    1.67644   1.52767    0.008
 5736.00    1.65249   1.52716    0.008
 5737.00    1.66073   1.52652    0.008
 5738.00    1.67889   1.52625    0.008
 5739.00    1.71195   1.52557    0.008
 5740.00    1.73599   1.52276    0.000
 5741.00    1.74813   1.51859    0.000
 5742.00    1.72909   1.51544    0.000
 5743.00    1.67385   1.51224    0.000
 5744.00    1.67792   1.50812    0.000
 5745.00    1.74274   1.50489    0.000
 5746.00    1.73526   1.50321    0.000
 5747.00    1.66246   1.50275    0.000
 5748.00    1.65882   1.50424    0.000
 5749.00    1.71025   1.50640    0.000
 5750.00    1.76488   1.50753    0.000
 5751.00    1.82175   1.50783    0.000
 5752.00    1.78975   1.50704    0.000
 5753.00    1.70316   1.50579    0.000
 5754.00    1.68040   1.50560    0.000
 5755.00    1.69188   1.50592    0.000
 5756.00    1.66392   1.50778    0.000
 5757.00    1.61758   1.51335    0.000
 5758.00    1.65682   1.51966    0.000
 5759.00    1.73041   1.52454    0.000
 5760.00    1.70595   1.52936    0.000
 5761.00    1.64792   1.53310    0.000
 5762.00    1.63458   1.53407    0.000
 5763.00    1.63411   1.53350    0.000
 5764.00    1.68852   1.53160    0.000
 5765.00    1.75599   1.52828    0.000
 5766.00    1.74232   1.52496    0.000
 5767.00    1.71307   1.52060    0.000
 5768.00    1.81165   1.51473    0.000
 5769.00    1.92928   1.50844    0.000
 5770.00    1.87983   1.50005    0.000
 5771.00    1.81219   1.48901    0.000
 5772.00    1.76328   1.47816    0.000
 5773.00    1.71571   1.46750    0.000
 5774.00    1.70950   1.45599    0.000
 5775.00    1.70481   1.44765    0.000
 5776.00    1.79751   1.44508    0.000
 5777.00    1.88776   1.44497    0.000
 5778.00    1.87580   1.44660    0.000
 5779.00    1.85985   1.45361    0.000
 5780.00    1.77978   1.46307    0.000
 5781.00    1.70044   1.47129    0.000
 5782.00    1.62838   1.48075    0.000
 5783.00    1.56626   1.48996    0.000
 5784.00    1.57618   1.49690    0.000
 5785.00    1.58114   1.50423    0.000
 5786.00    1.55860   1.51101    0.000
 5787.00    1.54878   1.51503    0.000
 5788.00    1.59541   1.51916    0.000
 5789.00    1.64327   1.52463    0.000
 5790.00    1.69561   1.52801    0.000
 5791.00    1.73121   1.53041   -2.000
 5792.00    1.71571   1.53503   -2.000
 5793.00    1.66924   1.53859   -2.000
 5794.00    1.54237   1.53893   -2.000
 5795.00    1.47445   1.53925   -2.000
 5796.00    1.53811   1.53938   -2.000
 5797.00    1.61349   1.53722   -2.000
 5798.00    1.71158   1.53470   -2.000
 5799.00    1.76153   1.53358   -2.000
 5800.00    1.73028   1.53310   -2.000
 5801.00    1.71934   1.53271   -2.000
 5802.00    1.73843   1.53271   -2.000
 5803.00    1.73783   1.53328   -2.000
 5804.00    1.71164   1.53350   -2.000
 5805.00    1.67411   1.53252   -2.000
 5806.00    1.62359   1.53119   -2.000
 5807.00    1.61225   1.53094   -2.000
 5808.00    1.64048   1.53140   -2.000
 5809.00    1.64722   1.53189   -2.000
 5810.00    1.63483   1.53422   -2.000
 5811.00    1.62584   1.53860    0.000
 5812.00    1.61952   1.54257    0.000
 5813.00    1.61387   1.54595    0.000
 5814.00    1.60867   1.54987    0.000
 5815.00    1.65689   1.55329    0.000
 5816.00    1.73744   1.55507    0.000
 5817.00    1.71546   1.55633    0.000
 5818.00    1.63933   1.55782    0.000
 5819.00    1.60185   1.55895    0.000
 5820.00    1.58208   1.55932    0.000
 5821.00    1.62145   1.55921    0.000
 5822.00    1.68415   1.55935    0.000
 5823.00    1.72509   1.55905    0.000
 5824.00    1.75871   1.55707    0.000
 5825.00    1.80148   1.55496    0.000
 5826.00    1.84684   1.55418    0.000
 5827.00    1.87770   1.55268    0.000
 5828.00    1.90519   1.55038    0.000
 5829.00    1.83960   1.55034    0.000
 5830.00    1.75661   1.55179    0.000
 5831.00    1.75308   1.55226    0.000
 5832.00    1.76102   1.55316    0.000
 5833.00    1.78446   1.55519    0.000
 5834.00    1.80952   1.55590    0.000
 5835.00    1.77731   1.55482    0.000
 5836.00    1.74123   1.55278    0.000
 5837.00    1.71777   1.54905    0.000
 5838.00    1.69473   1.54383    0.000
 5839.00    1.61754   1.53756    0.000
 5840.00    1.54327   1.53015    0.000
 5841.00    1.56237   1.52242    0.000
 5842.00    1.58923   1.51431    0.000
 5843.00    1.73336   1.50500    0.000
 5844.00    1.86803   1.49631    0.000
 5845.00    1.91075   1.48898    0.000
 5846.00    1.93349   1.48073    0.000
 5847.00    1.81609   1.47249    0.000
 5848.00    1.71148   1.46764    0.000
 5849.00    1.67604   1.46507    0.000
 5850.00    1.64585   1.46289    0.000
 5851.00    1.63841   1.46354    0.000
 5852.00    1.63317   1.46689    0.000
 5853.00    1.63580   1.47081    0.000
 5854.00    1.61708   1.47581    0.000
 5855.00    1.53437   1.48145    0.000
 5856.00    1.48358   1.48595    0.000
 5857.00    1.51423   1.49045    0.000
 5858.00    1.54070   1.49581    0.000
 5859.00    1.55802   1.49982    0.000
 5860.00    1.56086   1.50306    0.000
 5861.00    1.53613   1.50738    0.000
 5862.00    1.52577   1.51090    0.000
 5863.00    1.53929   1.51242    0.000
 5864.00    1.55222   1.51354    0.000
 5865.00    1.56428   1.51382    0.000
 5866.00    1.56437   1.51168    0.000
 5867.00    1.54914   1.50838    0.000
 5868.00    1.52444   1.50515    0.000
 5869.00    1.48906   1.50060    0.000
 5870.00    1.51012   1.49472    0.000
 5871.00    1.58737   1.48978    0.000
 5872.00    1.58244   1.48524    0.000
 5873.00    1.50537   1.47836    0.000
 5874.00    1.47931   1.47011    0.000
 5875.00    1.49273   1.46120    0.000
 5876.00    1.54501   1.44721    0.000
 5877.00    1.62374   1.42772    0.000
 5878.00    1.60208   1.40584    0.000
 5879.00    1.52059   1.37777    0.000
 5880.00    1.49472   1.34502    0.000
 5881.00    1.49778   1.31766    0.000
 5882.00    1.45930   1.29249    0.000
 5883.00    1.40211   1.26777    0.000
 5884.00    1.37815   1.25556    0.000
 5885.00    1.36708   1.25194    0.000
 5886.00    1.41546   1.24857    0.000
 5887.00    1.48344   1.25596    0.000
 5888.00    1.51617   1.27301    0.000
 5889.00    1.53916   1.28793    0.000
 5890.00    1.49060   1.30812    0.000
 5891.00    1.42578   1.33682    0.000
 5892.00    1.37683   1.36196    0.000
 5893.00    1.33076   1.38461    0.000
 5894.00    1.36085   1.41002    0.000
 5895.00    1.40157   1.43088    0.000
 5896.00    1.45001   1.44477    0.000
 5897.00    1.49922   1.45690    0.000
 5898.00    1.46271   1.46658    0.000
 5899.00    1.42074   1.47181    0.000
 5900.00    1.52872   1.47485    0.000
 5901.00    1.64053   1.47730    0.007
 5902.00    1.55345   1.47807    0.007
 5903.00    1.47012   1.47638    0.007
 5904.00    1.49227   1.47391    0.007
 5905.00    1.51164   1.47180    0.007
 5906.00    1.49145   1.46886    0.007
 5907.00    1.47212   1.46617    0.007
 5908.00    1.46084   1.46541    0.007
 5909.00    1.44997   1.46595    0.007
 5910.00    1.44185   1.46781    0.007
 5911.00    1.44886   1.47106    0.007
 5912.00    1.53542   1.47440    0.007
 5913.00    1.60640   1.47803    0.007
 5914.00    1.61138   1.48189    0.007
 5915.00    1.61725   1.48415    0.007
 5916.00    1.62617   1.48539    0.007
 5917.00    1.64850   1.48643    0.007
 5918.00    1.71025   1.48621    0.007
 5919.00    1.73948   1.48501    0.007
 5920.00    1.68718   1.48344    0.007
 5921.00    1.65187   1.48165    0.007
 5922.00    1.65326   1.48044    0.007
 5923.00    1.63549   1.47974    0.007
 5924.00    1.58179   1.47897    0.007
 5925.00    1.55479   1.47941    0.007
 5926.00    1.57152   1.48136    0.007
 5927.00    1.61529   1.48265    0.007
 5928.00    1.69788   1.48351    0.007
 5929.00    1.72902   1.48586    0.007
 5930.00    1.69517   1.48799    0.007
 5931.00    1.67491   1.48788    0.007
 5932.00    1.66977   1.48817    0.007
 5933.00    1.62840   1.48955    0.007
 5934.00    1.55145   1.48928    0.007
 5935.00    1.51362   1.48844    0.007
 5936.00    1.50965   1.48885    0.007
 5937.00    1.52586   1.48884    0.007
 5938.00    1.55745   1.48758    0.007
 5939.00    1.55472   1.48584    0.007
 5940.00    1.52898   1.48402    0.007
 5941.00    1.53469   1.48215    0.007
 5942.00    1.55886   1.47929    0.007
 5943.00    1.58648   1.47608    0.007
 5944.00    1.61587   1.47480    0.007
 5945.00    1.63041   1.47426    0.007
 5946.00    1.63836   1.47273    0.007
 5947.00    1.64071   1.47282    0.007
 5948.00    1.64093   1.47550    0.007
 5949.00    1.60525   1.47790    0.007
 5950.00    1.55796   1.48039    0.007
 5951.00    1.52515   1.48520    0.007
 5952.00    1.49625   1.49050    0.007
 5953.00    1.51215   1.49466    0.007
 5954.00    1.53800   1.49907    0.007
 5955.00    1.49247   1.50324    0.007
 5956.00    1.43431   1.50578    0.007
 5957.00    1.51225   1.50807    0.007
 5958.00    1.60858   1.51056    0.007
 5959.00    1.63594   1.51187    0.007
 5960.00    1.65667   1.51320    0.007
 5961.00    1.59571   1.51531    0.007
 5962.00    1.52989   1.51594    0.007
 5963.00    1.56372   1.51527    0.007
 5964.00    1.59962   1.51437    0.007
 5965.00    1.55958   1.51161    0.007
 5966.00    1.52102   1.50696    0.007
 5967.00    1.51992   1.50228    0.007
 5968.00    1.52228   1.49740    0.007
 5969.00    1.57121   1.49221    0.007
 5970.00    1.61381   1.48820    0.007
 5971.00    1.59969   1.48506    0.007
 5972.00    1.58889   1.48210    0.007
 5973.00    1.59986   1.48004    0.007
 5974.00    1.60761   1.47790    0.007
 5975.00    1.59887   1.47550    0.007
 5976.00    1.59632   1.47474    0.007
 5977.00    1.61945   1.47443    0.007
 5978.00    1.63842   1.47399    0.007
 5979.00    1.64318   1.47628    0.007
 5980.00    1.64421   1.48015    0.007
 5981.00    1.63445   1.48313    0.007
 5982.00    1.62498   1.48695    0.007
 5983.00    1.61618   1.49195    0.007
 5984.00    1.60230   1.49559    0.007
 5985.00    1.57764   1.49754    0.007
 5986.00    1.57176   1.49930    0.007
 5987.00    1.60055   1.50021    0.007
 5988.00    1.61768   1.49905    0.007
 5989.00    1.61600   1.49719    0.007
 5990.00    1.61081   1.49505    0.007
 5991.00    1.60065   1.49227    0.007
 5992.00    1.59779   1.48949    0.007
 5993.00    1.60401   1.48629    0.007
 5994.00    1.61993   1.48328    0.007
 5995.00    1.64651   1.48082    0.007
 5996.00    1.65136   1.47736    0.007
 5997.00    1.63517   1.47431    0.007
 5998.00    1.62624   1.47236    0.007
 5999.00    1.62350   1.46971    0.007
 6000.00    1.62940   1.46828    0.007
 6001.00    1.64181   1.46834    0.007
 6002.00    1.60611   1.46798    0.007
 6003.00    1.53865   1.46841    0.007
 6004.00    1.55594   1.46918    0.007
 6005.00    1.62224   1.46935    0.007
 6006.00    1.63775   1.46923    0.007
 6007.00    1.62768   1.46791    0.007
 6008.00    1.62559   1.46693    0.007
 6009.00    1.62697   1.46648    0.007
 6010.00    1.60906   1.46423    0.007
 6011.00    1.58392   1.46278    0.007
 6012.00    1.55856   1.46390    0.007
 6013.00    1.53313   1.46468    0.007
 6014.00    1.49359   1.46563    0.007
 6015.00    1.45031   1.46918    0.007
 6016.00    1.47823   1.47452    0.007
 6017.00    1.52160   1.47945    0.007
 6018.00    1.52913   1.48468    0.007
 6019.00    1.53050   1.49203    0.007
 6020.00    1.49511   1.49886    0.007
 6021.00    1.45492   1.50384    0.007
 6022.00    1.48588   1.50974    0.007
 6023.00    1.52338   1.51549    0.007
 6024.00    1.59007   1.51912    0.007
 6025.00    1.65840   1.52220    0.007
 6026.00    1.68690   1.52526    0.007
 6027.00    1.71394   1.52695    0.007
 6028.00    1.68288   1.52756    0.007
 6029.00    1.65327   1.52801    0.007
 6030.00    1.65744   1.52784    0.007
 6031.00    1.65906   1.52756    0.007
 6032.00    1.62818   1.52765    0.007
 6033.00    1.60082   1.52764    0.007
 6034.00    1.60376   1.52874    0.007
 6035.00    1.61246   1.53075    0.007
 6036.00    1.65795   1.53232    0.007
 6037.00    1.69062   1.53469    0.007
 6038.00    1.65921   1.53736    0.007
 6039.00    1.62728   1.53857    0.007
 6040.00    1.59325   1.53921    0.007
 6041.00    1.56485   1.53945    0.007
 6042.00    1.55534   1.53807    0.007
 6043.00    1.55015   1.53536    0.007
 6044.00    1.55718   1.53230    0.007
 6045.00    1.56894   1.52898    0.007
 6046.00    1.59216   1.52508    0.007
 6047.00    1.62673   1.52142    0.007
 6048.00    1.68502   1.51908    0.007
 6049.00    1.72550   1.51709    0.007
 6050.00    1.73361   1.51516    0.007
 6051.00    1.71925   1.51426    0.007
 6052.00    1.66918   1.51310    0.007
 6053.00    1.63188   1.51089    0.007
 6054.00    1.61236   1.50942    0.007
 6055.00    1.58642   1.50817    0.007
 6056.00    1.55260   1.50623    0.007
 6057.00    1.55073   1.50710    0.007
 6058.00    1.58344   1.51071    0.007
 6059.00    1.61620   1.51394    0.007
 6060.00    1.64901   1.51983    0.007
 6061.00    1.67420   1.52800    0.007
 6062.00    1.69298   1.53401    0.007
 6063.00    1.69693   1.53906    0.007
 6064.00    1.68990   1.54339    0.007
 6065.00    1.64526   1.54474    0.007
 6066.00    1.57617   1.54314    0.007
 6067.00    1.54027   1.53982    0.007
 6068.00    1.52327   1.53506    0.007
 6069.00    1.52202   1.52789    0.007
 6070.00    1.52858   1.52028    0.007
 6071.00    1.54339   1.51416    0.007
 6072.00    1.56173   1.50696    0.007
 6073.00    1.54538   1.50025    0.007
 6074.00    1.51629   1.49716    0.007
 6075.00    1.53113   1.49423    0.007
 6076.00    1.55965   1.49108    0.007
 6077.00    1.58268   1.49068    0.007
 6078.00    1.60429   1.49082    0.007
 6079.00    1.59234   1.49041    0.007
 6080.00    1.57329   1.49053    0.007
 6081.00    1.54619   1.49055    0.007
 6082.00    1.51775   1.49158    0.007
 6083.00    1.49188   1.49295    0.007
 6084.00    1.46635   1.49334    0.007
 6085.00    1.44716   1.49574    0.007
 6086.00    1.42853   1.49925    0.007
 6087.00    1.43100   1.50026    0.007
 6088.00    1.43456   1.50122    0.007
 6089.00    1.46219   1.50256    0.007
 6090.00    1.48954   1.49978    0.007
 6091.00    1.46462   1.49546    0.007
 6092.00    1.44157   1.49229    0.006
 6093.00    1.45829   1.48571    0.006
 6094.00    1.47580   1.47995    0.007
 6095.00    1.50295   1.47926    0.007
 6096.00    1.52496   1.47702    0.007
 6097.00    1.50429   1.47714    0.007
 6098.00    1.48575   1.48315    0.007
 6099.00    1.48032   1.48739    0.007
 6100.00    1.48076   1.49227    0.007
 6101.00    1.50976   1.49906    0.007
 6102.00    1.54482   1.50278    0.007
 6103.00    1.60386   1.50658    0.007
 6104.00    1.64880   1.51009    0.007
 6105.00    1.64731   1.51066    0.007
 6106.00    1.63294   1.51078    0.007
 6107.00    1.58269   1.50894    0.007
 6108.00    1.55148   1.50558    0.007
 6109.00    1.56557   1.50159    0.007
 6110.00    1.55336   1.49381    0.007
 6111.00    1.48703   1.48700    0.007
 6112.00    1.43881   1.48203    0.007
 6113.00    1.42299   1.47389    0.007
 6114.00    1.44664   1.46986    0.007
 6115.00    1.53209   1.47045    0.006
 6116.00    1.59472   1.46845    0.006
 6117.00    1.62597   1.47028    0.006
 6118.00    1.62014   1.47618    0.007
 6119.00    1.56947   1.47864    0.007
 6120.00    1.52688   1.48131    0.007
 6121.00    1.49291   1.48538    0.007
 6122.00    1.47205   1.48538    0.007
 6123.00    1.46353   1.48275    0.007
 6124.00    1.46669   1.47898    0.007
 6125.00    1.47952   1.47106    0.007
 6126.00    1.53271   1.46159    0.007
 6127.00    1.61535   1.45239    0.007
 6128.00    1.62968   1.44200    0.007
 6129.00    1.60021   1.43542    0.007
 6130.00    1.57222   1.43396    0.007
 6131.00    1.54504   1.43445    0.007
 6132.00    1.50129   1.43872    0.007
 6133.00    1.44944   1.44723    0.007
 6134.00    1.41753   1.45718    0.007
 6135.00    1.39402   1.46607    0.007
 6136.00    1.40664   1.47369    0.007
 6137.00    1.43229   1.48088    0.007
 6138.00    1.43984   1.48531    0.007
 6139.00    1.44187   1.48628    0.007
 6140.00    1.43833   1.48656    0.007
 6141.00    1.43339   1.48620    0.007
 6142.00    1.40670   1.48384    0.007
 6143.00    1.37552   1.48135    0.007
 6144.00    1.41957   1.47992    0.007
 6145.00    1.47584   1.47652    0.006
 6146.00    1.54071   1.47139    0.007
 6147.00    1.60663   1.46662    0.007
 6148.00    1.57057   1.45844    0.007
 6149.00    1.52599   1.44621    0.006
 6150.00    1.48240   1.43388    0.006
 6151.00    1.43885   1.41995    0.006
 6152.00    1.42071   1.40363    0.006
 6153.00    1.40359   1.38959    0.006
 6154.00    1.42389   1.37878    0.007
 6155.00    1.44556   1.37046    0.007
 6156.00    1.49433   1.36641    0.007
 6157.00    1.53830   1.36542    0.007
 6158.00    1.52686   1.36772    0.007
 6159.00    1.51345   1.37315    0.007
 6160.00    1.48420   1.37706    0.007
 6161.00    1.45569   1.38179    0.007
 6162.00    1.43164   1.38992    0.007
 6163.00    1.41283   1.39595    0.007
 6164.00    1.41887   1.40092    0.007
 6165.00    1.43072   1.40929    0.007
 6166.00    1.46504   1.41747    0.007
 6167.00    1.48534   1.42322    0.007
 6168.00    1.46042   1.42967    0.007
 6169.00    1.44933   1.43716    0.006
 6170.00    1.47604   1.44266    0.006
 6171.00    1.50732   1.44616    0.006
 6172.00    1.54930   1.45060    0.006
 6173.00    1.57100   1.45392    0.006
 6174.00    1.55163   1.45342    0.006
 6175.00    1.53527   1.45236    0.006
 6176.00    1.52422   1.45012    0.006
 6177.00    1.52286   1.44411    0.006
 6178.00    1.53645   1.43730    0.006
 6179.00    1.53479   1.42968    0.006
 6180.00    1.51250   1.42133    0.006
 6181.00    1.47530   1.41517    0.006
 6182.00    1.42033   1.40928    0.006
 6183.00    1.38722   1.40611    0.006
 6184.00    1.37713   1.40804    0.006
 6185.00    1.40799   1.40995    0.007
 6186.00    1.47686   1.41386    0.007
 6187.00    1.51289   1.42103    0.007
 6188.00    1.52207   1.42632    0.007
 6189.00    1.49147   1.43098    0.007
 6190.00    1.43224   1.43573    0.007
 6191.00    1.37508   1.43885    0.007
 6192.00    1.31921   1.44201    0.007
 6193.00    1.33730   1.44514    0.007
 6194.00    1.39623   1.44808    0.007
 6195.00    1.54041   1.45175    0.007
 6196.00    1.72553   1.45510   -2.000
 6197.00    1.44761   1.45772   -2.000
 6198.00    0.97775   1.45903   -2.000
 6199.00    0.41774   1.45838   -2.000
 6200.00   -0.17424   1.45609   -2.000
 6201.00   -0.18121   1.45072   -2.000
 6202.00   -0.01310   1.44304   -2.000
 6203.00    0.66434   1.43477   -2.000
 6204.00    1.46828   1.42415   -2.000
 6205.00    1.77910   1.41350   -2.000
 6206.00    1.99063   1.40507   -2.000
 6207.00    1.82741   1.39639   -2.000
 6208.00    1.60508   1.39019    0.007
 6209.00    1.45267   1.38749    0.007
 6210.00    1.30845   1.38506    0.007
 6211.00    1.31297   1.38507    0.007
 6212.00    1.32930   1.38715    0.007
 6213.00    1.38203   1.38877    0.007
 6214.00    1.43636   1.39132    0.007
 6215.00    1.47852   1.39337    0.007
 6216.00    1.51946   1.39435    0.006
 6217.00    1.50870   1.39483    0.007
 6218.00    1.49651   1.39264    0.007
 6219.00    1.45836   1.38963    0.007
 6220.00    1.42480   1.38699    0.006
 6221.00    1.44170   1.38235    0.006
 6222.00    1.46012   1.37915    0.006
 6223.00    1.49030   1.37927    0.006
 6224.00    1.51532   1.37903    0.006
 6225.00    1.51017   1.38075    0.006
 6226.00    1.49855   1.38527    0.006
 6227.00    1.45690   1.38790    0.006
 6228.00    1.42438   1.38920    0.006
 6229.00    1.42649   1.39022    0.006
 6230.00    1.43037   1.38862    0.006
 6231.00    1.43987   1.38407    0.006
 6232.00    1.45172   1.37979    0.006
 6233.00    1.46989   1.37597    0.006
 6234.00    1.47313   1.37039    0.006
 6235.00    1.44198   1.36759    0.006
 6236.00    1.41617   1.36796    0.006
 6237.00    1.40096   1.36694    0.006
 6238.00    1.39684   1.36859    0.006
 6239.00    1.41197   1.37262    0.006
 6240.00    1.44213   1.37359    0.006
 6241.00    1.49513   1.37433    0.007
 6242.00    1.52815   1.37499    0.007
 6243.00    1.53449   1.37164    0.007
 6244.00    1.50768   1.36698    0.006
 6245.00    1.44190   1.36257    0.006
 6246.00    1.40192   1.35673    0.007
 6247.00    1.38869   1.35163    0.007
 6248.00    1.36614   1.34952    0.007
 6249.00    1.33506   1.34905    0.006
 6250.00    1.30187   1.35060    0.006
 6251.00    1.26697   1.35635    0.006
 6252.00    1.24967   1.36347    0.006
 6253.00    1.24486   1.37092    0.006
 6254.00    1.26307   1.38082    0.006
 6255.00    1.29561   1.38961    0.006
 6256.00    1.29774   1.39614    0.006
 6257.00    1.28332   1.40305    0.006
 6258.00    1.28261   1.40845    0.006
 6259.00    1.28837   1.41133    0.007
 6260.00    1.19585   1.41433    0.007
 6261.00    1.06327   1.41742    0.008
 6262.00    0.97527   1.41912    0.008
 6263.00    0.90276   1.42086    0.008
 6264.00    0.97612   1.42316    0.008
 6265.00    1.09225   1.42425    0.008
 6266.00    1.34960   1.42463    0.008
 6267.00    1.64126   1.42501    0.007
 6268.00    1.65941   1.42380    0.007
 6269.00    1.62388   1.42197    0.007
 6270.00    1.50723   1.42071    0.007
 6271.00    1.37816   1.41866    0.006
 6272.00    1.35504   1.41774    0.006
 6273.00    1.34386   1.41876    0.007
 6274.00    1.33118   1.42006    0.006
 6275.00    1.31839   1.42360    0.006
 6276.00    1.34005   1.42841    0.006
 6277.00    1.36309   1.43301    0.006
 6278.00    1.36038   1.43849    0.006
 6279.00    1.35736   1.44270    0.006
 6280.00    1.34906   1.44563    0.000
 6281.00    1.34091   1.44748    0.000
 6282.00    1.33524   1.44680    0.000
 6283.00    1.33082   1.44504    0.000
 6284.00    1.33951   1.44173    0.000
 6285.00    1.35422   1.43682    0.000
 6286.00    1.41379   1.43198    0.000
 6287.00    1.46750   1.42633    0.000
 6288.00    1.48780   1.42066    0.000
 6289.00    1.50130   1.41617    0.000
 6290.00    1.48401   1.41200    0.000
 6291.00    1.47212   1.40906    0.000
 6292.00    1.48023   1.40814    0.000
 6293.00    1.47599   1.40862    0.000
 6294.00    1.43342   1.41071    0.000
 6295.00    1.40128   1.41465    0.000
 6296.00    1.39667   1.41964    0.000
 6297.00    1.39352   1.42494    0.000
 6298.00    1.39366   1.43046    0.000
 6299.00    1.39314   1.43506    0.000
 6300.00    1.39131   1.43771    0.000
 6301.00    1.39698   1.43891    0.000
 6302.00    1.41547   1.43848    0.000
 6303.00    1.42317   1.43531    0.000
 6304.00    1.41468   1.43089    0.000
 6305.00    1.41041   1.42653    0.000
 6306.00    1.41170   1.42072    0.000
 6307.00    1.42509   1.41548    0.000
 6308.00    1.45251   1.41257    0.000
 6309.00    1.47870   1.40990    0.000
 6310.00    1.50365   1.40955    0.000
 6311.00    1.49212   1.41230    0.000
 6312.00    1.44771   1.41578    0.000
 6313.00    1.39966   1.42110    0.000
 6314.00    1.34871   1.42818    0.000
 6315.00    1.29923   1.43513    0.000
 6316.00    1.25076   1.44146    0.000
 6317.00    1.26400   1.44783    0.000
 6318.00    1.31508   1.45317    0.000
 6319.00    1.36154   1.45627    0.000
 6320.00    1.40554   1.45889    0.000
 6321.00    1.41833   1.45980    0.006
 6322.00    1.41662   1.45866    0.006
 6323.00    1.44053   1.45726    0.006
 6324.00    1.47469   1.45381    0.006
 6325.00    1.50973   1.44948    0.006
 6326.00    1.54507   1.44594    0.006
 6327.00    1.51196   1.44166    0.006
 6328.00    1.45919   1.43825    0.006
 6329.00    1.45025   1.43679    0.006
 6330.00    1.45173   1.43570    0.006
 6331.00    1.42949   1.43600    0.006
 6332.00    1.40271   1.43738    0.006
 6333.00    1.37824   1.43803    0.006
 6334.00    1.35411   1.43958    0.006
 6335.00    1.37936   1.44121    0.006
 6336.00    1.40995   1.44201    0.006
 6337.00    1.41574   1.44407    0.006
 6338.00    1.41976   1.44627    0.006
 6339.00    1.39561   1.44844    0.006
 6340.00    1.37043   1.45105    0.006
 6341.00    1.38152   1.45262    0.006
 6342.00    1.39415   1.45348    0.006
 6343.00    1.45662   1.45284    0.006
 6344.00    1.51595   1.44968    0.006
 6345.00    1.52532   1.44550    0.006
 6346.00    1.53049   1.43973    0.006
 6347.00    1.49336   1.43197    0.006
 6348.00    1.46178   1.42428    0.006
 6349.00    1.47023   1.41669    0.006
 6350.00    1.47611   1.40916    0.006
 6351.00    1.46770   1.40329    0.006
 6352.00    1.45493   1.39913    0.006
 6353.00    1.42285   1.39692    0.006
 6354.00    1.39549   1.39765    0.006
 6355.00    1.38530   1.40046    0.006
 6356.00    1.38228   1.40524    0.006
 6357.00    1.40111   1.41247    0.006
 6358.00    1.41349   1.42061    0.006
 6359.00    1.40917   1.42910    0.006
 6360.00    1.40890   1.43796    0.006
 6361.00    1.41766   1.44627    0.006
 6362.00    1.42773   1.45382    0.006
 6363.00    1.44031   1.46023    0.006
 6364.00    1.43834   1.46519    0.006
 6365.00    1.41188   1.46910    0.006
 6366.00    1.40489   1.47155    0.006
 6367.00    1.42663   1.47200    0.006
 6368.00    1.44227   1.47174    0.006
 6369.00    1.45000   1.47061    0.006
 6370.00    1.46529   1.46808    0.006
 6371.00    1.48923   1.46621    0.006
 6372.00    1.48231   1.46461    0.006
 6373.00    1.44427   1.46283    0.006
 6374.00    1.41251   1.46247    0.006
 6375.00    1.38633   1.46260    0.006
 6376.00    1.39256   1.46265    0.006
 6377.00    1.42419   1.46321    0.006
 6378.00    1.41177   1.46324    0.006
 6379.00    1.36900   1.46209    0.006
 6380.00    1.34560   1.46072    0.006
 6381.00    1.33388   1.45848    0.006
 6382.00    1.35870   1.45440    0.006
 6383.00    1.40278   1.45099    0.006
 6384.00    1.43016   1.44838    0.006
 6385.00    1.44990   1.44472    0.006
 6386.00    1.42866   1.44242    0.006
 6387.00    1.39129   1.44234    0.006
 6388.00    1.34485   1.44167    0.006
 6389.00    1.29536   1.44115    0.006
 6390.00    1.31056   1.44341    0.006
 6391.00    1.34397   1.44533    0.006
 6392.00    1.35274   1.44676    0.006
 6393.00    1.35581   1.45055    0.006
 6394.00    1.34352   1.45339    0.007
 6395.00    1.32838   1.45627    0.007
 6396.00    1.31198   1.45934    0.007
 6397.00    1.29540   1.45936    0.007
 6398.00    1.30814   1.46022    0.007
 6399.00    1.32393   1.46024    0.007
 6400.00    1.33089   1.45668    0.007
 6401.00    1.33725   1.45511    0.007
 6402.00    1.40374   1.45406    0.007
 6403.00    1.47219   1.45120    0.006
 6404.00    1.48810   1.45036    0.006
 6405.00    1.50104   1.45013    0.006
 6406.00    1.42192   1.44897    0.006
 6407.00    1.34750   1.44899    0.006
 6408.00    1.34357   1.44877    0.006
 6409.00    1.33781   1.44771    0.006
 6410.00    1.31436   1.44755    0.006
 6411.00    1.29229   1.44822    0.006
 6412.00    1.27981   1.44977    0.006
 6413.00    1.28219   1.45184    0.006
 6414.00    1.36461   1.45502    0.006
 6415.00    1.44170   1.45944    0.006
 6416.00    1.49573   1.46299    0.006
 6417.00    1.52286   1.46584    0.006
 6418.00    1.45427   1.46792    0.006
 6419.00    1.39100   1.46729    0.006
 6420.00    1.34362   1.46541    0.006
 6421.00    1.30992   1.46386    0.006
 6422.00    1.31104   1.46083    0.006
 6423.00    1.32841   1.45831    0.006
 6424.00    1.38138   1.45736    0.006
 6425.00    1.39917   1.45656    0.006
 6426.00    1.35008   1.45753    0.006
 6427.00    1.28672   1.45847    0.007
 6428.00    1.19970   1.45900    0.007
 6429.00    1.17014   1.46259    0.007
 6430.00    1.22414   1.46572    0.007
 6431.00    1.30170   1.46795    0.007
 6432.00    1.40939   1.47277    0.006
 6433.00    1.46777   1.47702    0.006
 6434.00    1.47058   1.48014    0.006
 6435.00    1.45037   1.48276    0.006
 6436.00    1.40729   1.48278    0.006
 6437.00    1.37074   1.48104    0.006
 6438.00    1.33994   1.47613    0.006
 6439.00    1.32686   1.46882    0.006
 6440.00    1.32747   1.46325    0.006
 6441.00    1.34986   1.45636    0.006
 6442.00    1.38703   1.45000    0.006
 6443.00    1.38307   1.44823    0.006
 6444.00    1.35463   1.44678    0.006
 6445.00    1.31155   1.44720    0.006
 6446.00    1.26087   1.45102    0.006
 6447.00    1.22731   1.45391    0.006
 6448.00    1.20146   1.45679    0.007
 6449.00    1.19346   1.46032    0.007
 6450.00    1.19236   1.46231    0.007
 6451.00    1.23557   1.46197    0.007
 6452.00    1.29335   1.46164    0.007
 6453.00    1.34020   1.46234    0.006
 6454.00    1.38402   1.46083    0.006
 6455.00    1.37904   1.46037    0.006
 6456.00    1.36298   1.46274    0.006
 6457.00    1.35779   1.46422    0.006
 6458.00    1.35457   1.46623    0.006
 6459.00    1.33336   1.46912    0.006
 6460.00    1.30964   1.47060    0.006
 6461.00    1.33135   1.47148    0.006
 6462.00    1.35761   1.47258    0.006
 6463.00    1.40901   1.47182    0.006
 6464.00    1.46200   1.47045    0.006
 6465.00    1.42032   1.47043    0.006
 6466.00    1.37605   1.46946    0.006
 6467.00    1.37216   1.46753    0.006
 6468.00    1.36865   1.46629    0.006
 6469.00    1.37552   1.46492    0.006
 6470.00    1.38015   1.46206    0.006
 6471.00    1.35286   1.45870    0.006
 6472.00    1.32876   1.45598    0.006
 6473.00    1.33426   1.45291    0.006
 6474.00    1.33624   1.44973    0.007
 6475.00    1.31443   1.44775    0.007
 6476.00    1.30636   1.44641    0.006
 6477.00    1.37033   1.44473    0.006
 6478.00    1.42442   1.44206    0.006
 6479.00    1.43680   1.43768    0.006
 6480.00    1.43945   1.43078    0.006
 6481.00    1.40819   1.42136    0.006
 6482.00    1.37659   1.40877    0.006
 6483.00    1.34401   1.39300    0.006
 6484.00    1.33021   1.37800    0.006
 6485.00    1.36338   1.36347    0.006
 6486.00    1.39149   1.34939    0.006
 6487.00    1.40870   1.34142    0.006
 6488.00    1.41625   1.33789    0.006
 6489.00    1.40573   1.33931    0.006
 6490.00    1.39808   1.34757    0.006
 6491.00    1.39514   1.35766    0.006
 6492.00    1.37866   1.37156    0.006
 6493.00    1.34278   1.38773    0.006
 6494.00    1.32815   1.40211    0.006
 6495.00    1.34029   1.41638    0.006
 6496.00    1.33007   1.42839    0.006
 6497.00    1.29501   1.43770    0.006
 6498.00    1.27089   1.44546    0.006
 6499.00    1.25748   1.45053    0.006
 6500.00    1.26916   1.45335    0.006
 6501.00    1.30251   1.45486    0.006
 6502.00    1.30252   1.45520    0.006
 6503.00    1.27713   1.45435    0.006
 6504.00    1.27972   1.45218    0.006
 6505.00    1.30103   1.44950    0.006
 6506.00    1.31238   1.44709    0.006
 6507.00    1.31790   1.44408    0.006
 6508.00    1.31788   1.44160    0.006
 6509.00    1.31504   1.44135    0.006
 6510.00    1.36535   1.44106    0.006
 6511.00    1.43920   1.44192    0.006
 6512.00    1.44957   1.44487    0.006
 6513.00    1.43583   1.44735    0.006
 6514.00    1.39628   1.44987    0.006
 6515.00    1.34840   1.45198    0.006
 6516.00    1.37044   1.45323    0.006
 6517.00    1.41138   1.45462    0.006
 6518.00    1.41874   1.45447    0.006
 6519.00    1.41867   1.45355    0.006
 6520.00    1.37318   1.45358    0.006
 6521.00    1.31968   1.45331    0.006
 6522.00    1.27892   1.45303    0.006
 6523.00    1.23988   1.45321    0.006
 6524.00    1.26483   1.45358    0.006
 6525.00    1.29589   1.45450    0.006
 6526.00    1.30949   1.45598    0.006
 6527.00    1.32205   1.45765    0.006
 6528.00    1.29890   1.45922    0.000
 6529.00    1.27530   1.45977    0.000
 6530.00    1.31487   1.45934    0.000
 6531.00    1.35343   1.45861    0.000
 6532.00    1.36670   1.45618    0.000
 6533.00    1.37892   1.45182    0.000
 6534.00    1.37727   1.44682    0.000
 6535.00    1.37819   1.44049    0.000
 6536.00    1.40211   1.43448    0.000
 6537.00    1.42855   1.42869    0.000
 6538.00    1.47154   1.42159    0.000
 6539.00    1.51293   1.41663    0.000
 6540.00    1.54616   1.41241    0.000
 6541.00    1.56355   1.40694    0.000
 6542.00    1.51553   1.40156    0.000
 6543.00    1.47219   1.39475    0.000
 6544.00    1.44486   1.38678    0.000
 6545.00    1.42113   1.37735    0.000
 6546.00    1.40773   1.36409    0.000
 6547.00    1.39617   1.34844    0.000
 6548.00    1.38917   1.33131    0.000
 6549.00    1.39121   1.31054    0.000
 6550.00    1.41243   1.28799    0.000
 6551.00    1.41491   1.26522    0.000
 6552.00    1.38286   1.24396    0.000
 6553.00    1.36004   1.22889    0.000
 6554.00    1.35206   1.21653    0.000
 6555.00    1.34266   1.21107    0.000
 6556.00    1.33126   1.22116    0.000
 6557.00    1.34426   1.23621    0.000
 6558.00    1.38760   1.25291    0.000
 6559.00    1.44493   1.27574    0.000
 6560.00    1.51757   1.29819    0.000
 6561.00    1.56680   1.31731    0.000
 6562.00    1.59343   1.33454    0.000
 6563.00    1.63147   1.34871    0.000
 6564.00    1.67925   1.35943    0.000
 6565.00    1.67988   1.36859    0.000
 6566.00    1.64513   1.37674    0.000
 6567.00    1.56030   1.38368    0.000
 6568.00    1.44245   1.39103    0.000
 6569.00    1.37400   1.39810    0.000
 6570.00    1.33405   1.40390    0.000
 6571.00    1.31668   1.40975    0.000
 6572.00    1.31067   1.41469    0.000
 6573.00    1.32928   1.41799    0.000
 6574.00    1.35860   1.42168    0.000
 6575.00    1.36936   1.42455    0.000
 6576.00    1.37320   1.42584    0.000
 6577.00    1.39773   1.42712    0.000
 6578.00    1.42881   1.42693    0.000
 6579.00    1.42555   1.42561    0.000
 6580.00    1.41321   1.42344    0.000
 6581.00    1.39950   1.41957    0.000
 6582.00    1.38550   1.41538    0.000
 6583.00    1.46764   1.41133    0.000
 6584.00    1.56626   1.40704    0.000
 6585.00    1.55624   1.40336    0.000
 6586.00    1.53209   1.40266    0.000
 6587.00    1.48856   1.40420    0.000
 6588.00    1.44326   1.40618    0.000
 6589.00    1.38992   1.40973    0.000
 6590.00    1.33614   1.41413    0.000
 6591.00    1.30066   1.41797    0.000
 6592.00    1.26596   1.42156    0.000
 6593.00    1.26951   1.42366    0.000
 6594.00    1.27339   1.42416    0.000
 6595.00    1.28474   1.42389    0.000
 6596.00    1.29560   1.42199    0.000
 6597.00    1.30025   1.41978    0.000
 6598.00    1.30982   1.41813    0.000
 6599.00    1.36147   1.41664    0.000
 6600.00    1.40272   1.41620    0.000
 6601.00    1.37775   1.41676    0.000
 6602.00    1.35161   1.41938    0.000
 6603.00    1.31967   1.42333    0.000
 6604.00    1.29006   1.42702    0.000
 6605.00    1.26987   1.43123    0.000
 6606.00    1.27536   1.43573    0.000
 6607.00    1.36682   1.44011    0.000
 6608.00    1.43190   1.44324    0.000
 6609.00    1.42240   1.44504    0.007
 6610.00    1.42443   1.44642    0.007
 6611.00    1.45431   1.44640    0.007
 6612.00    1.44907   1.44502    0.007
 6613.00    1.37053   1.44304    0.006
 6614.00    1.30320   1.43998    0.006
 6615.00    1.25621   1.43659    0.006
 6616.00    1.22889   1.43300    0.006
 6617.00    1.23275   1.42905    0.006
 6618.00    1.25265   1.42613    0.006
 6619.00    1.29485   1.42297    0.006
 6620.00    1.31316   1.41944    0.006
 6621.00    1.30222   1.41684    0.006
 6622.00    1.28896   1.41440    0.006
 6623.00    1.27318   1.41218    0.007
 6624.00    1.23876   1.41062    0.007
 6625.00    1.18657   1.40953    0.007
 6626.00    1.16404   1.40926    0.007
 6627.00    1.16641   1.41036    0.007
 6628.00    1.17490   1.41196    0.007
 6629.00    1.18791   1.41346    0.007
 6630.00    1.22252   1.41480    0.007
 6631.00    1.27117   1.41594    0.007
 6632.00    1.28383   1.41689    0.007
 6633.00    1.27605   1.41720    0.007
 6634.00    1.22877   1.41696    0.007
 6635.00    1.16196   1.41627    0.007
 6636.00    1.14998   1.41641    0.006
 6637.00    1.16147   1.41726    0.006
 6638.00    1.16167   1.41736    0.006
 6639.00    1.15773   1.41775    0.006
 6640.00    1.23066   1.41893    0.006
 6641.00    1.32746   1.41988    0.006
 6642.00    1.30848   1.42037    0.006
 6643.00    1.25953   1.42037    0.007
 6644.00    1.24934   1.42024    0.007
 6645.00    1.24733   1.42002    0.007
 6646.00    1.30229   1.41912    0.007
 6647.00    1.36674   1.41769    0.007
 6648.00    1.36780   1.41597    0.007
 6649.00    1.36090   1.41363    0.007
 6650.00    1.23883   1.41036    0.007
 6651.00    1.10672   1.40715    0.007
 6652.00    1.17012   1.40390    0.007
 6653.00    1.24354   1.40028    0.007
 6654.00    1.22046   1.39766    0.007
 6655.00    1.19644   1.39553    0.007
 6656.00    1.22743   1.39498    0.007
 6657.00    1.25855   1.39628    0.007
 6658.00    1.29236   1.39766    0.007
 6659.00    1.32238   1.40035    0.007
 6660.00    1.30673   1.40406    0.007
 6661.00    1.29859   1.40716    0.007
 6662.00    1.35247   1.40951    0.007
 6663.00    1.38974   1.41082    0.007
 6664.00    1.32445   1.41011    0.007
 6665.00    1.26606   1.40789    0.007
 6666.00    1.24118   1.40520    0.007
 6667.00    1.23423   1.40112    0.007
 6668.00    1.29814   1.39650    0.007
 6669.00    1.33848   1.39282    0.007
 6670.00    1.30140   1.39014    0.007
 6671.00    1.27895   1.38965    0.007
 6672.00    1.29708   1.39038    0.007
 6673.00    1.29782   1.39166    0.007
 6674.00    1.25722   1.39518    0.007
 6675.00    1.22766   1.39934    0.007
 6676.00    1.22072   1.40292    0.007
 6677.00    1.23435   1.40604    0.007
 6678.00    1.28471   1.40853    0.007
 6679.00    1.32344   1.41048    0.007
 6680.00    1.34401   1.41146    0.007
 6681.00    1.32560   1.41179    0.007
 6682.00    1.25374   1.41117    0.007
 6683.00    1.19468   1.40974    0.007
 6684.00    1.15108   1.40836    0.007
 6685.00    1.17448   1.40650    0.007
 6686.00    1.26920   1.40433    0.007
 6687.00    1.29513   1.40271    0.007
 6688.00    1.25643   1.40117    0.007
 6689.00    1.23901   1.40033    0.007
 6690.00    1.23919   1.40015    0.007
 6691.00    1.24933   1.39967    0.007
 6692.00    1.26672   1.40017    0.007
 6693.00    1.28831   1.40078    0.007
 6694.00    1.31257   1.40087    0.007
 6695.00    1.38242   1.40125    0.007
 6696.00    1.47778   1.40129    0.000
 6697.00    1.42447   1.40089    0.000
 6698.00    1.29876   1.40027    0.000
 6699.00    1.32890   1.39903    0.000
 6700.00    1.42461   1.39693    0.000
 6701.00    1.45496   1.39476    0.000
 6702.00    1.46177   1.39131    0.000
 6703.00    1.43965   1.38685    0.000
 6704.00    1.40872   1.38222    0.000
 6705.00    1.39152   1.37682    0.000
 6706.00    1.37780   1.37253    0.000
 6707.00    1.32971   1.36851    0.000
 6708.00    1.27456   1.36533    0.000
 6709.00    1.26382   1.36442    0.000
 6710.00    1.26027   1.36471    0.000
 6711.00    1.24309   1.36660    0.000
 6712.00    1.22425   1.36904    0.000
 6713.00    1.23975   1.37221    0.000
 6714.00    1.25809   1.37659    0.000
 6715.00    1.36093   1.38038    0.000
 6716.00    1.46779   1.38330    0.000
 6717.00    1.41361   1.38604    0.000
 6718.00    1.35559   1.38857    0.000
 6719.00    1.20900   1.39078    0.000
 6720.00    1.07377   1.39242    0.000
 6721.00    1.16017   1.39339    0.000
 6722.00    1.25195   1.39429    0.000
 6723.00    1.40556   1.39476    0.000
 6724.00    1.53517   1.39459    0.000
 6725.00    1.47364   1.39390    0.000
 6726.00    1.41378   1.39286    0.000
 6727.00    1.36393   1.39125    0.000
 6728.00    1.33186   1.38916    0.000
 6729.00    1.38407   1.38697    0.000
 6730.00    1.43085   1.38476    0.000
 6731.00    1.45663   1.38312    0.000
 6732.00    1.46072   1.38111    0.000
 6733.00    1.39494   1.37896    0.000
 6734.00    1.33584   1.37745    0.000
 6735.00    1.29497   1.37609    0.000
 6736.00    1.26049   1.37508    0.000
 6737.00    1.24097   1.37361    0.000
 6738.00    1.22364   1.37195    0.000
 6739.00    1.21073   1.37109    0.000
 6740.00    1.19844   1.37016    0.000
 6741.00    1.18727   1.37015    0.000
 6742.00    1.19212   1.37067    0.000
 6743.00    1.22164   1.37151    0.000
 6744.00    1.22680   1.37424    0.000
 6745.00    1.19905   1.37704    0.000
 6746.00    1.18810   1.38107    0.000
 6747.00    1.19715   1.38571    0.000
 6748.00    1.20478   1.38949    0.000
 6749.00    1.21093   1.39388    0.000
 6750.00    1.21157   1.39744    0.000
 6751.00    1.20710   1.39986    0.000
 6752.00    1.16788   1.40121    0.000
 6753.00    1.10028   1.40150    0.007
 6754.00    1.06983   1.40066    0.008
 6755.00    1.06605   1.39889    0.008
 6756.00    1.16828   1.39651    0.008
 6757.00    1.33733   1.39328    0.008
 6758.00    1.40111   1.39080    0.008
 6759.00    1.40686   1.38935    0.008
 6760.00    1.43065   1.38832    0.008
 6761.00    1.46308   1.38814    0.008
 6762.00    1.52000   1.38904    0.009
 6763.00    1.58703   1.39142    0.009
 6764.00    1.49685   1.39508    0.009
 6765.00    1.35106   1.39866    0.009
 6766.00    1.43238   1.40183    0.009
 6767.00    1.58150   1.40456    0.009
 6768.00    1.54530   1.40657    0.008
 6769.00    1.46320   1.40744    0.008
 6770.00    1.37878   1.40659    0.008
 6771.00    1.29389   1.40434    0.008
 6772.00    1.32726   1.40069    0.008
 6773.00    1.37921   1.39632    0.008
 6774.00    1.36046   1.39190    0.008
 6775.00    1.33346   1.38789    0.007
 6776.00    1.32972   1.38448    0.007
 6777.00    1.32781   1.38197    0.007
 6778.00    1.41978   1.38075    0.008
 6779.00    1.51583   1.38011    0.008
 6780.00    1.43146   1.38042    0.008
 6781.00    1.34798   1.38135    0.008
 6782.00    1.39412   1.38235    0.008
 6783.00    1.43671   1.38325    0.008
 6784.00    1.41516   1.38384    0.008
 6785.00    1.38832   1.38478    0.008
 6786.00    1.30369   1.38576    0.008
 6787.00    1.22963   1.38725    0.008
 6788.00    1.23695   1.38845    0.008
 6789.00    1.24133   1.38970    0.008
 6790.00    1.22852   1.39177    0.008
 6791.00    1.22678   1.39328    0.008
 6792.00    1.27625   1.39479    0.008
 6793.00    1.35107   1.39595    0.008
 6794.00    1.52170   1.39614    0.008
 6795.00    1.64005   1.39674    0.008
 6796.00    1.59329   1.39675    0.008
 6797.00    1.51270   1.39600    0.008
 6798.00    1.34154   1.39597    0.007
 6799.00    1.22435   1.39515    0.007
 6800.00    1.23114   1.39422    0.008
 6801.00    1.24796   1.39418    0.008
 6802.00    1.28469   1.39357    0.007
 6803.00    1.30585   1.39362    0.007
 6804.00    1.30003   1.39351    0.008
 6805.00    1.29087   1.39274    0.008
 6806.00    1.27664   1.39360    0.007
 6807.00    1.25419   1.39465    0.007
 6808.00    1.22077   1.39543    0.007
 6809.00    1.19368   1.39639    0.007
 6810.00    1.17400   1.39701    0.008
 6811.00    1.13427   1.39869    0.008
 6812.00    1.07380   1.40057    0.008
 6813.00    1.09516   1.40156    0.008
 6814.00    1.19123   1.40244    0.008
 6815.00    1.27559   1.40294    0.008
 6816.00    1.35054   1.40341    0.008
 6817.00    1.35521   1.40336    0.008
 6818.00    1.31011   1.40251    0.008
 6819.00    1.31495   1.40214    0.008
 6820.00    1.35080   1.40207    0.008
 6821.00    1.32713   1.40186    0.007
 6822.00    1.27114   1.40140    0.007
 6823.00    1.25195   1.40060    0.007
 6824.00    1.25010   1.40013    0.007
 6825.00    1.29252   1.39946    0.007
 6826.00    1.35293   1.39747    0.007
 6827.00    1.32486   1.39466    0.007
 6828.00    1.26606   1.39127    0.007
 6829.00    1.32088   1.38743    0.007
 6830.00    1.40893   1.38391    0.007
 6831.00    1.41587   1.38020    0.008
 6832.00    1.40316   1.37749    0.008
 6833.00    1.33594   1.37654    0.008
 6834.00    1.25806   1.37663    0.007
 6835.00    1.31454   1.37828    0.008
 6836.00    1.39151   1.38044    0.008
 6837.00    1.38513   1.38309    0.008
 6838.00    1.36940   1.38630    0.008
 6839.00    1.33298   1.38858    0.008
 6840.00    1.29501   1.38990    0.008
 6841.00    1.37085   1.39030    0.008
 6842.00    1.45120   1.38946    0.008
 6843.00    1.42845   1.38788    0.008
 6844.00    1.40549   1.38532    0.008
 6845.00    1.40250   1.38175    0.007
 6846.00    1.39719   1.37886    0.007
 6847.00    1.35251   1.37638    0.007
 6848.00    1.30583   1.37412    0.007
 6849.00    1.23816   1.37290    0.007
 6850.00    1.17838   1.37184    0.007
 6851.00    1.17732   1.37162    0.007
 6852.00    1.17941   1.37255    0.007
 6853.00    1.19941   1.37393    0.007
 6854.00    1.21822   1.37573    0.007
 6855.00    1.23169   1.37699    0.007
 6856.00    1.23138   1.37769    0.007
 6857.00    1.18005   1.37820    0.008
 6858.00    1.14320   1.37868    0.008
 6859.00    1.15124   1.37915    0.008
 6860.00    1.17248   1.37916    0.008
 6861.00    1.22848   1.37900    0.008
 6862.00    1.25081   1.37900    0.008
 6863.00    1.19707   1.37978    0.008
 6864.00    1.16996   1.38135    0.008
 6865.00    1.19498   1.38298    0.008
 6866.00    1.21948   1.38469    0.008
 6867.00    1.24309   1.38645    0.008
 6868.00    1.26468   1.38821    0.008
 6869.00    1.28327   1.38967    0.008
 6870.00    1.25990   1.39055    0.008
 6871.00    1.18142   1.39061    0.008
 6872.00    1.18635   1.39084    0.007
 6873.00    1.28780   1.39105    0.007
 6874.00    1.31175   1.39155    0.007
 6875.00    1.25661   1.39266    0.007
 6876.00    1.21062   1.39371    0.007
 6877.00    1.17286   1.39607    0.007
 6878.00    1.17439   1.39888    0.007
 6879.00    1.20710   1.40192    0.008
 6880.00    1.24984   1.40504    0.008
 6881.00    1.29958   1.40752    0.008
 6882.00    1.34727   1.40987    0.008
 6883.00    1.39369   1.41145    0.008
 6884.00    1.32150   1.41250    0.008
 6885.00    1.18592   1.41285    0.008
 6886.00    1.21476   1.41283    0.008
 6887.00    1.31987   1.41292    0.007
 6888.00    1.31715   1.41265    0.007
 6889.00    1.27133   1.41276    0.007
 6890.00    1.21810   1.41294    0.007
 6891.00    1.16233   1.41361    0.007
 6892.00    1.20737   1.41501    0.007
 6893.00    1.28131   1.41624    0.007
 6894.00    1.25315   1.41773    0.007
 6895.00    1.20080   1.41923    0.008
 6896.00    0.65063   1.42063    0.007
 6897.00    0.00555   1.42203    0.006
 6898.00    0.43042   1.42253    0.006
 6899.00    1.01339   1.42217    0.007
 6900.00    1.09072   1.42138    0.007
 6901.00    1.11350   1.41972    0.007
 6902.00    1.11756   1.41746    0.007
 6903.00    1.12028   1.41507    0.007
 6904.00    1.10327   1.41216    0.007
 6905.00    1.08554   1.40987    0.007
 6906.00    1.07436   1.40832    0.007
 6907.00    1.06339   1.40672    0.007
 6908.00    1.05905   1.40647    0.007
 6909.00    1.05690   1.40635    0.007
 6910.00    1.08956   1.40667    0.007
 6911.00    1.12411   1.40748    0.007
 6912.00    1.17751   1.40734    0.007
 6913.00    1.21223   1.40738    0.007
 6914.00    1.11275   1.40685    0.007
 6915.00    1.02567   1.40644    0.007
 6916.00    1.00696   1.40616    0.007
 6917.00    1.00958   1.40583    0.007
 6918.00    1.10625   1.40584    0.007
 6919.00    1.16208   1.40589    0.007
 6920.00    1.06987   1.40658    0.007
 6921.00    1.01587   1.40723    0.007
 6922.00    1.07798   1.40823    0.007
 6923.00    1.11653   1.40914    0.007
 6924.00    1.09416   1.40992    0.007
 6925.00    1.09067   1.41104    0.007
 6926.00    1.12915   1.41173    0.007
 6927.00    1.14882   1.41263    0.007
 6928.00    1.13224   1.41338    0.007
 6929.00    1.12243   1.41397    0.007
 6930.00    1.12400   1.41432    0.007
 6931.00    1.08813   1.41402    0.007
 6932.00    0.99710   1.41316    0.007
 6933.00    0.98936   1.41177    0.007
 6934.00    1.08945   1.41052    0.007
 6935.00    1.15503   1.40921    0.007
 6936.00    1.18124   1.40801    0.007
 6937.00    1.20077   1.40725    0.007
 6938.00    1.21356   1.40636    0.007
 6939.00    1.24503   1.40596    0.007
 6940.00    1.29308   1.40605    0.007
 6941.00    1.25443   1.40612    0.007
 6942.00    1.14799   1.40670    0.007
 6943.00    1.14183   1.40727    0.007
 6944.00    1.20460   1.40800    0.007
 6945.00    1.18443   1.40942    0.007
 6946.00    1.11427   1.41102    0.007
 6947.00    1.08452   1.41325    0.007
 6948.00    1.07603   1.41571    0.007
 6949.00    1.06559   1.41844    0.007
 6950.00    1.05425   1.42129    0.007
 6951.00    1.02891   1.42397    0.007
 6952.00    0.99806   1.42658    0.007
 6953.00    1.03585   1.42850    0.007
 6954.00    1.09660   1.43016    0.007
 6955.00    1.09347   1.43165    0.007
 6956.00    1.07239   1.43281    0.007
 6957.00    1.03999   1.43359    0.007
 6958.00    1.00497   1.43369    0.007
 6959.00    1.01572   1.43296    0.007
 6960.00    1.03497   1.43187    0.007
 6961.00    1.02267   1.43000    0.007
 6962.00    1.00586   1.42697    0.007
 6963.00    1.11641   1.42328    0.007
 6964.00    1.24015   1.41821    0.007
 6965.00    1.23907   1.41274    0.008
 6966.00    1.22967   1.40681    0.008
 6967.00    1.27339   1.40118    0.008
 6968.00    1.31874   1.39749    0.008
 6969.00    1.09642   1.39483    0.008
 6970.00    0.88480   1.39440    0.008
 6971.00    1.00129   1.39561    0.007
 6972.00    1.11325   1.39844    0.007
 6973.00    1.15775   1.40339    0.007
 6974.00    1.19132   1.40871    0.007
 6975.00    1.11992   1.41443    0.007
 6976.00    1.06848   1.41933    0.007
 6977.00    1.15591   1.42284    0.007
 6978.00    1.21573   1.42575    0.007
 6979.00    1.12732   1.42759    0.007
 6980.00    1.07143   1.42887    0.008
 6981.00    1.15567   1.42932    0.007
 6982.00    1.21131   1.42895    0.007
 6983.00    1.16538   1.42858    0.007
 6984.00    1.15289   1.42800    0.007
 6985.00    1.24007   1.42720    0.008
 6986.00    1.27986   1.42597    0.008
 6987.00    1.19928   1.42374    0.008
 6988.00    1.15506   1.42143    0.008
 6989.00    1.19035   1.41928    0.008
 6990.00    1.22824   1.41722    0.008
 6991.00    1.27107   1.41521    0.008
 6992.00    1.26934   1.41279    0.008
 6993.00    1.19384   1.41110    0.008
 6994.00    1.17079   1.41017    0.008
 6995.00    1.22385   1.41004    0.008
 6996.00    1.27969   1.41036    0.008
 6997.00    1.33906   1.41081    0.007
 6998.00    1.33692   1.41134    0.007
 6999.00    1.26558   1.41160    0.008
 7000.00    1.16995   1.41201    0.008
 7001.00    1.05022   1.41238    0.008
 7002.00    0.97730   1.41198    0.008
 7003.00    0.94532   1.41061    0.008
 7004.00    1.00189   1.40804    0.008
 7005.00    1.12671   1.40631    0.008
 7006.00    1.10745   1.40573    0.008
 7007.00    0.99055   1.40511    0.008
 7008.00    0.95242   1.40488    0.008
 7009.00    0.96108   1.40484    0.008
 7010.00    0.96428   1.40566    0.008
 7011.00    0.96466   1.40703    0.008
 7012.00    0.98899   1.40845    0.008
 7013.00    1.02408   1.41016    0.008
 7014.00    1.02035   1.41183    0.008
 7015.00    1.00165   1.41282    0.008
 7016.00    1.02389   1.41378    0.008
 7017.00    1.05957   1.41513    0.008
 7018.00    1.02382   1.41690    0.008
 7019.00    0.96840   1.41920    0.008
 7020.00    0.98896   1.42097    0.008
 7021.00    1.02670   1.42277    0.008
 7022.00    1.04150   1.42431    0.008
 7023.00    1.05217   1.42555    0.008
 7024.00    1.04569   1.42695    0.008
 7025.00    1.03684   1.42763    0.008
 7026.00    1.06898   1.42800    0.008
 7027.00    1.10519   1.42912    0.008
 7028.00    1.10328   1.43156    0.008
 7029.00    1.09897   1.43476    0.008
 7030.00    1.04897   1.43837    0.008
 7031.00    0.99811   1.44212    0.008
 7032.00    1.06488   1.44649    0.008
 7033.00    1.12833   1.45140    0.008
 7034.00    1.10087   1.45604    0.008
 7035.00    1.08150   1.45990    0.008
 7036.00    1.17580   1.46230    0.008
 7037.00    1.25954   1.46300    0.008
 7038.00    1.24599   1.46168    0.008
 7039.00    1.23303   1.45897    0.008
 7040.00    1.22398   1.45427    0.008
 7041.00    1.21114   1.44774    0.008
 7042.00    1.17845   1.44008    0.008
 7043.00    1.13925   1.43119    0.008
 7044.00    1.07264   1.42238    0.008
 7045.00    1.01604   1.41341    0.008
 7046.00    0.99426   1.40477    0.008
 7047.00    0.99116   1.39724    0.008
 7048.00    1.04278   1.39049    0.008
 7049.00    1.08893   1.38554    0.008
 7050.00    1.12144   1.38166   -2.000
 7051.00    1.14476   1.37829   -2.000
 7052.00    1.14834   1.37547   -2.000
 7053.00    1.16536   1.37296   -2.000
 7054.00    1.20749   1.37087   -2.000
 7055.00    1.17422   1.36972   -2.000
 7056.00    1.01801   1.36874   -2.000
 7057.00    0.96618   1.36871   -2.000
 7058.00    1.06369   1.36970   -2.000
 7059.00    1.14568   1.37083   -2.000
 7060.00    1.20814   1.37313   -2.000
 7061.00    1.25793   1.37592   -2.000
 7062.00    1.29369   1.37968   -2.000
 7063.00    1.21385   1.38407   -2.000
 7064.00    1.02096   1.38825   -2.000
 7065.00    0.97231   1.39170   -2.000
 7066.00    1.04809   1.39462   -2.000
 7067.00    1.17652   1.39643   -2.000
 7068.00    1.34494   1.39696   -2.000
 7069.00    1.36624   1.39616   -2.000
 7070.00    1.28929   1.39343   -2.000
 7071.00    1.17965   1.38930   -2.000
 7072.00    1.05089   1.38341   -2.000
 7073.00    1.10538   1.37632   -2.000
 7074.00    1.25329   1.36865   -2.000
 7075.00    1.36352   1.35993   -2.000
 7076.00    1.45711   1.35073   -2.000
 7077.00    1.37040   1.34202   -2.000
 7078.00    1.21533   1.33406   -2.000
 7079.00    1.25593   1.32794   -2.000
 7080.00    1.35955   1.32297   -2.000
 7081.00    1.26163   1.31849   -2.000
 7082.00    1.10943   1.31614   -2.000
 7083.00    1.09978   1.31459   -2.000
 7084.00    1.12159   1.31438   -2.000
 7085.00    1.22358   1.31591   -2.000
 7086.00    1.33967   1.31710   -2.000
 7087.00    1.32252   1.32006   -2.000
 7088.00    1.28753   1.32247   -2.000
 7089.00    1.15434   1.32542   -2.000
 7090.00    1.01182   1.32872   -2.000
 7091.00    1.05232   1.33134   -2.000
 7092.00    1.10356   1.33473   -2.000
 7093.00    1.17322   1.33668   -2.000
 7094.00    1.24248   1.33858   -2.000
 7095.00    1.19525   1.33957   -2.000
 7096.00    1.15162   1.34016   -2.000
 7097.00    1.19765   1.34064   -2.000
 7098.00    1.23249   1.34069   -2.000
 7099.00    1.11856   1.34034   -2.000
 7100.00    1.02423   1.33973   -2.000
 7101.00    1.10358   1.33956   -2.000
 7102.00    1.16495   1.33984   -2.000
 7103.00    1.10897   1.34013   -2.000
 7104.00    1.07229   1.34063   -2.000
 7105.00    1.13395   1.34185   -2.000
 7106.00    1.16400   1.34326   -2.000
 7107.00    1.06390   1.34480   -2.000
 7108.00    0.99977   1.34533   -2.000
 7109.00    1.05823   1.34596   -2.000
 7110.00    1.11785   1.34569   -2.000
 7111.00    1.18079   1.34434   -2.000
 7112.00    1.20989   1.34257   -2.000
 7113.00    1.15596   1.33946   -2.000
 7114.00    1.10406   1.33623   -2.000
 7115.00    1.05645   1.33191   -2.000
 7116.00    1.04730   1.32769   -2.000
 7117.00    1.10888   1.32370   -2.000
 7118.00    1.11639   1.31926   -2.000
 7119.00    1.03703   1.31527   -2.000
 7120.00    1.02018   1.31283   -2.000
 7121.00    1.09142   1.31154   -2.000
 7122.00    1.15015   1.31127   -2.000
 7123.00    1.19334   1.31183   -2.000
 7124.00    1.15317   1.31309   -2.000
 7125.00    1.02185   1.31609   -2.000
 7126.00    1.01053   1.31923   -2.000
 7127.00    1.11493   1.32267   -2.000
 7128.00    1.22061   1.32572   -2.000
 7129.00    1.32737   1.32803   -2.000
 7130.00    1.41177   1.33027   -2.000
 7131.00    1.47942   1.33140   -2.000
 7132.00    1.35068   1.33198   -2.000
 7133.00    1.09271   1.33188   -2.000
 7134.00    0.96349   1.33133   -2.000
 7135.00    0.90842   1.33053   -2.000
 7136.00    0.99652   1.32930   -2.000
 7137.00    1.15647   1.32861   -2.000
 7138.00    1.16817   1.32821   -2.000
 7139.00    1.11550   1.32862   -2.000
 7140.00    1.01013   1.32985   -2.000
 7141.00    0.88513   1.33111   -2.000
 7142.00    0.85035   1.33416   -2.000
 7143.00    0.84406   1.33828   -2.000
 7144.00    0.86368   1.34160   -2.000
 7145.00    0.89014   1.34500   -2.000
 7146.00    0.91838   1.34762   -2.000
 7147.00    0.94701   1.34943   -2.000
 7148.00    0.96240   1.35024   -2.000
 7149.00    0.97552   1.34998   -2.000
 7150.00    0.90948   1.34924   -2.000
 7151.00    0.83320   1.34697   -2.000
 7152.00    0.99090   1.34477   -2.000
 7153.00    1.16984   1.34271   -2.000
 7154.00    1.14040   1.34129   -2.000
 7155.00    1.09955   1.34059   -2.000
 7156.00    1.23166   1.34043   -2.000
 7157.00    1.36367   1.34130   -2.000
 7158.00    1.15582   1.34318   -2.000
 7159.00    0.95974   1.34677   -2.000
 7160.00    1.03121   1.35056   -2.000
 7161.00    1.12271   1.35400   -2.000
 7162.00    1.46644   1.35665   -2.000
 7163.00    1.75382   1.35872   -2.000
 7164.00    1.56043   1.36032   -2.000
 7165.00    1.38738   1.36080   -2.000
 7166.00    1.34325   1.36001   -2.000
 7167.00    1.27842   1.35820   -2.000
 7168.00    1.11083   1.35611   -2.000
 7169.00    0.97707   1.35398   -2.000
 7170.00    0.97949   1.35182   -2.000
 7171.00    1.01168   1.34979   -2.000
 7172.00    1.14340   1.34752   -2.000
 7173.00    1.21679   1.34474   -2.000
 7174.00    1.12562   1.34256   -2.000
 7175.00    1.03091   1.34091   -2.000
 7176.00    0.92765   1.33965   -2.000
 7177.00    0.89183   1.33845   -2.000
 7178.00    0.99642   1.33646   -2.000
 7179.00    1.10303   1.33528   -2.000
 7180.00    1.21330   1.33430   -2.000
 7181.00    1.25499   1.33452   -2.000
 7182.00    1.18814   1.33601   -2.000
 7183.00    1.12128   1.33717   -2.000
 7184.00    1.05440   1.33950   -2.000
 7185.00    1.05706   1.34135   -2.000
 7186.00    1.14476   1.34325   -2.000
 7187.00    1.17326   1.34524   -2.000
 7188.00    1.13793   1.34656   -2.000
 7189.00    1.08058   1.34822   -2.000
 7190.00    1.00229   1.34875   -2.000
 7191.00    0.99280   1.34916   -2.000
 7192.00    1.04100   1.34921   -2.000
 7193.00    1.00019   1.34786   -2.000
 7194.00    0.89368   1.34701   -2.000
 7195.00    0.83379   1.34547   -2.000
 7196.00    0.80412   1.34442   -2.000
 7197.00    0.86690   1.34384   -2.000
 7198.00    0.98211   1.34253   -2.000
 7199.00    1.07012   1.34234   -2.000
 7200.00    1.14471   1.34214   -2.000
 7201.00    1.16250   1.34352   -2.000
 7202.00    1.15603   1.34611   -2.000
 7203.00    1.09549   1.34841   -2.000
 7204.00    1.01516   1.35153   -2.000
 7205.00    0.98002   1.35379   -2.000
 7206.00    0.95888   1.35609   -2.000
 7207.00    0.82741   1.35832   -2.000
 7208.00    0.66746   1.36051   -2.000
 7209.00    0.73154   1.36291   -2.000
 7210.00    0.84274   1.36472   -2.000
 7211.00    0.92545   1.36710   -2.000
 7212.00    1.00343   1.36883   -2.000
 7213.00    0.92069   1.37105   -2.000
 7214.00    0.81788   1.37333   -2.000
 7215.00    0.82513   1.37603   -2.000
 7216.00    0.84191   1.37953   -2.000
 7217.00    0.85969   1.38284   -2.000
 7218.00    0.87752   1.38698   -2.000
