###################################################################
## OUTPUT of StarlightChains_v04.for    [Cid@UFSC - 01/Apr/2007] ##
###################################################################

## Some input info
KUG0210-078._30_35.txt                   [arq_obs]
Base.CB07.vall.4m                        [arq_base]
Masks.EmLines.NEW.gm                     [arq_masks]
StCv04.C11.config                        [arq_config]
   66                                    [N_base]
    0                                    [N_YAV_components = # of components with extra extinction!]
    0                                    [i_FitPowerLaw (1/0 = Yes/No)]
-9.99                                    [alpha_PowerLaw]
CCM                                      [red_law_option]
 1.458241                                [q_norm = A(l_norm)/A(V)]

## (Re)Sampling Parameters
 3741.00                                 [l_ini (A)]
 7218.00                                 [l_fin (A)]
    1.00                                 [dl    (A)]     (OBS: dl_cushion =    50.00 A)

## Normalization info
 4020.00                                 [l_norm (A) - for base]
 4010.00                                 [llow_norm (A) - window for f_obs]
 4060.00                                 [lupp_norm (A) - window for f_obs]
1.840010E-16                             [fobs_norm (in input units)]

## S/N
 3691.00                                 [llow_SN (A) - window for S/N]
 7268.00                                 [lupp_SN (A) - window for S/N]
  10.575                                 [S/N in S/N window]
  12.734                                 [S/N in norm. window]
   0.267                                 [S/N_err in S/N window]
   0.322                                 [S/N_err in norm. window]
  1.0000                                 [fscale_chi2]

## etc...
    -2007436                             [idum_orig]
  2432                                   [NOl_eff]
  2386                                   [Nl_eff]
    46    NSIGMA                         [Ntot_cliped & clip_method]
 15810060                                [Nglobal_steps]
   7                                     [N_chains]
  37                                     [NEX0s_base = N_base in EX0s-fits]
 0   0   1       46   2.0   5.278E+04    [Clip-Bug, RC-Crash & Burn-In warning-flags, n_censored_weights, wei_nsig_threshold & wei_limit]
   145    143.915    142.661      1.254  [idt_all, wdt_TotTime, wdt_UsrTime & wdt_SysTime (sec)]

## Synthesis Results - Best model ##

 1.02812E-03                             [chi2/Nl_eff]
     4.22224                             [adev (%)]

    99.33546                             [sum-of-x (%)]
 5.52849E-16                             [Flux_tot (units of input spectrum!)]
 8.32438E-12                             [Mini_tot (???)]
 4.28608E-12                             [Mcor_tot (???)]

-108.19                                  [v0_min  (km/s)]
 169.10                                  [vd_min  (km/s)]
 0.8241                                  [AV_min  (mag)]
 0.0000                                  [YAV_min (mag)]

# j     x_j(%)      Mini_j(%)     Mcor_j(%)     age_j(yr)     Z_j      (L/M)_j    YAV?  Mstars   component_j        a/Fe...       SSP_chi2r SSP_adev(%)   SSP_AV   SSP_x(%)
  1     25.7325     1.5726E-01    3.0543E-01    1.000000E+06  0.00400  1.094E-02    0   1.0000   age020_m42            0.0000     1.3779E-03     7.5129   2.6393    89.4358
  2     15.5204     2.5896E-02    5.0290E-02    3.160000E+06  0.00400  4.007E-02    0   0.9999   age045_m42            0.0000     1.4259E-03     7.6558   1.8508    97.2163
  3      0.0000     0.0000E+00    0.0000E+00    5.010000E+06  0.00400  2.539E-02    0   0.9488   age055_m42            0.0000     1.3934E-03     7.3902   2.2048    93.9333
  4      0.0000     0.0000E+00    0.0000E+00    6.610000E+06  0.00400  2.620E-02    0   0.9220   age061_m42            0.0000     1.5737E-03     7.4869   1.7850    97.1593
  5      0.0000     0.0000E+00    0.0000E+00    1.000000E+07  0.00400  1.322E-02    0   0.8862   age070_m42            0.0000     1.3708E-03     5.5856   1.5699    97.1816
  6      0.0000     0.0000E+00    0.0000E+00    1.445000E+07  0.00400  7.883E-03    0   0.8571   age078_m42            0.0000     1.3424E-03     5.7919   1.9038    94.5642
  7      0.0000     0.0000E+00    0.0000E+00    2.512000E+07  0.00400  5.251E-03    0   0.8174   age090_m42            0.0000     1.3799E-03     5.2764   1.4465    97.5025
  8      0.0000     0.0000E+00    0.0000E+00    4.000000E+07  0.00400  3.649E-03    0   0.7851   age104_m42            0.0000     1.4413E-03     5.5337   1.2012    98.8561
  9      0.0000     0.0000E+00    0.0000E+00    5.500000E+07  0.00400  3.098E-03    0   0.7629   age110_m42            0.0000     1.7210E-03     6.6031   1.3150   100.0287
 10      0.0000     0.0000E+00    0.0000E+00    1.015200E+08  0.00400  2.228E-03    0   0.7207   age116_m42            0.0000     2.0570E-03     7.3243   1.3096   100.9536
 11      0.0000     0.0000E+00    0.0000E+00    2.861200E+08  0.00400  1.093E-03    0   0.6648   age125_m42            0.0000     2.2673E-03     7.1164   0.7458   103.6143
 12      0.0000     0.0000E+00    0.0000E+00    5.088000E+08  0.00400  6.597E-04    0   0.6365   age130_m42            0.0000     2.7761E-03     8.2820   0.6916   105.8734
 13      0.0000     0.0000E+00    0.0000E+00    1.434000E+09  0.00400  2.132E-04    0   0.5798   age139_m42            0.0000     2.7516E-03     8.9344  -0.3224   109.3863
 14      0.0000     0.0000E+00    0.0000E+00    4.250000E+09  0.00400  5.895E-05    0   0.5377   age158_m42            0.0000     2.6731E-03     9.7988  -0.7910   106.1815
 15      0.0000     0.0000E+00    0.0000E+00    7.500000E+09  0.00400  3.510E-05    0   0.5212   age171_m42            0.0000     3.0203E-03    10.5083  -1.0000   106.1033
 16      0.0000     0.0000E+00    0.0000E+00    1.300000E+10  0.00400  2.005E-05    0   0.5034   age193_m42            0.0000     3.5486E-03     9.6336  -1.0000   102.9464
 17      0.0000     0.0000E+00    0.0000E+00    1.800000E+10  0.00400  1.525E-05    0   0.4967   age213_m42            0.0000     3.4716E-03     9.3677  -1.0000   102.0194
 18      8.1472     4.3998E-02    8.5453E-02    1.000000E+06  0.00800  1.238E-02    0   1.0000   age020_m52            0.0000     1.3863E-03     7.5262   2.6356    89.6185
 19      0.3674     7.9903E-04    1.5466E-03    3.160000E+06  0.00800  3.074E-02    0   0.9966   age045_m52            0.0000     1.4057E-03     7.5556   2.5529    90.5706
 20      0.0000     0.0000E+00    0.0000E+00    5.010000E+06  0.00800  2.668E-02    0   0.9443   age055_m52            0.0000     1.3981E-03     7.2972   2.2980    92.8288
 21      0.0000     0.0000E+00    0.0000E+00    6.610000E+06  0.00800  2.136E-02    0   0.9177   age061_m52            0.0000     1.1725E-03     5.5804   1.0665    98.5034
 22      0.0000     0.0000E+00    0.0000E+00    1.000000E+07  0.00800  1.215E-02    0   0.8827   age070_m52            0.0000     1.2971E-03     5.1161   1.7723    96.2518
 23      0.0000     0.0000E+00    0.0000E+00    1.445000E+07  0.00800  8.717E-03    0   0.8552   age078_m52            0.0000     1.3446E-03     5.7012   1.8663    95.9557
 24      0.0000     0.0000E+00    0.0000E+00    2.512000E+07  0.00800  5.592E-03    0   0.8162   age090_m52            0.0000     1.4082E-03     5.2203   1.5092    98.6653
 25      0.0000     0.0000E+00    0.0000E+00    4.000000E+07  0.00800  3.896E-03    0   0.7841   age104_m52            0.0000     1.5500E-03     5.7728   1.3954   100.1875
 26      0.0000     0.0000E+00    0.0000E+00    1.015200E+08  0.00800  2.148E-03    0   0.7226   age116_m52            0.0000     1.8981E-03     6.8016   1.2935   101.2476
 27      0.0000     0.0000E+00    0.0000E+00    2.861200E+08  0.00800  9.925E-04    0   0.6683   age125_m52            0.0000     2.8421E-03     8.1753   0.7554   106.8744
 28      0.0000     0.0000E+00    0.0000E+00    9.047900E+08  0.00800  3.141E-04    0   0.6138   age135_m52            0.0000     3.5678E-03    10.3393  -0.1314   114.1153
 29      0.0000     0.0000E+00    0.0000E+00    1.434000E+09  0.00800  1.719E-04    0   0.5853   age139_m52            0.0000     2.9387E-03    10.0362  -0.7032   111.5927
 30      0.0000     0.0000E+00    0.0000E+00    2.500000E+09  0.00800  7.872E-05    0   0.5600   age150_m52            0.0000     3.3414E-03    11.1058  -1.0000   109.8902
 31      0.0000     0.0000E+00    0.0000E+00    4.250000E+09  0.00800  4.336E-05    0   0.5426   age158_m52            0.0000     3.4228E-03    10.9779  -1.0000   108.5906
 32      0.0000     0.0000E+00    0.0000E+00    6.250000E+09  0.00800  3.159E-05    0   0.5319   age166_m52            0.0000     4.3902E-03    10.2349  -1.0000   105.4444
 33      0.0000     0.0000E+00    0.0000E+00    1.300000E+10  0.00800  1.361E-05    0   0.5073   age193_m52            0.0000     7.9062E-03    16.6673  -1.0000    94.9386
 34      1.1121     7.5208E+00    7.2888E+00    1.800000E+10  0.00800  9.886E-06    0   0.4990   age213_m52            0.0000     9.8474E-03    19.1813  -1.0000    91.9567
 35      0.0000     0.0000E+00    0.0000E+00    1.000000E+06  0.02000  1.544E-02    0   1.0000   age020_m62            0.0000     1.4056E-03     7.5525   2.6328    89.7913
 36      0.0000     0.0000E+00    0.0000E+00    3.160000E+06  0.02000  3.762E-02    0   0.9858   age045_m62            0.0000     1.4544E-03     7.6201   2.5698    90.6268
 37      0.0000     0.0000E+00    0.0000E+00    5.010000E+06  0.02000  3.296E-02    0   0.9342   age055_m62            0.0000     1.5124E-03     7.6869   2.1455    95.6347
 38      0.5659     3.2787E-03    5.6425E-03    8.710000E+06  0.02000  1.154E-02    0   0.8861   age067_m62            0.0000     1.3822E-03     4.6558   1.3480    94.9324
 39      0.0000     0.0000E+00    0.0000E+00    1.445000E+07  0.02000  7.663E-03    0   0.8472   age078_m62            0.0000     1.2287E-03     4.4586   1.4510    97.3685
 40      0.0000     0.0000E+00    0.0000E+00    2.512000E+07  0.02000  4.532E-03    0   0.8099   age090_m62            0.0000     1.3196E-03     4.4829   1.4457    96.9588
 41      0.0000     0.0000E+00    0.0000E+00    5.500000E+07  0.02000  2.733E-03    0   0.7595   age110_m62            0.0000     1.5666E-03     5.6718   1.3858    99.2429
 42      0.0687     3.3573E-03    4.5546E-03    1.609000E+08  0.02000  1.369E-03    0   0.6985   age120_m62            0.0000     2.4558E-03     7.2803   1.1583   103.9429
 43      0.0000     0.0000E+00    0.0000E+00    2.861200E+08  0.02000  9.013E-04    0   0.6714   age125_m62            0.0000     3.2831E-03     8.3845   0.8632   108.2883
 44     15.5797     2.0716E+00    2.5948E+00    5.088000E+08  0.02000  5.028E-04    0   0.6449   age130_m62            0.0000     3.9820E-03    10.4897   0.4014   113.8532
 45      0.0000     0.0000E+00    0.0000E+00    9.047900E+08  0.02000  2.428E-04    0   0.6179   age135_m62            0.0000     3.6074E-03    11.0868  -0.2186   114.3546
 46      0.0000     0.0000E+00    0.0000E+00    1.434000E+09  0.02000  1.263E-04    0   0.5908   age139_m62            0.0000     3.4989E-03    11.2223  -0.6683   112.9201
 47      0.0000     0.0000E+00    0.0000E+00    2.500000E+09  0.02000  5.985E-05    0   0.5673   age150_m62            0.0000     4.0120E-03    11.5559  -1.0000   111.4382
 48      2.5704     5.2538E+00    5.5795E+00    4.250000E+09  0.02000  3.271E-05    0   0.5468   age158_m62            0.0000     5.7551E-03    11.6353  -1.0000   105.2093
 49      3.9558     1.9447E+01    1.9515E+01    1.000000E+10  0.02000  1.360E-05    0   0.5167   age181_m62            0.0000     9.7073E-03    17.3592  -1.0000    97.0280
 50      2.4566     2.3054E+01    2.2446E+01    1.800000E+10  0.02000  7.124E-06    0   0.5013   age213_m62            0.0000     1.3138E-02    21.7220  -1.0000    90.9056
 51     16.4648     4.2469E-02    8.2466E-02    1.000000E+06  0.05000  2.592E-02    0   0.9998   age020_m72            0.0000     1.4463E-03     7.5446   2.6305    89.6484
 52      0.0000     0.0000E+00    0.0000E+00    3.160000E+06  0.05000  4.845E-02    0   0.9577   age045_m72            0.0000     1.4783E-03     7.7424   2.4309    92.4058
 53      0.0000     0.0000E+00    0.0000E+00    5.010000E+06  0.05000  3.072E-02    0   0.9147   age055_m72            0.0000     1.3511E-03     5.7820   2.0111    94.4188
 54      0.0000     0.0000E+00    0.0000E+00    6.610000E+06  0.05000  1.455E-02    0   0.8877   age061_m72            0.0000     1.7910E-03     7.3369   1.4219    94.2895
 55      0.0383     2.8237E-04    4.6746E-04    1.000000E+07  0.05000  9.074E-03    0   0.8524   age070_m72            0.0000     1.4485E-03     6.7931   2.1847    94.1491
 56      0.0000     0.0000E+00    0.0000E+00    2.512000E+07  0.05000  4.250E-03    0   0.7902   age090_m72            0.0000     1.5127E-03     6.1332   1.8691    96.4873
 57      0.0000     0.0000E+00    0.0000E+00    4.000000E+07  0.05000  3.087E-03    0   0.7618   age104_m72            0.0000     1.6210E-03     6.0000   1.6407    98.0794
 58      0.1267     4.9827E-03    6.8671E-03    1.015200E+08  0.05000  1.700E-03    0   0.7096   age116_m72            0.0000     2.2713E-03     6.7121   1.3237   102.7665
 59      0.0000     0.0000E+00    0.0000E+00    2.861200E+08  0.05000  7.384E-04    0   0.6633   age125_m72            0.0000     3.6991E-03     9.4887   0.6856   111.2306
 60      0.8703     1.5237E-01    1.8856E-01    5.088000E+08  0.05000  3.819E-04    0   0.6372   age130_m72            0.0000     3.7415E-03    10.9165   0.1240   115.3641
 61      0.0000     0.0000E+00    0.0000E+00    9.047900E+08  0.05000  1.676E-04    0   0.6110   age135_m72            0.0000     3.9791E-03    12.4549  -0.6338   115.4332
 62      0.0000     0.0000E+00    0.0000E+00    1.434000E+09  0.05000  8.837E-05    0   0.5874   age139_m72            0.0000     4.3701E-03    11.7550  -1.0000   113.3192
 63      0.0000     0.0000E+00    0.0000E+00    2.500000E+09  0.05000  4.233E-05    0   0.5598   age150_m72            0.0000     6.2138E-03    12.1524  -1.0000   106.3384
 64      3.2374     1.5083E+01    1.5377E+01    6.250000E+09  0.05000  1.435E-05    0   0.5249   age166_m72            0.0000     1.0790E-02    19.3995  -1.0000    94.3082
 65      2.2428     2.3023E+01    2.2518E+01    1.300000E+10  0.05000  6.513E-06    0   0.5036   age193_m72            0.0000     1.5650E-02    24.7992  -1.0000    87.5322
 66      0.2784     4.1115E+00    3.9488E+00    1.800000E+10  0.05000  4.527E-06    0   0.4945   age213_m72            0.0000     1.8765E-02    27.5347  -1.0000    82.6994


## Synthesis Results - Average & Chains ##

# j      x_j: min, <> & last-chain-values for 1 ...  7 chains
  1     25.7325      0.2659      2.3855      0.7393      0.0000      0.4148      0.0300      0.9429      0.3986
  2     15.5204      0.3500      0.9411      0.0000      0.0000      0.2954      0.4024      1.1164      0.4785
  3      0.0000      0.6398      1.6130      2.3531      1.8479      0.9877      0.8054      1.6093      0.2699
  4      0.0000      1.3659      1.2246      0.3273      2.2095      1.4998      0.9442      1.2742      0.9474
  5      0.0000      0.2897      0.5258      1.0477      0.9165      0.2327      0.0000      0.0000      0.4443
  6      0.0000      0.2461      0.2452      0.1065      2.6439      0.0015      0.5614      0.2488      0.8190
  7      0.0000      0.1919      0.0000      0.3062      0.0000      0.1971      0.0000      0.0000      0.5234
  8      0.0000      0.3242      1.1781      1.3623      2.6980      0.6616      0.0094      0.3109      0.4285
  9      0.0000      0.1967      0.9652      0.6103      0.4115      0.8360      0.5625      0.0000      0.0497
 10      0.0000      0.2823      0.5590      1.5492      0.0000      0.0966      1.0125      0.3007      0.0000
 11      0.0000      0.3059      1.3478      0.2552      0.2622      0.0000      0.1911      0.0000      0.0000
 12      0.0000      0.3119      1.0205      0.3215      0.0350      0.5601      0.5202      0.4100      0.0000
 13      0.0000      0.2297      1.2128      0.0000      2.3491      1.1982      0.4830      0.0000      0.0205
 14      0.0000      0.3454      0.1200      1.6279      0.2193      0.0000      0.1437      0.7619      0.0000
 15      0.0000      0.2792      0.6057      0.0000      0.0000      0.9385      0.0000      0.0000      1.1797
 16      0.0000      0.2374      0.5302      0.6928      1.5796      0.6295      0.2127      0.0000      0.4773
 17      0.0000      0.2212      0.4085      0.0000      0.0495      0.0490      0.9009      0.1794      1.6388
 18      8.1472      0.2736      0.0000      2.3514      0.0000      0.2353      0.0000      1.3970      3.9765
 19      0.3674      0.5930      1.0078      2.6971      0.1424      0.4672      0.4406      0.7960      1.1866
 20      0.0000      0.2426      1.2830      0.0000      0.0000      0.7838      0.6678      0.4660      1.0055
 21      0.0000     42.7118     24.8049     28.3128     25.6448     36.5529     37.5096     22.7044     33.4098
 22      0.0000      0.2699      0.3754      0.5991      1.9063      0.0000      0.7478      0.0000      0.3148
 23      0.0000      0.2824      0.2359      0.0000      2.0394      0.0000      0.1593      0.0000      0.8551
 24      0.0000      0.3585      0.4340      0.0000      0.6524      1.1885      0.8487      0.1659      0.7118
 25      0.0000      0.2853      0.3578      0.4012      0.0000      0.0000      0.0431      0.0000      1.4263
 26      0.0000      0.2171      0.7295      0.0000      0.5505      0.4298      1.2649      1.0793      0.0000
 27      0.0000      0.2590      0.0000      0.2872      0.0224      0.5197      0.0590      0.0663      0.3499
 28      0.0000      0.2213      2.7375      0.1712      0.2945      0.3301      0.3209      0.0000      1.7014
 29      0.0000      0.2348      0.0000      0.1582      0.9899      0.6777      0.2105      0.0000      0.1879
 30      0.0000      0.2254      1.4178      0.0000      0.9589      0.0000      0.7122      0.0000      0.1507
 31      0.0000      0.2151      0.0000      0.7193      0.7783      0.8181      0.0000      0.1363      0.9369
 32      0.0000      0.2432      0.5560      0.2089      0.6271      0.8765      1.0121      0.0000      0.0000
 33      0.0000      0.1814      0.8910      1.1628      0.0026      0.3039      0.1391      0.0000      0.0000
 34      1.1121      0.3154      0.0000      5.2706      0.6544      0.0000      0.2342      3.0953      0.0000
 35      0.0000      0.2718      0.9323      0.0929      0.4373      0.6909      0.0000      0.3375      0.4865
 36      0.0000      0.4020      2.9747      1.6076      0.4545      0.3666      2.4747      0.9580      0.0000
 37      0.0000      0.2558      0.0000      1.1310      0.1433      0.0000      0.6285      0.5979      0.5486
 38      0.5659      0.3593      0.5454      2.0085      1.5766      0.0736      1.2714      0.4726      0.3989
 39      0.0000      0.3229      0.7167      0.2166      0.2123      1.6482      0.0000      0.0000      0.0837
 40      0.0000      0.3118      0.4677      0.2592      0.2840      0.4918      0.0000      1.7703      0.0000
 41      0.0000      0.2667      1.5220      1.4320      0.0000      0.0000      1.5109      0.0000      1.2313
 42      0.0687      0.2537      0.0000      0.0347      0.0000      0.0000      0.2542      0.6448      0.3540
 43      0.0000      0.2362      1.3526      0.0610      0.9943      0.6432      0.5068      0.0000      0.0086
 44     15.5797      0.2549      0.7766      1.0075      1.3111      0.3044      0.4613      1.3942      0.1738
 45      0.0000      7.1199      4.0622      2.9454      2.8645      6.9228      6.7049      3.2088      7.7028
 46      0.0000      0.2930      0.0953      0.4363      0.6772      0.5727      0.0000      0.0000      0.9126
 47      0.0000      0.2940      0.5052      0.0000      0.4625      0.1780      0.2844      0.5544      1.1725
 48      2.5704      0.5532      0.0000      1.2256      0.3486      0.3411      0.5016      2.4837      0.0350
 49      3.9558      0.3442      1.7391      1.9280      2.4958      0.1279      0.1406      0.3725      0.0000
 50      2.4566      0.3690      2.2402      2.5487      0.0000      0.1323      0.2012      3.3186      0.1796
 51     16.4648      0.4372      0.1601      0.4528      1.8678      0.8901      1.9884      1.1064      1.2030
 52      0.0000      0.2840      1.4391      0.0000      0.5697      0.0000      1.0723      1.6957      0.0000
 53      0.0000      0.3374      0.3941      0.4463      3.5263      0.0154      0.2987      0.6528      3.6560
 54      0.0000      0.2163      0.0000      0.4108      0.1718      0.3881      0.4749      0.3905      0.5441
 55      0.0383      0.3858      0.9436      1.4040      0.1512      1.3245      1.2339      6.2421      0.8594
 56      0.0000      0.3070      0.6158      0.0000      0.8967      1.4754      0.2433      0.6123      0.0000
 57      0.0000      0.2210      0.0000      0.8709      0.4094      0.0000      0.3889      1.9846      0.0000
 58      0.1267      0.3399      0.5621      0.5727      1.1280      0.0000      1.6200      1.8348      0.0000
 59      0.0000      0.3322      0.0000      0.5874      0.9350      1.1980      0.4898      0.0415      0.0000
 60      0.8703     22.8930     17.8162     17.8756     16.4283     22.0482     14.8668     17.4261     17.5946
 61      0.0000     18.6760     16.2911     17.1099     17.0730     16.7821     17.9605     20.3411     17.1231
 62      0.0000      0.2878      1.4495      0.0384      0.4655      0.1526      0.0531      0.8341      2.3980
 63      0.0000      0.3140      0.0000      0.0000      0.0000      1.1357      0.8262      0.2475      0.0000
 64      3.2374      0.3487      1.8649      0.2078      1.2556      0.8064      1.3057      1.0419      0.0000
 65      2.2428      0.2522      0.1068      1.1888      2.2498      0.4740      0.0818      0.6881      0.0000
 66      0.2784      0.3153      1.4983      0.2023      0.4839      0.0000      1.7486      1.4284      0.3726

# j      m_j: min, <> & last-chain-values for 1 ...  7 chains
  1  3.0543E-01  7.9012E-03  3.1885E-02  7.8720E-03  0.0000E+00  1.2556E-02  5.7351E-04  1.0263E-02  1.2130E-02
  2  5.0290E-02  2.8392E-03  3.4340E-03  0.0000E+00  0.0000E+00  2.4411E-03  2.0973E-03  3.3174E-03  3.9753E-03
  3  0.0000E+00  7.7711E-03  8.8136E-03  1.0243E-02  1.1463E-02  1.2221E-02  6.2860E-03  7.1614E-03  3.3578E-03
  4  0.0000E+00  1.5624E-02  6.3015E-03  1.3418E-03  1.2907E-02  1.7476E-02  6.9397E-03  5.3394E-03  1.1099E-02
  5  0.0000E+00  6.3128E-03  5.1541E-03  8.1809E-03  1.0198E-02  5.1650E-03  0.0000E+00  0.0000E+00  9.9155E-03
  6  0.0000E+00  8.6957E-03  3.8980E-03  1.3487E-03  4.7720E-02  5.3103E-05  1.2749E-02  3.2208E-03  2.9644E-02
  7  0.0000E+00  9.7096E-03  0.0000E+00  5.5522E-03  0.0000E+00  1.0162E-02  0.0000E+00  0.0000E+00  2.7123E-02
  8  0.0000E+00  2.2673E-02  3.7064E-02  3.4143E-02  9.6362E-02  4.7130E-02  4.2343E-04  7.9643E-03  3.0691E-02
  9  0.0000E+00  1.5744E-02  3.4753E-02  1.7508E-02  1.6820E-02  6.8171E-02  2.8931E-02  0.0000E+00  4.0723E-03
 10  0.0000E+00  2.9685E-02  2.6440E-02  5.8377E-02  0.0000E+00  1.0342E-02  6.8403E-02  1.1584E-02  0.0000E+00
 11  0.0000E+00  6.0468E-02  1.1987E-01  1.8083E-02  2.6476E-02  0.0000E+00  2.4271E-02  0.0000E+00  0.0000E+00
 12  0.0000E+00  9.7802E-02  1.4397E-01  3.6132E-02  5.6123E-03  1.7892E-01  1.0483E-01  4.7105E-02  0.0000E+00
 13  0.0000E+00  2.0300E-01  4.8226E-01  0.0000E+00  1.0605E+00  1.0790E+00  2.7435E-01  0.0000E+00  1.8582E-02
 14  0.0000E+00  1.0240E+00  1.6005E-01  1.7296E+00  3.3203E-01  0.0000E+00  2.7380E-01  8.2754E-01  0.0000E+00
 15  0.0000E+00  1.3478E+00  1.3151E+00  0.0000E+00  0.0000E+00  4.6145E+00  0.0000E+00  0.0000E+00  5.8316E+00
 16  0.0000E+00  1.9373E+00  1.9465E+00  2.0261E+00  6.5837E+00  5.2330E+00  1.1153E+00  0.0000E+00  3.9893E+00
 17  0.0000E+00  2.3415E+00  1.9457E+00  0.0000E+00  2.6774E-01  5.2797E-01  6.1283E+00  6.9599E-01  1.7769E+01
 18  8.5453E-02  7.1825E-03  0.0000E+00  2.2126E-02  0.0000E+00  6.2944E-03  0.0000E+00  1.3438E-02  1.0693E-01
 19  1.5466E-03  6.2493E-03  4.7773E-03  1.0186E-02  7.6618E-04  5.0154E-03  2.9832E-03  3.0731E-03  1.2807E-02
 20  0.0000E+00  2.7909E-03  6.6397E-03  0.0000E+00  0.0000E+00  9.1853E-03  4.9363E-03  1.9640E-03  1.1848E-02
 21  0.0000E+00  5.9646E-01  1.5583E-01  1.4170E-01  1.8290E-01  5.2000E-01  3.3657E-01  1.1616E-01  4.7785E-01
 22  0.0000E+00  6.3731E-03  3.9883E-03  5.0704E-03  2.2989E-02  0.0000E+00  1.1347E-02  0.0000E+00  7.6134E-03
 23  0.0000E+00  9.0056E-03  3.3835E-03  0.0000E+00  3.3213E-02  0.0000E+00  3.2645E-03  0.0000E+00  2.7928E-02
 24  0.0000E+00  1.7006E-02  9.2622E-03  0.0000E+00  1.5807E-02  5.7440E-02  2.5871E-02  2.8838E-03  3.4587E-02
 25  0.0000E+00  1.8665E-02  1.0530E-02  9.4053E-03  0.0000E+00  0.0000E+00  1.8116E-03  0.0000E+00  9.5564E-02
 26  0.0000E+00  2.3733E-02  3.5882E-02  0.0000E+00  3.0742E-02  4.7876E-02  8.8874E-02  4.3235E-02  0.0000E+00
 27  0.0000E+00  5.6682E-02  0.0000E+00  2.2527E-02  2.5016E-03  1.1588E-01  8.2974E-03  5.3144E-03  7.8433E-02
 28  0.0000E+00  1.4055E-01  7.8220E-01  3.8971E-02  9.5538E-02  2.1358E-01  1.3098E-01  0.0000E+00  1.1069E+00
 29  0.0000E+00  2.5986E-01  0.0000E+00  6.2732E-02  5.5948E-01  7.6403E-01  1.4966E-01  0.0000E+00  2.1300E-01
 30  0.0000E+00  5.2120E-01  1.4748E+00  0.0000E+00  1.1324E+00  0.0000E+00  1.0581E+00  0.0000E+00  3.5684E-01
 31  0.0000E+00  8.7510E-01  0.0000E+00  1.0486E+00  1.6167E+00  3.3900E+00  0.0000E+00  2.0307E-01  3.9031E+00
 32  0.0000E+00  1.3311E+00  1.3690E+00  4.0969E-01  1.7526E+00  4.8868E+00  3.5591E+00  0.0000E+00  0.0000E+00
 33  0.0000E+00  2.1979E+00  4.8561E+00  5.0490E+00  1.6185E-02  3.7503E+00  1.0825E+00  0.0000E+00  0.0000E+00
 34  7.2888E+00  5.1743E+00  0.0000E+00  3.0990E+01  5.4831E+00  0.0000E+00  2.4689E+00  1.8605E+01  0.0000E+00
 35  0.0000E+00  5.7217E-03  8.8296E-03  7.0106E-04  4.7011E-03  1.4816E-02  0.0000E+00  2.6031E-03  1.0490E-02
 36  0.0000E+00  3.4237E-03  1.1398E-02  4.9072E-03  1.9770E-03  3.1807E-03  1.3544E-02  2.9895E-03  0.0000E+00
 37  0.0000E+00  2.3570E-03  0.0000E+00  3.7342E-03  6.7445E-04  0.0000E+00  3.7202E-03  2.0179E-03  5.1764E-03
 38  5.6425E-03  8.9681E-03  6.1231E-03  1.7965E-02  2.0096E-02  1.8710E-03  2.0390E-02  4.3216E-03  1.0196E-02
 39  0.0000E+00  1.1602E-02  1.1586E-02  2.7896E-03  3.8958E-03  6.0338E-02  0.0000E+00  0.0000E+00  3.0794E-03
 40  0.0000E+00  1.8111E-02  1.2220E-02  5.3950E-03  8.4259E-03  2.9101E-02  0.0000E+00  3.7674E-02  0.0000E+00
 41  0.0000E+00  2.4089E-02  6.1845E-02  4.6357E-02  0.0000E+00  0.0000E+00  8.7690E-02  0.0000E+00  1.1391E-01
 42  4.5546E-03  4.2068E-02  0.0000E+00  2.0614E-03  0.0000E+00  0.0000E+00  2.7087E-02  3.9179E-02  6.0124E-02
 43  0.0000E+00  5.7196E-02  1.4733E-01  5.2972E-03  1.2296E-01  1.5865E-01  7.8841E-02  0.0000E+00  2.1205E-03
 44  2.5948E+00  1.0625E-01  1.4565E-01  1.5053E-01  2.7916E-01  1.2926E-01  1.2356E-01  2.1294E-01  7.4221E-02
 45  0.0000E+00  5.8895E+00  1.5116E+00  8.7317E-01  1.2101E+00  5.8336E+00  3.5637E+00  9.7243E-01  6.5258E+00
 46  0.0000E+00  4.4546E-01  6.5212E-02  2.3774E-01  5.2582E-01  8.8708E-01  0.0000E+00  0.0000E+00  1.4211E+00
 47  0.0000E+00  9.0572E-01  7.0019E-01  0.0000E+00  7.2777E-01  5.5867E-01  5.6308E-01  6.2577E-01  3.7000E+00
 48  5.5795E+00  3.0056E+00  0.0000E+00  2.3866E+00  9.6727E-01  1.8881E+00  1.7511E+00  4.9441E+00  1.9468E-01
 49  1.9515E+01  4.2503E+00  9.6612E+00  8.5328E+00  1.5741E+01  1.6094E+00  1.1158E+00  1.6854E+00  0.0000E+00
 50  2.2446E+01  8.4386E+00  2.3050E+01  2.0892E+01  0.0000E+00  3.0823E+00  2.9568E+00  2.7808E+01  4.2080E+00
 51  8.2466E-02  5.4817E-03  9.0322E-04  2.0344E-03  1.1960E-02  1.1368E-02  1.6018E-02  5.0820E-03  1.5448E-02
 52  0.0000E+00  1.8249E-03  4.1595E-03  0.0000E+00  1.8694E-03  0.0000E+00  4.4268E-03  3.9913E-03  0.0000E+00
 53  0.0000E+00  3.2653E-03  1.7160E-03  1.5479E-03  1.7430E-02  1.5212E-04  1.8578E-03  2.3147E-03  3.6239E-02
 54  0.0000E+00  4.2885E-03  0.0000E+00  2.9194E-03  1.7398E-03  7.8412E-03  6.0518E-03  2.8370E-03  1.1052E-02
 55  4.6746E-04  1.1781E-02  1.2962E-02  1.5364E-02  2.3584E-03  4.1197E-02  2.4208E-02  6.9826E-02  2.6876E-02
 56  0.0000E+00  1.8555E-02  1.6742E-02  0.0000E+00  2.7676E-02  9.0834E-02  9.4468E-03  1.3557E-02  0.0000E+00
 57  0.0000E+00  1.7723E-02  0.0000E+00  2.5037E-02  1.6773E-02  0.0000E+00  2.0043E-02  5.8320E-02  0.0000E+00
 58  6.8671E-03  4.6119E-02  3.4305E-02  2.7847E-02  7.8160E-02  0.0000E+00  1.4122E-01  9.1198E-02  0.0000E+00
 59  0.0000E+00  9.7007E-02  0.0000E+00  6.1464E-02  1.3942E-01  3.5635E-01  9.1901E-02  4.4379E-03  0.0000E+00
 60  1.8856E-01  1.2415E+01  4.3466E+00  3.4743E+00  4.5502E+00  1.2181E+01  5.1806E+00  3.4623E+00  9.7729E+00
 61  0.0000E+00  2.2130E+01  8.6842E+00  7.2660E+00  1.0332E+01  2.0258E+01  1.3675E+01  8.8305E+00  2.0781E+01
 62  0.0000E+00  6.2187E-01  1.4088E+00  2.9747E-02  5.1368E-01  3.3598E-01  7.3673E-02  6.6020E-01  5.3063E+00
 63  0.0000E+00  1.3495E+00  0.0000E+00  0.0000E+00  0.0000E+00  4.9730E+00  2.2819E+00  3.8971E-01  0.0000E+00
 64  1.5377E+01  4.1454E+00  9.9747E+00  8.8543E-01  7.6240E+00  9.7673E+00  9.9749E+00  4.5383E+00  0.0000E+00
 65  2.2518E+01  6.3380E+00  1.2070E+00  1.0708E+01  2.8878E+01  1.2135E+01  1.3210E+00  6.3361E+00  0.0000E+00
 66  3.9488E+00  1.1196E+01  2.3931E+01  2.5736E+00  8.7749E+00  0.0000E+00  3.9892E+01  1.8581E+01  1.3548E+01

# AV, chi2 & Mass for <> & i_chain = 1 ...  7 solutions
AV       0.8241      0.2442      0.0734     -0.0409      0.1066      0.2109      0.2056      0.0392      0.2675
chi2 1.0281E-03  1.8109E-03  1.7131E-03  1.7586E-03  1.6803E-03  1.7924E-03  1.7017E-03  1.6338E-03  1.7382E-03
Mass 4.2861E-12  7.8586E-13  1.3888E-12  1.4952E-12  1.2791E-12  7.3768E-13  1.1611E-12  1.6287E-12  7.9165E-13
-108.19                                  [v0_min (km/s) before EX0s...]
 169.10                                  [vd_min (km/s) before EX0s...]


## Synthetic spectrum (Best Model) ##l_obs f_obs f_syn wei
 3478    [Nl_obs]
 3741.00    0.70337   0.84299    0.000
 3742.00    0.74234   0.83221    0.000
 3743.00    0.76268   0.81550    0.000
 3744.00    0.76704   0.79460    0.000
 3745.00    0.76209   0.77114    0.982
 3746.00    0.76940   0.74810    0.924
 3747.00    0.78294   0.73023    0.836
 3748.00    0.79491   0.72236    0.892
 3749.00    0.80619   0.72688    1.039
 3750.00    0.83614   0.74273    1.020
 3751.00    0.87315   0.76601    0.939
 3752.00    0.86772   0.79131    0.924
 3753.00    0.84868   0.81305    0.928
 3754.00    0.82816   0.82768    0.905
 3755.00    0.80723   0.83516    0.877
 3756.00    0.79136   0.83797    0.833
 3757.00    0.77661   0.83940    0.790
 3758.00    0.76188   0.84181    0.792
 3759.00    0.74715   0.84536    0.803
 3760.00    0.73980   0.84863    1.076
 3761.00    0.73344   0.84942    1.744
 3762.00    0.74229   0.84561    1.196
 3763.00    0.75256   0.83584    0.864
 3764.00    0.74620   0.82011    0.850
 3765.00    0.73887   0.79972    0.849
 3766.00    0.73493   0.77677    0.794
 3767.00    0.73100   0.75488    0.745
 3768.00    0.71894   0.73911    0.721
 3769.00    0.70614   0.73381    0.699
 3770.00    0.67517   0.74053    0.690
 3771.00    0.64380   0.75783    0.682
 3772.00    0.60707   0.78219    0.686
 3773.00    0.57262   0.80946    0.688
 3774.00    0.55812   0.83604    0.672
 3775.00    0.54779   0.85987    0.659
 3776.00    0.56446   0.88045    0.662
 3777.00    0.58557   0.89784    0.670
 3778.00    0.62910   0.91198    0.705
 3779.00    0.67370   0.92282    0.739
 3780.00    0.72264   0.93029    0.746
 3781.00    0.76586   0.93397    0.764
 3782.00    0.78962   0.93322    0.825
 3783.00    0.81442   0.92794    0.886
 3784.00    0.84219   0.91890    0.929
 3785.00    0.86344   0.90738    0.956
 3786.00    0.86879   0.89473    0.936
 3787.00    0.87063   0.88193    0.920
 3788.00    0.86507   0.86906    0.915
 3789.00    0.86069   0.85508    0.892
 3790.00    0.85849   0.83815    0.842
 3791.00    0.85559   0.81661    0.818
 3792.00    0.85159   0.78992    0.825
 3793.00    0.84310   0.75913    0.828
 3794.00    0.82829   0.72770    0.823
 3795.00    0.81264   0.70169    0.813
 3796.00    0.79596   0.68759    0.797
 3797.00    0.79244   0.68945    0.808
 3798.00    0.80324   0.70718    0.849
 3799.00    0.82288   0.73675    0.874
 3800.00    0.85101   0.77184    0.880
 3801.00    0.87376   0.80600    0.890
 3802.00    0.89194   0.83474    0.902
 3803.00    0.89537   0.85659    0.898
 3804.00    0.88777   0.87277    0.882
 3805.00    0.87843   0.88562    0.852
 3806.00    0.86793   0.89690    0.815
 3807.00    0.87023   0.90703    0.801
 3808.00    0.87988   0.91503    0.798
 3809.00    0.87659   0.91939    0.781
 3810.00    0.86684   0.91936    0.759
 3811.00    0.84778   0.91548    0.809
 3812.00    0.82471   0.90938    0.906
 3813.00    0.81303   0.90280    0.858
 3814.00    0.80559   0.89629    0.769
 3815.00    0.79062   0.88908    0.755
 3816.00    0.77328   0.88083    0.760
 3817.00    0.78855   0.87278    0.811
 3818.00    0.81239   0.86681    0.884
 3819.00    0.81943   0.86400    0.854
 3820.00    0.82288   0.86365    0.805
 3821.00    0.79122   0.86359    0.791
 3822.00    0.75360   0.86158    0.782
 3823.00    0.71693   0.85629    0.808
 3824.00    0.68039   0.84764    0.842
 3825.00    0.66061   0.83640    0.829
 3826.00    0.64233   0.82306    0.812
 3827.00    0.65557   0.80700    0.819
 3828.00    0.67051   0.78671    0.827
 3829.00    0.69967   0.76097    0.839
 3830.00    0.72899   0.73004    0.851
 3831.00    0.74691   0.69670    0.881
 3832.00    0.76521   0.66643    0.908
 3833.00    0.79170   0.64545    0.822
 3834.00    0.81521   0.63829    0.758
 3835.00    0.80161   0.64629    0.780
 3836.00    0.78979   0.66720    0.803
 3837.00    0.79305   0.69661    0.825
 3838.00    0.79811   0.72993    0.837
 3839.00    0.81440   0.76334    0.783
 3840.00    0.82609   0.79431    0.748
 3841.00    0.81511   0.82142    0.773
 3842.00    0.80897   0.84396    0.794
 3843.00    0.82222   0.86190    0.792
 3844.00    0.83451   0.87554    0.791
 3845.00    0.84357   0.88541    0.791
 3846.00    0.85092   0.89241    0.792
 3847.00    0.85345   0.89776    0.000
 3848.00    0.85815   0.90232    0.000
 3849.00    0.86804   0.90647    0.000
 3850.00    0.87497   0.91003    0.000
 3851.00    0.87572   0.91235    0.000
 3852.00    0.87904   0.91284    0.000
 3853.00    0.88699   0.91149    0.000
 3854.00    0.89143   0.90874    0.000
 3855.00    0.89034   0.90536    0.000
 3856.00    0.88264   0.90263    0.000
 3857.00    0.86577   0.90184    0.000
 3858.00    0.85256   0.90366    0.000
 3859.00    0.84381   0.90794    0.000
 3860.00    0.83241   0.91362    0.000
 3861.00    0.81815   0.91900    0.000
 3862.00    0.79435   0.92257    0.000
 3863.00    0.76153   0.92361    0.000
 3864.00    0.70729   0.92240    0.000
 3865.00    0.63517   0.91966    0.000
 3866.00    0.57298   0.91587    0.000
 3867.00    0.51808   0.91115    0.000
 3868.00    0.46755   0.90567    0.000
 3869.00    0.41984   0.90017    0.000
 3870.00    0.39896   0.89572    0.000
 3871.00    0.39326   0.89298    0.000
 3872.00    0.42685   0.89155    0.000
 3873.00    0.47976   0.88987    0.000
 3874.00    0.54229   0.88619    0.000
 3875.00    0.60890   0.87974    0.000
 3876.00    0.66330   0.87086    0.000
 3877.00    0.71324   0.86036    0.000
 3878.00    0.76004   0.84893    0.000
 3879.00    0.80588   0.83664    0.000
 3880.00    0.81517   0.82247    0.000
 3881.00    0.81509   0.80460    0.736
 3882.00    0.83429   0.78140    0.729
 3883.00    0.85751   0.75229    0.718
 3884.00    0.87108   0.71857    0.738
 3885.00    0.88305   0.68469    0.766
 3886.00    0.86688   0.65761    0.788
 3887.00    0.84723   0.64404    0.810
 3888.00    0.85908   0.64775    0.794
 3889.00    0.87363   0.66796    0.775
 3890.00    0.87636   0.69955    0.781
 3891.00    0.87851   0.73546    0.788
 3892.00    0.87546   0.76977    0.758
 3893.00    0.87218   0.79912    0.730
 3894.00    0.85876   0.82257    0.768
 3895.00    0.84503   0.84084    0.806
 3896.00    0.82484   0.85532    0.749
 3897.00    0.80371   0.86718    0.699
 3898.00    0.77136   0.87707    0.659
 3899.00    0.73677   0.88538    0.626
 3900.00    0.68399   0.89216    0.610
 3901.00    0.63125   0.89732    0.593
 3902.00    0.57879   0.90138    0.567
 3903.00    0.52862   0.90549    0.543
 3904.00    0.48952   0.91081    0.516
 3905.00    0.45921   0.91796    0.498
 3906.00    0.46337   0.92668    0.510
 3907.00    0.48108   0.93582    0.524
 3908.00    0.54302   0.94379    0.548
 3909.00    0.60790   0.94949    0.573
 3910.00    0.68090   0.95261    0.598
 3911.00    0.74589   0.95343    0.619
 3912.00    0.79195   0.95244    0.630
 3913.00    0.82459   0.95007    0.643
 3914.00    0.82982   0.94638    0.659
 3915.00    0.84391   0.94117    0.678
 3916.00    0.87375   0.93446    0.704
 3917.00    0.90342   0.92677    0.724
 3918.00    0.93281   0.91896    0.732
 3919.00    0.94486   0.91204    0.738
 3920.00    0.93326   0.90669    0.742
 3921.00    0.93296   0.90279    0.746
 3922.00    0.94622   0.89953    0.751
 3923.00    0.94839   0.89585    0.744
 3924.00    0.93882   0.89079    0.724
 3925.00    0.92641   0.88375    0.725
 3926.00    0.91135   0.87444    0.745
 3927.00    0.92233   0.86267    0.754
 3928.00    0.95477   0.84839    0.753
 3929.00    0.95367   0.83234    0.776
 3930.00    0.92826   0.81658    0.820
 3931.00    0.89363   0.80433    0.847
 3932.00    0.85313   0.79891    0.861
 3933.00    0.85905   0.80235    0.851
 3934.00    0.89081   0.81427    0.829
 3935.00    0.91217   0.83194    0.837
 3936.00    0.92849   0.85148    0.860
 3937.00    0.93880   0.86932    0.845
 3938.00    0.94660   0.88320    0.816
 3939.00    0.94724   0.89243    0.795
 3940.00    0.94532   0.89780    0.775
 3941.00    0.92931   0.90094    0.768
 3942.00    0.90904   0.90344    0.764
 3943.00    0.90724   0.90634    0.749
 3944.00    0.91007   0.90991    0.731
 3945.00    0.94141   0.91370    0.755
 3946.00    0.97856   0.91704    0.789
 3947.00    1.01059   0.91944    0.769
 3948.00    1.04182   0.92078    0.743
 3949.00    1.03870   0.92108    0.751
 3950.00    1.03149   0.92020    0.763
 3951.00    1.01547   0.91798    0.773
 3952.00    0.99873   0.91437    0.782
 3953.00    0.99661   0.90932    0.767
 3954.00    0.99517   0.90276    0.751
 3955.00    0.99411   0.89445    0.757
 3956.00    0.99319   0.88390    0.763
 3957.00    0.99915   0.87052    0.745
 3958.00    1.00457   0.85369    0.728
 3959.00    0.99989   0.83326    0.737
 3960.00    0.99350   0.80968    0.000
 3961.00    0.96791   0.78345    0.000
 3962.00    0.94466   0.75438    0.000
 3963.00    0.93978   0.72173    0.000
 3964.00    0.93285   0.68526    0.000
 3965.00    0.91370   0.64663    0.000
 3966.00    0.89672   0.61020    0.000
 3967.00    0.88996   0.58223    0.000
 3968.00    0.88713   0.56895    0.000
 3969.00    0.89940   0.57404    0.000
 3970.00    0.91441   0.59690    0.000
 3971.00    0.93821   0.63286    0.000
 3972.00    0.97134   0.67534    0.000
 3973.00    1.02976   0.71830    0.000
 3974.00    1.06559   0.75779    0.000
 3975.00    1.04900   0.79204    0.000
 3976.00    1.02803   0.82072    0.000
 3977.00    0.99829   0.84407    0.000
 3978.00    0.98157   0.86249    0.000
 3979.00    0.98764   0.87651    0.000
 3980.00    0.99127   0.88709    0.000
 3981.00    0.99116   0.89553    0.687
 3982.00    1.00377   0.90316    0.689
 3983.00    1.03349   0.91083    0.712
 3984.00    1.04003   0.91866    0.726
 3985.00    1.01914   0.92629    0.727
 3986.00    1.01475   0.93327    0.726
 3987.00    1.02759   0.93928    0.724
 3988.00    1.03876   0.94430    0.704
 3989.00    1.04837   0.94845    0.670
 3990.00    1.05803   0.95173    0.654
 3991.00    1.06773   0.95385    0.651
 3992.00    1.06006   0.95448    0.650
 3993.00    1.03998   0.95380    0.651
 3994.00    1.02102   0.95266    0.651
 3995.00    1.00277   0.95233    0.650
 3996.00    1.00699   0.95386    0.654
 3997.00    1.02352   0.95749    0.663
 3998.00    1.03110   0.96222    0.664
 3999.00    1.03441   0.96621    0.662
 4000.00    1.04270   0.96768    0.663
 4001.00    1.05304   0.96588    0.665
 4002.00    1.06814   0.96143    0.657
 4003.00    1.08491   0.95613    0.646
 4004.00    1.08090   0.95220    0.650
 4005.00    1.07073   0.95119    0.659
 4006.00    1.04767   0.95328    0.655
 4007.00    1.02144   0.95746    0.647
 4008.00    1.02228   0.96242    0.650
 4009.00    1.02850   0.96720    0.655
 4010.00    1.03655   0.97142    0.650
 4011.00    1.04487   0.97498    0.644
 4012.00    1.01932   0.97791    0.642
 4013.00    0.98987   0.98024    0.640
 4014.00    0.98906   0.98194    0.667
 4015.00    0.99046   0.98300    0.699
 4016.00    1.00000   0.98334    0.684
 4017.00    1.00988   0.98259    0.668
 4018.00    1.01797   0.97989    0.662
 4019.00    1.02663   0.97425    0.656
 4020.00    1.06078   0.96522    0.684
 4021.00    1.09201   0.95347    0.712
 4022.00    1.07162   0.94105    0.685
 4023.00    1.05251   0.93083    0.662
 4024.00    1.04706   0.92535    0.652
 4025.00    1.04053   0.92538    0.645
 4026.00    1.02577   0.92932    0.650
 4027.00    1.01061   0.93409    0.657
 4028.00    0.99306   0.93711    0.675
 4029.00    0.97597   0.93786    0.688
 4030.00    0.96095   0.93785    0.673
 4031.00    0.94032   0.93938    0.663
 4032.00    0.89863   0.94414    0.667
 4033.00    0.85802   0.95240    0.661
 4034.00    0.82080   0.96287    0.627
 4035.00    0.79419   0.97336    0.600
 4036.00    0.79575   0.98164    0.582
 4037.00    0.80917   0.98620    0.574
 4038.00    0.84963   0.98655    0.584
 4039.00    0.88735   0.98290    0.597
 4040.00    0.91966   0.97578    0.614
 4041.00    0.94233   0.96603    0.631
 4042.00    0.94841   0.95525    0.649
 4043.00    0.95026   0.94607    0.663
 4044.00    0.94574   0.94139    0.674
 4045.00    0.95374   0.94278    0.675
 4046.00    0.97835   0.94949    0.665
 4047.00    1.00167   0.95871    0.655
 4048.00    1.02348   0.96705    0.643
 4049.00    1.03109   0.97206    0.636
 4050.00    1.02407   0.97290    0.633
 4051.00    1.01314   0.97020    0.638
 4052.00    0.99864   0.96535    0.651
 4053.00    0.99476   0.95998    0.654
 4054.00    0.99938   0.95536    0.648
 4055.00    1.00809   0.95220    0.646
 4056.00    1.01970   0.95053    0.648
 4057.00    1.03120   0.94963    0.652
 4058.00    1.04264   0.94826    0.657
 4059.00    1.04120   0.94526    0.656
 4060.00    1.03281   0.94036    0.653
 4061.00    1.01502   0.93461    0.650
 4062.00    0.99283   0.92983    0.648
 4063.00    0.98807   0.92729    0.651
 4064.00    0.99036   0.92698    0.657
 4065.00    0.99286   0.92776    0.647
 4066.00    0.99545   0.92832    0.633
 4067.00    0.99843   0.92791    0.631
 4068.00    1.00153   0.92665    0.631
 4069.00    1.01064   0.92526    0.648
 4070.00    1.02120   0.92443    0.671
 4071.00    1.02311   0.92414    0.664
 4072.00    1.02334   0.92348    0.652
 4073.00    1.01310   0.92154    0.641
 4074.00    1.00128   0.91847    0.630
 4075.00    0.99648   0.91586    0.635
 4076.00    0.99245   0.91576    0.641
 4077.00    0.98649   0.91912    0.634
 4078.00    0.98039   0.92495    0.625
 4079.00    0.99804   0.93086    0.629
 4080.00    1.01659   0.93450    0.633
 4081.00    1.02521   0.93489    0.641
 4082.00    1.03322   0.93268    0.648
 4083.00    1.02031   0.92944    0.630
 4084.00    1.00743   0.92647    0.614
 4085.00    0.99508   0.92412    0.612
 4086.00    0.98347   0.92181    0.611
 4087.00    0.97952   0.91858    0.616
 4088.00    0.97738   0.91360    0.620
 4089.00    0.98851   0.90632    0.619
 4090.00    1.00066   0.89628    0.620
 4091.00    1.01849   0.88292    0.627
 4092.00    1.03373   0.86557    0.000
 4093.00    1.03740   0.84367    0.000
 4094.00    1.04085   0.81704    0.000
 4095.00    1.04351   0.78600    0.000
 4096.00    1.04073   0.75155    0.000
 4097.00    1.02120   0.71586    0.000
 4098.00    1.00825   0.68287    0.000
 4099.00    1.01249   0.65819    0.000
 4100.00    1.01226   0.64745    0.000
 4101.00    1.00202   0.65375    0.000
 4102.00    0.99557   0.67589    0.000
 4103.00    0.99650   0.70862    0.000
 4104.00    0.99586   0.74488    0.000
 4105.00    0.99252   0.77859    0.000
 4106.00    0.97912   0.80639    0.000
 4107.00    0.95076   0.82772    0.000
 4108.00    0.94363   0.84391    0.000
 4109.00    0.96423   0.85691    0.000
 4110.00    0.98065   0.86827    0.000
 4111.00    0.99226   0.87860    0.000
 4112.00    0.99432   0.88769    0.000
 4113.00    0.98669   0.89496    0.612
 4114.00    0.98380   0.89990    0.607
 4115.00    0.98517   0.90249    0.588
 4116.00    0.98477   0.90329    0.588
 4117.00    0.98298   0.90335    0.601
 4118.00    0.97061   0.90390    0.610
 4119.00    0.95092   0.90587    0.615
 4120.00    0.95110   0.90959    0.625
 4121.00    0.96338   0.91458    0.639
 4122.00    0.97097   0.91977    0.643
 4123.00    0.97607   0.92390    0.641
 4124.00    0.97280   0.92596    0.636
 4125.00    0.96567   0.92560    0.632
 4126.00    0.95580   0.92311    0.608
 4127.00    0.94485   0.91920    0.580
 4128.00    0.94300   0.91478    0.578
 4129.00    0.94422   0.91087    0.584
 4130.00    0.95725   0.90861    0.589
 4131.00    0.97363   0.90907    0.593
 4132.00    0.96798   0.91274    0.587
 4133.00    0.95715   0.91914    0.579
 4134.00    0.94897   0.92686    0.579
 4135.00    0.94129   0.93397    0.580
 4136.00    0.93297   0.93868    0.577
 4137.00    0.92456   0.93957    0.574
 4138.00    0.92983   0.93595    0.581
 4139.00    0.93655   0.92817    0.590
 4140.00    0.95632   0.91803    0.597
 4141.00    0.97700   0.90857    0.605
 4142.00    0.96589   0.90288    0.600
 4143.00    0.95369   0.90261    0.594
 4144.00    0.96105   0.90700    0.594
 4145.00    0.96783   0.91351    0.594
 4146.00    0.95454   0.91936    0.589
 4147.00    0.94266   0.92284    0.586
 4148.00    0.95272   0.92374    0.594
 4149.00    0.96027   0.92279    0.602
 4150.00    0.94304   0.92092    0.599
 4151.00    0.92846   0.91886    0.596
 4152.00    0.93275   0.91723    0.588
 4153.00    0.93861   0.91662    0.583
 4154.00    0.95308   0.91756    0.592
 4155.00    0.96150   0.92031    0.599
 4156.00    0.94345   0.92464    0.591
 4157.00    0.92534   0.92982    0.585
 4158.00    0.90696   0.93493    0.582
 4159.00    0.89670   0.93911    0.579
 4160.00    0.91093   0.94183    0.579
 4161.00    0.92419   0.94282    0.580
 4162.00    0.93494   0.94210    0.587
 4163.00    0.94938   0.93996    0.590
 4164.00    0.97199   0.93693    0.581
 4165.00    0.98420   0.93358    0.578
 4166.00    0.97652   0.93022    0.585
 4167.00    0.96855   0.92662    0.589
 4168.00    0.96009   0.92227    0.585
 4169.00    0.94660   0.91693    0.582
 4170.00    0.92575   0.91115    0.581
 4171.00    0.91300   0.90615    0.582
 4172.00    0.91070   0.90304    0.585
 4173.00    0.91161   0.90219    0.587
 4174.00    0.91614   0.90310    0.587
 4175.00    0.92373   0.90494    0.587
 4176.00    0.93438   0.90711    0.587
 4177.00    0.93461   0.90940    0.581
 4178.00    0.92563   0.91175    0.568
 4179.00    0.91835   0.91413    0.564
 4180.00    0.91238   0.91641    0.566
 4181.00    0.92119   0.91836    0.574
 4182.00    0.94011   0.91962    0.586
 4183.00    0.93018   0.91985    0.584
 4184.00    0.90296   0.91905    0.574
 4185.00    0.90884   0.91784    0.578
 4186.00    0.93202   0.91724    0.591
 4187.00    0.93878   0.91805    0.580
 4188.00    0.93808   0.92030    0.560
 4189.00    0.93012   0.92319    0.549
 4190.00    0.91933   0.92533    0.541
 4191.00    0.90909   0.92522    0.542
 4192.00    0.89904   0.92164    0.546
 4193.00    0.89253   0.91417    0.550
 4194.00    0.88702   0.90342    0.556
 4195.00    0.89676   0.89111    0.560
 4196.00    0.91000   0.87954    0.564
 4197.00    0.90540   0.87099    0.560
 4198.00    0.89752   0.86706    0.555
 4199.00    0.89674   0.86833    0.557
 4200.00    0.89695   0.87429    0.560
 4201.00    0.90347   0.88369    0.555
 4202.00    0.91063   0.89488    0.549
 4203.00    0.90792   0.90624    0.548
 4204.00    0.90457   0.91637    0.547
 4205.00    0.89920   0.92432    0.538
 4206.00    0.89381   0.92965    0.528
 4207.00    0.91621   0.93244    0.539
 4208.00    0.93751   0.93308    0.551
 4209.00    0.92630   0.93204    0.549
 4210.00    0.91573   0.92965    0.547
 4211.00    0.91445   0.92634    0.542
 4212.00    0.91531   0.92292    0.537
 4213.00    0.93645   0.92078    0.538
 4214.00    0.95121   0.92133    0.539
 4215.00    0.92216   0.92510    0.534
 4216.00    0.89404   0.93112    0.528
 4217.00    0.87083   0.93716    0.523
 4218.00    0.85209   0.94053    0.518
 4219.00    0.85247   0.93911    0.517
 4220.00    0.85283   0.93192    0.516
 4221.00    0.85313   0.91946    0.517
 4222.00    0.85117   0.90375    0.519
 4223.00    0.84255   0.88820    0.524
 4224.00    0.83363   0.87683    0.530
 4225.00    0.82397   0.87281    0.535
 4226.00    0.81968   0.87708    0.538
 4227.00    0.82708   0.88762    0.537
 4228.00    0.82697   0.90035    0.531
 4229.00    0.81274   0.91099    0.516
 4230.00    0.78903   0.91697    0.502
 4231.00    0.74971   0.91811    0.490
 4232.00    0.73313   0.91607    0.482
 4233.00    0.74940   0.91310    0.481
 4234.00    0.77271   0.91104    0.483
 4235.00    0.80495   0.91087    0.488
 4236.00    0.81414   0.91280    0.488
 4237.00    0.79752   0.91660    0.482
 4238.00    0.78566   0.92177    0.475
 4239.00    0.77849   0.92766    0.466
 4240.00    0.78683   0.93350    0.466
 4241.00    0.80866   0.93827    0.474
 4242.00    0.82611   0.94089    0.486
 4243.00    0.84019   0.94041    0.502
 4244.00    0.85094   0.93652    0.511
 4245.00    0.85946   0.92978    0.515
 4246.00    0.86863   0.92164    0.514
 4247.00    0.87817   0.91388    0.510
 4248.00    0.90345   0.90794    0.515
 4249.00    0.93683   0.90453    0.526
 4250.00    0.93526   0.90349    0.536
 4251.00    0.91809   0.90420    0.547
 4252.00    0.91093   0.90599    0.545
 4253.00    0.90761   0.90828    0.538
 4254.00    0.88349   0.91034    0.529
 4255.00    0.85260   0.91132    0.520
 4256.00    0.83866   0.91070    0.513
 4257.00    0.82934   0.90900    0.506
 4258.00    0.84598   0.90790    0.511
 4259.00    0.86845   0.90940    0.519
 4260.00    0.88262   0.91444    0.529
 4261.00    0.89530   0.92215    0.540
 4262.00    0.88507   0.93011    0.534
 4263.00    0.87169   0.93551    0.527
 4264.00    0.86853   0.93631    0.524
 4265.00    0.86636   0.93182    0.521
 4266.00    0.83763   0.92259    0.517
 4267.00    0.80727   0.91010    0.512
 4268.00    0.75571   0.89646    0.501
 4269.00    0.70375   0.88410    0.490
 4270.00    0.68715   0.87534    0.488
 4271.00    0.67209   0.87176    0.487
 4272.00    0.69791   0.87383    0.489
 4273.00    0.72434   0.88069    0.492
 4274.00    0.75918   0.89048    0.505
 4275.00    0.79370   0.90073    0.517
 4276.00    0.82528   0.90912    0.514
 4277.00    0.85658   0.91417    0.512
 4278.00    0.88607   0.91567    0.515
 4279.00    0.90696   0.91454    0.517
 4280.00    0.88336   0.91207    0.510
 4281.00    0.86441   0.90919    0.506
 4282.00    0.86482   0.90612   -2.000
 4283.00    0.86473   0.90251   -2.000
 4284.00    0.86291   0.89789   -2.000
 4285.00    0.86233   0.89212   -2.000
 4286.00    0.86535   0.88571   -2.000
 4287.00    0.87408   0.87991   -2.000
 4288.00    0.89696   0.87620   -2.000
 4289.00    0.91570   0.87551   -2.000
 4290.00    0.92559   0.87749   -2.000
 4291.00    0.93161   0.88055   -2.000
 4292.00    0.93045   0.88256   -2.000
 4293.00    0.92558   0.88179   -2.000
 4294.00    0.91471   0.87742   -2.000
 4295.00    0.90189   0.86962   -2.000
 4296.00    0.88631   0.85950   -2.000
 4297.00    0.87304   0.84881   -2.000
 4298.00    0.86265   0.83946    0.535
 4299.00    0.84848   0.83287    0.528
 4300.00    0.83012   0.82935    0.513
 4301.00    0.82864   0.82809    0.510
 4302.00    0.84356   0.82761    0.517
 4303.00    0.84853   0.82658    0.521
 4304.00    0.84495   0.82448    0.523
 4305.00    0.84267   0.82193    0.525
 4306.00    0.84138   0.82040    0.529
 4307.00    0.85065   0.82148    0.531
 4308.00    0.86695   0.82610    0.531
 4309.00    0.86776   0.83425    0.520
 4310.00    0.85957   0.84525    0.503
 4311.00    0.85572   0.85836    0.492
 4312.00    0.85407   0.87294    0.484
 4313.00    0.86967   0.88817    0.484
 4314.00    0.89283   0.90266    0.487
 4315.00    0.89835   0.91444    0.489
 4316.00    0.89721   0.92155    0.491
 4317.00    0.89638   0.92277    0.496
 4318.00    0.89565   0.91787    0.502
 4319.00    0.89955   0.90752    0.505
 4320.00    0.90468   0.89301    0.508
 4321.00    0.90451   0.87632    0.502
 4322.00    0.90317   0.86026    0.494
 4323.00    0.89003   0.84805    0.491
 4324.00    0.87483   0.84220    0.489
 4325.00    0.88241   0.84321    0.494
 4326.00    0.89300   0.84911    0.500
 4327.00    0.89388   0.85636    0.491
 4328.00    0.89385   0.86154    0.481
 4329.00    0.88815   0.86247    0.477
 4330.00    0.88214   0.85830    0.000
 4331.00    0.90285   0.84860    0.000
 4332.00    0.92413   0.83256    0.000
 4333.00    0.93934   0.80908    0.000
 4334.00    0.95316   0.77781    0.000
 4335.00    0.93355   0.74050    0.000
 4336.00    0.91407   0.70168    0.000
 4337.00    0.89637   0.66806    0.000
 4338.00    0.88161   0.64654    0.000
 4339.00    0.89257   0.64168    0.000
 4340.00    0.90296   0.65395    0.000
 4341.00    0.90959   0.67976    0.000
 4342.00    0.91457   0.71310    0.000
 4343.00    0.91124   0.74784    0.000
 4344.00    0.90609   0.77943    0.000
 4345.00    0.89349   0.80521    0.000
 4346.00    0.88390   0.82406    0.000
 4347.00    0.88447   0.83600    0.000
 4348.00    0.89078   0.84212    0.000
 4349.00    0.91346   0.84472    0.000
 4350.00    0.92936   0.84677    0.000
 4351.00    0.92874   0.85086    0.492
 4352.00    0.92202   0.85807    0.497
 4353.00    0.90250   0.86768    0.491
 4354.00    0.88974   0.87789    0.492
 4355.00    0.88932   0.88704    0.502
 4356.00    0.89743   0.89447    0.512
 4357.00    0.91914   0.90063    0.520
 4358.00    0.93624   0.90650    0.522
 4359.00    0.94689   0.91277    0.516
 4360.00    0.94897   0.91934    0.508
 4361.00    0.94047   0.92536    0.500
 4362.00    0.94100   0.92965    0.488
 4363.00    0.95136   0.93128    0.475
 4364.00    0.95132   0.93005    0.470
 4365.00    0.94130   0.92662    0.474
 4366.00    0.93378   0.92222    0.474
 4367.00    0.92837   0.91798    0.472
 4368.00    0.92022   0.91435    0.472
 4369.00    0.91001   0.91101    0.473
 4370.00    0.90731   0.90739    0.474
 4371.00    0.90953   0.90351    0.475
 4372.00    0.90985   0.90022    0.475
 4373.00    0.90910   0.89884    0.474
 4374.00    0.90887   0.90009    0.476
 4375.00    0.90890   0.90323    0.481
 4376.00    0.90540   0.90606    0.480
 4377.00    0.90038   0.90578    0.476
 4378.00    0.90350   0.90032    0.479
 4379.00    0.90965   0.88942    0.486
 4380.00    0.90349   0.87498    0.486
 4381.00    0.89349   0.86055    0.485
 4382.00    0.86863   0.84988    0.481
 4383.00    0.83990   0.84541    0.476
 4384.00    0.85459   0.84729    0.473
 4385.00    0.87855   0.85373    0.470
 4386.00    0.87956   0.86228    0.464
 4387.00    0.87668   0.87105    0.458
 4388.00    0.88347   0.87912    0.461
 4389.00    0.89150   0.88627    0.464
 4390.00    0.89895   0.89254    0.472
 4391.00    0.90634   0.89810    0.481
 4392.00    0.90134   0.90322    0.474
 4393.00    0.89567   0.90818    0.467
 4394.00    0.92070   0.91289    0.473
 4395.00    0.94581   0.91667    0.480
 4396.00    0.92828   0.91853    0.473
 4397.00    0.91228   0.91775    0.467
 4398.00    0.92984   0.91431    0.468
 4399.00    0.94486   0.90876    0.469
 4400.00    0.92855   0.90188    0.475
 4401.00    0.91217   0.89454    0.479
 4402.00    0.89514   0.88790    0.476
 4403.00    0.88474   0.88346    0.474
 4404.00    0.91589   0.88259    0.480
 4405.00    0.94130   0.88593    0.484
 4406.00    0.93844   0.89308    0.481
 4407.00    0.93314   0.90256    0.475
 4408.00    0.91810   0.91225    0.461
 4409.00    0.90525   0.91981    0.453
 4410.00    0.89960   0.92337    0.462
 4411.00    0.89569   0.92238    0.468
 4412.00    0.89666   0.91799    0.464
 4413.00    0.89878   0.91283    0.461
 4414.00    0.90365   0.90974    0.459
 4415.00    0.91446   0.91041    0.458
 4416.00    0.93760   0.91449    0.462
 4417.00    0.94915   0.92003    0.465
 4418.00    0.93983   0.92463    0.463
 4419.00    0.93651   0.92682    0.463
 4420.00    0.94263   0.92657    0.464
 4421.00    0.94175   0.92498    0.463
 4422.00    0.93119   0.92337    0.459
 4423.00    0.92743   0.92251    0.456
 4424.00    0.93194   0.92243    0.456
 4425.00    0.93502   0.92267    0.458
 4426.00    0.93657   0.92265    0.460
 4427.00    0.93800   0.92192    0.461
 4428.00    0.93931   0.92028    0.462
 4429.00    0.94110   0.91765    0.463
 4430.00    0.94329   0.91421    0.465
 4431.00    0.93631   0.91048    0.465
 4432.00    0.92259   0.90751    0.465
 4433.00    0.91408   0.90661    0.464
 4434.00    0.90893   0.90862    0.464
 4435.00    0.91874   0.91318    0.466
 4436.00    0.93699   0.91860    0.468
 4437.00    0.92674   0.92256    0.464
 4438.00    0.90249   0.92355    0.457
 4439.00    0.91270   0.92172    0.457
 4440.00    0.93752   0.91887    0.461
 4441.00    0.94710   0.91733    0.463
 4442.00    0.95115   0.91866    0.465
 4443.00    0.93457   0.92282    0.462
 4444.00    0.91166   0.92841    0.458
 4445.00    0.91691   0.93357    0.461
 4446.00    0.92938   0.93687    0.466
 4447.00    0.93612   0.93766    0.465
 4448.00    0.94166   0.93586    0.462
 4449.00    0.93549   0.93168    0.460
 4450.00    0.92740   0.92543    0.459
 4451.00    0.92363   0.91763    0.451
 4452.00    0.92039   0.90921    0.442
 4453.00    0.90394   0.90130    0.444
 4454.00    0.88637   0.89492    0.447
 4455.00    0.88250   0.89052    0.445
 4456.00    0.87931   0.88795    0.444
 4457.00    0.87417   0.88687    0.443
 4458.00    0.86896   0.88711    0.441
 4459.00    0.86100   0.88882    0.437
 4460.00    0.85427   0.89206    0.434
 4461.00    0.87263   0.89642    0.000
 4462.00    0.88968   0.90084    0.000
 4463.00    0.89144   0.90396    0.000
 4464.00    0.89293   0.90468    0.000
 4465.00    0.89229   0.90273    0.000
 4466.00    0.89583   0.89884    0.000
 4467.00    0.92483   0.89465    0.000
 4468.00    0.94273   0.89225    0.000
 4469.00    0.90735   0.89345    0.000
 4470.00    0.88428   0.89906    0.000
 4471.00    0.90926   0.90843    0.000
 4472.00    0.93126   0.91965    0.000
 4473.00    0.94360   0.93021    0.000
 4474.00    0.95011   0.93773    0.000
 4475.00    0.94058   0.94061    0.000
 4476.00    0.93394   0.93843    0.000
 4477.00    0.93408   0.93229    0.000
 4478.00    0.92864   0.92465    0.000
 4479.00    0.91182   0.91869    0.000
 4480.00    0.90298   0.91696    0.000
 4481.00    0.90825   0.92019    0.000
 4482.00    0.91251   0.92692    0.425
 4483.00    0.91520   0.93423    0.426
 4484.00    0.92507   0.93926    0.429
 4485.00    0.94471   0.94048    0.433
 4486.00    0.95010   0.93821    0.436
 4487.00    0.93840   0.93409    0.436
 4488.00    0.92862   0.92995    0.435
 4489.00    0.92087   0.92691    0.433
 4490.00    0.91573   0.92504    0.431
 4491.00    0.91303   0.92389    0.431
 4492.00    0.91673   0.92324    0.432
 4493.00    0.92569   0.92344    0.433
 4494.00    0.92336   0.92511    0.431
 4495.00    0.91285   0.92849    0.428
 4496.00    0.91891   0.93318    0.429
 4497.00    0.93549   0.93845    0.433
 4498.00    0.94110   0.94378    0.432
 4499.00    0.94061   0.94913    0.428
 4500.00    0.93424   0.95470    0.426
 4501.00    0.92501   0.96035    0.424
 4502.00    0.92022   0.96536    0.423
 4503.00    0.91727   0.96882    0.421
 4504.00    0.93244   0.97016    0.422
 4505.00    0.95409   0.96953    0.425
 4506.00    0.94217   0.96761    0.422
 4507.00    0.92014   0.96503    0.417
 4508.00    0.91278   0.96200    0.416
 4509.00    0.90909   0.95838    0.416
 4510.00    0.91521   0.95408    0.414
 4511.00    0.92332   0.94935    0.412
 4512.00    0.91208   0.94486    0.416
 4513.00    0.89776   0.94142    0.421
 4514.00    0.89812   0.93957    0.415
 4515.00    0.90024   0.93936    0.408
 4516.00    0.92444   0.94037    0.415
 4517.00    0.95044   0.94182    0.424
 4518.00    0.94498   0.94269    0.425
 4519.00    0.93809   0.94201    0.426
 4520.00    0.92915   0.93910    0.421
 4521.00    0.92014   0.93379    0.417
 4522.00    0.90870   0.92640    0.413
 4523.00    0.89738   0.91764    0.409
 4524.00    0.88844   0.90850    0.409
 4525.00    0.87990   0.90017    0.410
 4526.00    0.87601   0.89374    0.413
 4527.00    0.87340   0.88991    0.416
 4528.00    0.88097   0.88867    0.413
 4529.00    0.88838   0.88936    0.411
 4530.00    0.89490   0.89109    0.414
 4531.00    0.89930   0.89333    0.417
 4532.00    0.89375   0.89613    0.417
 4533.00    0.89221   0.89975    0.417
 4534.00    0.90602   0.90401    0.417
 4535.00    0.91732   0.90786    0.417
 4536.00    0.92062   0.90995    0.416
 4537.00    0.92085   0.90945    0.415
 4538.00    0.91280   0.90687    0.411
 4539.00    0.90510   0.90380    0.409
 4540.00    0.89820   0.90197    0.409
 4541.00    0.89588   0.90225    0.409
 4542.00    0.90274   0.90436    0.407
 4543.00    0.90137   0.90718    0.406
 4544.00    0.88565   0.90954    0.406
 4545.00    0.88555   0.91079    0.406
 4546.00    0.90932   0.91091    0.407
 4547.00    0.92054   0.91037    0.408
 4548.00    0.91492   0.90972    0.409
 4549.00    0.90679   0.90931    0.410
 4550.00    0.89571   0.90930    0.000
 4551.00    0.89658   0.90993    0.000
 4552.00    0.90990   0.91166    0.000
 4553.00    0.91875   0.91507    0.000
 4554.00    0.92347   0.92038    0.000
 4555.00    0.92583   0.92713    0.000
 4556.00    0.92627   0.93416    0.000
 4557.00    0.92404   0.94004    0.000
 4558.00    0.91990   0.94355    0.000
 4559.00    0.91618   0.94410    0.000
 4560.00    0.91271   0.94201    0.000
 4561.00    0.91456   0.93842    0.000
 4562.00    0.91932   0.93492    0.000
 4563.00    0.92567   0.93299    0.000
 4564.00    0.93277   0.93323    0.000
 4565.00    0.93212   0.93516    0.000
 4566.00    0.92830   0.93755    0.000
 4567.00    0.92774   0.93920    0.000
 4568.00    0.92833   0.93970    0.000
 4569.00    0.92586   0.93950    0.000
 4570.00    0.92249   0.93946    0.000
 4571.00    0.91867   0.94008    0.000
 4572.00    0.91474   0.94111    0.000
 4573.00    0.91093   0.94171    0.000
 4574.00    0.90714   0.94090    0.000
 4575.00    0.89967   0.93814    0.000
 4576.00    0.89163   0.93355    0.000
 4577.00    0.88787   0.92793    0.000
 4578.00    0.88461   0.92236    0.000
 4579.00    0.88485   0.91787    0.000
 4580.00    0.88535   0.91504    0.000
 4581.00    0.89260   0.91402    0.000
 4582.00    0.90012   0.91469    0.000
 4583.00    0.89803   0.91684    0.000
 4584.00    0.89638   0.92012    0.000
 4585.00    0.91674   0.92399    0.000
 4586.00    0.93516   0.92756    0.000
 4587.00    0.91954   0.92987    0.000
 4588.00    0.90410   0.93026    0.000
 4589.00    0.89052   0.92871    0.000
 4590.00    0.87998   0.92580    0.000
 4591.00    0.89228   0.92246    0.000
 4592.00    0.90443   0.91956    0.000
 4593.00    0.91565   0.91764    0.000
 4594.00    0.92105   0.91687    0.000
 4595.00    0.89978   0.91706    0.000
 4596.00    0.88577   0.91783    0.000
 4597.00    0.89893   0.91878    0.000
 4598.00    0.90811   0.91966    0.000
 4599.00    0.90485   0.92044    0.000
 4600.00    0.90202   0.92132    0.000
 4601.00    0.90031   0.92266    0.000
 4602.00    0.90099   0.92490    0.000
 4603.00    0.90711   0.92839    0.000
 4604.00    0.91585   0.93317    0.000
 4605.00    0.92976   0.93875    0.000
 4606.00    0.93511   0.94417    0.000
 4607.00    0.92573   0.94834    0.000
 4608.00    0.91818   0.95055    0.000
 4609.00    0.91341   0.95084    0.000
 4610.00    0.90770   0.94992    0.000
 4611.00    0.90076   0.94870    0.000
 4612.00    0.90379   0.94787    0.000
 4613.00    0.91842   0.94758    0.000
 4614.00    0.92662   0.94760    0.000
 4615.00    0.92821   0.94762    0.000
 4616.00    0.92449   0.94755    0.000
 4617.00    0.91595   0.94754    0.000
 4618.00    0.91807   0.94780    0.000
 4619.00    0.92871   0.94838    0.000
 4620.00    0.92927   0.94905    0.000
 4621.00    0.92275   0.94948    0.000
 4622.00    0.92951   0.94937    0.000
 4623.00    0.94447   0.94862    0.000
 4624.00    0.94215   0.94738    0.000
 4625.00    0.93053   0.94586    0.000
 4626.00    0.92669   0.94432    0.000
 4627.00    0.92649   0.94286    0.000
 4628.00    0.91816   0.94146    0.000
 4629.00    0.90654   0.93989    0.000
 4630.00    0.89953   0.93792    0.000
 4631.00    0.89411   0.93540    0.000
 4632.00    0.89291   0.93235    0.000
 4633.00    0.89294   0.92892    0.000
 4634.00    0.89652   0.92537    0.000
 4635.00    0.90094   0.92207    0.000
 4636.00    0.89444   0.91940    0.000
 4637.00    0.88584   0.91766    0.000
 4638.00    0.88954   0.91678    0.000
 4639.00    0.89508   0.91624    0.000
 4640.00    0.89238   0.91510    0.000
 4641.00    0.88877   0.91244    0.000
 4642.00    0.89493   0.90787    0.000
 4643.00    0.90181   0.90194    0.000
 4644.00    0.89774   0.89602    0.000
 4645.00    0.89325   0.89182    0.000
 4646.00    0.89482   0.89060    0.000
 4647.00    0.89627   0.89267    0.000
 4648.00    0.89200   0.89721    0.000
 4649.00    0.88835   0.90277    0.000
 4650.00    0.89472   0.90785    0.000
 4651.00    0.90003   0.91167    0.000
 4652.00    0.89442   0.91439    0.000
 4653.00    0.88980   0.91696    0.000
 4654.00    0.89238   0.92041    0.000
 4655.00    0.89387   0.92514    0.000
 4656.00    0.88923   0.93053    0.000
 4657.00    0.88700   0.93513    0.000
 4658.00    0.89559   0.93727    0.000
 4659.00    0.90016   0.93583    0.000
 4660.00    0.89000   0.93059    0.000
 4661.00    0.88259   0.92223    0.000
 4662.00    0.88360   0.91201    0.000
 4663.00    0.88119   0.90153    0.000
 4664.00    0.86985   0.89258    0.000
 4665.00    0.86293   0.88680    0.000
 4666.00    0.86589   0.88519    0.000
 4667.00    0.86777   0.88778    0.000
 4668.00    0.86754   0.89348    0.000
 4669.00    0.87419   0.90058    0.000
 4670.00    0.89249   0.90745    0.000
 4671.00    0.90496   0.91305    0.000
 4672.00    0.90877   0.91699    0.000
 4673.00    0.91579   0.91922    0.000
 4674.00    0.92699   0.91973    0.000
 4675.00    0.92373   0.91846    0.000
 4676.00    0.90384   0.91550    0.000
 4677.00    0.88894   0.91119    0.000
 4678.00    0.87909   0.90608    0.000
 4679.00    0.86948   0.90071    0.000
 4680.00    0.86011   0.89544    0.000
 4681.00    0.86312   0.89053    0.000
 4682.00    0.87589   0.88639    0.000
 4683.00    0.88520   0.88364    0.000
 4684.00    0.89209   0.88296    0.000
 4685.00    0.88859   0.88464    0.000
 4686.00    0.87876   0.88842    0.000
 4687.00    0.86724   0.89351    0.000
 4688.00    0.85482   0.89906    0.000
 4689.00    0.86086   0.90442    0.000
 4690.00    0.87541   0.90927    0.000
 4691.00    0.87506   0.91337    0.000
 4692.00    0.86881   0.91640    0.000
 4693.00    0.87037   0.91788    0.000
 4694.00    0.87456   0.91734    0.000
 4695.00    0.87483   0.91467    0.000
 4696.00    0.87398   0.91032    0.000
 4697.00    0.88046   0.90521    0.000
 4698.00    0.88865   0.90037    0.000
 4699.00    0.87882   0.89661    0.000
 4700.00    0.86561   0.89435    0.000
 4701.00    0.87546   0.89357    0.000
 4702.00    0.88867   0.89387    0.000
 4703.00    0.87737   0.89468    0.000
 4704.00    0.86347   0.89557    0.000
 4705.00    0.87166   0.89637    0.000
 4706.00    0.88137   0.89713    0.000
 4707.00    0.86846   0.89797    0.000
 4708.00    0.85478   0.89888    0.000
 4709.00    0.86218   0.89980    0.000
 4710.00    0.86952   0.90079    0.000
 4711.00    0.87382   0.90226    0.000
 4712.00    0.87819   0.90488    0.000
 4713.00    0.88359   0.90920    0.000
 4714.00    0.88803   0.91526    0.000
 4715.00    0.88322   0.92238    0.000
 4716.00    0.87898   0.92951    0.000
 4717.00    0.87877   0.93562    0.000
 4718.00    0.88069   0.94003    0.000
 4719.00    0.89418   0.94254    0.000
 4720.00    0.90090   0.94317    0.000
 4721.00    0.87809   0.94193    0.000
 4722.00    0.86372   0.93871    0.000
 4723.00    0.87960   0.93342    0.000
 4724.00    0.89617   0.92627    0.000
 4725.00    0.91483   0.91812    0.000
 4726.00    0.92221   0.91035    0.000
 4727.00    0.90068   0.90444    0.000
 4728.00    0.88494   0.90139    0.000
 4729.00    0.88197   0.90134    0.000
 4730.00    0.88159   0.90359    0.000
 4731.00    0.88616   0.90702    0.000
 4732.00    0.88804   0.91068    0.000
 4733.00    0.88542   0.91391    0.000
 4734.00    0.88144   0.91654    0.000
 4735.00    0.87547   0.91872    0.000
 4736.00    0.87912   0.92070    0.000
 4737.00    0.89513   0.92259    0.000
 4738.00    0.90386   0.92435    0.000
 4739.00    0.90434   0.92597    0.000
 4740.00    0.90205   0.92756    0.000
 4741.00    0.89699   0.92921    0.000
 4742.00    0.89109   0.93094    0.000
 4743.00    0.88445   0.93272    0.000
 4744.00    0.88818   0.93442    0.000
 4745.00    0.89996   0.93574    0.000
 4746.00    0.90171   0.93633    0.000
 4747.00    0.89659   0.93590    0.000
 4748.00    0.89230   0.93432    0.000
 4749.00    0.88851   0.93164    0.000
 4750.00    0.88846   0.92819    0.000
 4751.00    0.89036   0.92454    0.000
 4752.00    0.89024   0.92129    0.000
 4753.00    0.88921   0.91898    0.000
 4754.00    0.88808   0.91778    0.000
 4755.00    0.88690   0.91742    0.000
 4756.00    0.88167   0.91722    0.000
 4757.00    0.87510   0.91637    0.000
 4758.00    0.88379   0.91425    0.000
 4759.00    0.89671   0.91058    0.000
 4760.00    0.89476   0.90569    0.000
 4761.00    0.88939   0.90048    0.358
 4762.00    0.87021   0.89611    0.355
 4763.00    0.84851   0.89362    0.352
 4764.00    0.85827   0.89361    0.354
 4765.00    0.87246   0.89598    0.355
 4766.00    0.86254   0.89997    0.354
 4767.00    0.85018   0.90468    0.352
 4768.00    0.87481   0.90937    0.353
 4769.00    0.90182   0.91365    0.354
 4770.00    0.89113   0.91749    0.353
 4771.00    0.87933   0.92109    0.352
 4772.00    0.88238   0.92457    0.352
 4773.00    0.88533   0.92773    0.351
 4774.00    0.88515   0.93013    0.351
 4775.00    0.88408   0.93140    0.350
 4776.00    0.87016   0.93127    0.347
 4777.00    0.85551   0.92962    0.344
 4778.00    0.83395   0.92664    0.341
 4779.00    0.81022   0.92282    0.337
 4780.00    0.77169   0.91860    0.333
 4781.00    0.73728   0.91442    0.329
 4782.00    0.72463   0.91078    0.325
 4783.00    0.71336   0.90800    0.321
 4784.00    0.70794   0.90616    0.320
 4785.00    0.70931   0.90541    0.320
 4786.00    0.73452   0.90589    0.323
 4787.00    0.75962   0.90771    0.327
 4788.00    0.78441   0.91103    0.333
 4789.00    0.80575   0.91576    0.338
 4790.00    0.81839   0.92139    0.339
 4791.00    0.83027   0.92698    0.339
 4792.00    0.84052   0.93143    0.338
 4793.00    0.85186   0.93375    0.338
 4794.00    0.86526   0.93355    0.339
 4795.00    0.87234   0.93130    0.340
 4796.00    0.86903   0.92815    0.340
 4797.00    0.86499   0.92534    0.340
 4798.00    0.85991   0.92365    0.340
 4799.00    0.86325   0.92308    0.341
 4800.00    0.87724   0.92302    0.343
 4801.00    0.88018   0.92272    0.343
 4802.00    0.87078   0.92152    0.342
 4803.00    0.86847   0.91932    0.341
 4804.00    0.87316   0.91669    0.342
 4805.00    0.87223   0.91438    0.341
 4806.00    0.86642   0.91293    0.338
 4807.00    0.85943   0.91259    0.339
 4808.00    0.85155   0.91328    0.342
 4809.00    0.85475   0.91474    0.341
 4810.00    0.86541   0.91670    0.339
 4811.00    0.86581   0.91904    0.338
 4812.00    0.86017   0.92170    0.337
 4813.00    0.86106   0.92459    0.338
 4814.00    0.86532   0.92748    0.340
 4815.00    0.87117   0.92991    0.341
 4816.00    0.87775   0.93130    0.341
 4817.00    0.88000   0.93101    0.343
 4818.00    0.88061   0.92857    0.347
 4819.00    0.88066   0.92436    0.346
 4820.00    0.88053   0.91942    0.344
 4821.00    0.87849   0.91477    0.342
 4822.00    0.87593   0.91117    0.341
 4823.00    0.87471   0.90890    0.342
 4824.00    0.87380   0.90777    0.343
 4825.00    0.87492   0.90725    0.346
 4826.00    0.87640   0.90663    0.350
 4827.00    0.87859   0.90549    0.350
 4828.00    0.88088   0.90406    0.350
 4829.00    0.88368   0.90281    0.349
 4830.00    0.88653   0.90201    0.348
 4831.00    0.88314   0.90172    0.348
 4832.00    0.87936   0.90172    0.348
 4833.00    0.88270   0.90146    0.347
 4834.00    0.88613   0.90032    0.347
 4835.00    0.87303   0.89800    0.346
 4836.00    0.86060   0.89474    0.345
 4837.00    0.86531   0.89101    0.346
 4838.00    0.86899   0.88733    0.347
 4839.00    0.85854   0.88431    0.346
 4840.00    0.84864   0.88236    0.344
 4841.00    0.84376   0.88138    0.341
 4842.00    0.84070   0.88069    0.339
 4843.00    0.84978   0.87947    0.340
 4844.00    0.85698   0.87719    0.341
 4845.00    0.85448   0.87382    0.344
 4846.00    0.85503   0.86945    0.347
 4847.00    0.86829   0.86407    0.346
 4848.00    0.87713   0.85754    0.000
 4849.00    0.87080   0.84937    0.000
 4850.00    0.86660   0.83877    0.000
 4851.00    0.86860   0.82530    0.000
 4852.00    0.86715   0.80893    0.000
 4853.00    0.85714   0.78952    0.000
 4854.00    0.84570   0.76678    0.000
 4855.00    0.83122   0.74081    0.000
 4856.00    0.82062   0.71294    0.000
 4857.00    0.81723   0.68637    0.000
 4858.00    0.81764   0.66563    0.000
 4859.00    0.82423   0.65453    0.000
 4860.00    0.82446   0.65496    0.000
 4861.00    0.81568   0.66666    0.000
 4862.00    0.81643   0.68705    0.000
 4863.00    0.82911   0.71198    0.000
 4864.00    0.83523   0.73725    0.000
 4865.00    0.83412   0.75941    0.000
 4866.00    0.83843   0.77638    0.000
 4867.00    0.84801   0.78802    0.000
 4868.00    0.84859   0.79605    0.000
 4869.00    0.84147   0.80258    0.000
 4870.00    0.84070   0.80914    0.000
 4871.00    0.84473   0.81667    0.000
 4872.00    0.84748   0.82557    0.000
 4873.00    0.84938   0.83548    0.000
 4874.00    0.84593   0.84573    0.000
 4875.00    0.83938   0.85551    0.346
 4876.00    0.84361   0.86375    0.344
 4877.00    0.85330   0.86962    0.343
 4878.00    0.85320   0.87313    0.341
 4879.00    0.84883   0.87447    0.339
 4880.00    0.85602   0.87370    0.340
 4881.00    0.86756   0.87118    0.342
 4882.00    0.86927   0.86776    0.343
 4883.00    0.86784   0.86426    0.343
 4884.00    0.87492   0.86114    0.347
 4885.00    0.88427   0.85849    0.352
 4886.00    0.86692   0.85640    0.350
 4887.00    0.84374   0.85562    0.346
 4888.00    0.84040   0.85766    0.345
 4889.00    0.84050   0.86331    0.344
 4890.00    0.85120   0.87232    0.343
 4891.00    0.86330   0.88374    0.342
 4892.00    0.86158   0.89585    0.342
 4893.00    0.85857   0.90673    0.341
 4894.00    0.87155   0.91479    0.340
 4895.00    0.88543   0.91907    0.339
 4896.00    0.87548   0.91982    0.340
 4897.00    0.86510   0.91824    0.340
 4898.00    0.86634   0.91541    0.340
 4899.00    0.86737   0.91233    0.340
 4900.00    0.86311   0.91011    0.339
 4901.00    0.85914   0.90940    0.337
 4902.00    0.85897   0.90980    0.335
 4903.00    0.85838   0.91021    0.334
 4904.00    0.85416   0.90961    0.336
 4905.00    0.85063   0.90744    0.338
 4906.00    0.85147   0.90392    0.337
 4907.00    0.85202   0.90014    0.336
 4908.00    0.85114   0.89733    0.336
 4909.00    0.85161   0.89618    0.336
 4910.00    0.85755   0.89674    0.337
 4911.00    0.86264   0.89828    0.338
 4912.00    0.86485   0.89910    0.339
 4913.00    0.86618   0.89714    0.340
 4914.00    0.86501   0.89099    0.340
 4915.00    0.86244   0.88077    0.338
 4916.00    0.85649   0.86833    0.335
 4917.00    0.85165   0.85650    0.332
 4918.00    0.84915   0.84800    0.333
 4919.00    0.84555   0.84419    0.333
 4920.00    0.83992   0.84534    0.331
 4921.00    0.83665   0.85123    0.330
 4922.00    0.83715   0.86103    0.329
 4923.00    0.83557   0.87300    0.330
 4924.00    0.83108   0.88544    0.331
 4925.00    0.83925   0.89709    0.332
 4926.00    0.86302   0.90660    0.333
 4927.00    0.87247   0.91301    0.333
 4928.00    0.86637   0.91574    0.332
 4929.00    0.85905   0.91452    0.330
 4930.00    0.85055   0.91044    0.328
 4931.00    0.85049   0.90515    0.327
 4932.00    0.85755   0.89933    0.328
 4933.00    0.85653   0.89316    0.327
 4934.00    0.84952   0.88729    0.326
 4935.00    0.84001   0.88299    0.323
 4936.00    0.82887   0.88159    0.321
 4937.00    0.83169   0.88360    0.323
 4938.00    0.84247   0.88840    0.327
 4939.00    0.84451   0.89519    0.329
 4940.00    0.84221   0.90280    0.000
 4941.00    0.85296   0.90974    0.000
 4942.00    0.86933   0.91523    0.000
 4943.00    0.87231   0.91941    0.000
 4944.00    0.87034   0.92254    0.000
 4945.00    0.87073   0.92481    0.000
 4946.00    0.87185   0.92648    0.000
 4947.00    0.87816   0.92751    0.000
 4948.00    0.88582   0.92737    0.000
 4949.00    0.88154   0.92543    0.000
 4950.00    0.87471   0.92144    0.000
 4951.00    0.87941   0.91531    0.000
 4952.00    0.88605   0.90693    0.000
 4953.00    0.86945   0.89687    0.000
 4954.00    0.84989   0.88758    0.000
 4955.00    0.84303   0.88203    0.000
 4956.00    0.83729   0.88108    0.000
 4957.00    0.84582   0.88381    0.000
 4958.00    0.85510   0.88877    0.000
 4959.00    0.84510   0.89437    0.000
 4960.00    0.83492   0.89874    0.000
 4961.00    0.83909   0.90042    0.000
 4962.00    0.84358   0.89939    0.000
 4963.00    0.85508   0.89676    0.000
 4964.00    0.86602   0.89376    0.000
 4965.00    0.87015   0.89152    0.000
 4966.00    0.87347   0.89086    0.000
 4967.00    0.87001   0.89213    0.000
 4968.00    0.86594   0.89512    0.000
 4969.00    0.85809   0.89912    0.000
 4970.00    0.85201   0.90320    0.000
 4971.00    0.85471   0.90641    0.000
 4972.00    0.85872   0.90786    0.000
 4973.00    0.86800   0.90701    0.000
 4974.00    0.87158   0.90357    0.000
 4975.00    0.85632   0.89776    0.000
 4976.00    0.84650   0.89023    0.000
 4977.00    0.85189   0.88141    0.000
 4978.00    0.85342   0.87172    0.000
 4979.00    0.84573   0.86237    0.000
 4980.00    0.83898   0.85521    0.000
 4981.00    0.83417   0.85152    0.000
 4982.00    0.82925   0.85173    0.000
 4983.00    0.82415   0.85558    0.000
 4984.00    0.82231   0.86190    0.000
 4985.00    0.82559   0.86889    0.000
 4986.00    0.83155   0.87508    0.000
 4987.00    0.84122   0.87973    0.000
 4988.00    0.84630   0.88290    0.000
 4989.00    0.84578   0.88488    0.000
 4990.00    0.84385   0.88591    0.000
 4991.00    0.84041   0.88651    0.000
 4992.00    0.83784   0.88697    0.000
 4993.00    0.83611   0.88684    0.000
 4994.00    0.83544   0.88556    0.000
 4995.00    0.83565   0.88266    0.000
 4996.00    0.83738   0.87805    0.000
 4997.00    0.84021   0.87232    0.000
 4998.00    0.84104   0.86628    0.000
 4999.00    0.84058   0.86058    0.000
 5000.00    0.83526   0.85558    0.000
 5001.00    0.82723   0.85121    0.000
 5002.00    0.83131   0.84764    0.000
 5003.00    0.84134   0.84574    0.000
 5004.00    0.84609   0.84620    0.000
 5005.00    0.84860   0.84839    0.000
 5006.00    0.85535   0.85079    0.000
 5007.00    0.86362   0.85199    0.000
 5008.00    0.86697   0.85103    0.000
 5009.00    0.86880   0.84763    0.000
 5010.00    0.86649   0.84246    0.000
 5011.00    0.86312   0.83683    0.000
 5012.00    0.85216   0.83217    0.000
 5013.00    0.83962   0.82927    0.000
 5014.00    0.82658   0.82820    0.000
 5015.00    0.81345   0.82901    0.000
 5016.00    0.81647   0.83169    0.000
 5017.00    0.82146   0.83554    0.000
 5018.00    0.82894   0.83963    0.000
 5019.00    0.83663   0.84373    0.000
 5020.00    0.82772   0.84808    0.000
 5021.00    0.81801   0.85244    0.000
 5022.00    0.82246   0.85626    0.000
 5023.00    0.82716   0.85927    0.000
 5024.00    0.83450   0.86174    0.000
 5025.00    0.84153   0.86458    0.000
 5026.00    0.84244   0.86831    0.000
 5027.00    0.84281   0.87255    0.000
 5028.00    0.83688   0.87699    0.000
 5029.00    0.83272   0.88114    0.323
 5030.00    0.84291   0.88385    0.322
 5031.00    0.85097   0.88374    0.320
 5032.00    0.84607   0.88024    0.320
 5033.00    0.84308   0.87419    0.320
 5034.00    0.84921   0.86675    0.321
 5035.00    0.85177   0.85823    0.322
 5036.00    0.84037   0.84920    0.323
 5037.00    0.83148   0.84120    0.323
 5038.00    0.83067   0.83646    0.323
 5039.00    0.82929   0.83690    0.322
 5040.00    0.82631   0.84227    0.319
 5041.00    0.82370   0.85064    0.317
 5042.00    0.82197   0.85997    0.319
 5043.00    0.82178   0.86792    0.320
 5044.00    0.82472   0.87242    0.320
 5045.00    0.82903   0.87300    0.320
 5046.00    0.83577   0.87094    0.319
 5047.00    0.83703   0.86801    0.318
 5048.00    0.82982   0.86551    0.318
 5049.00    0.82766   0.86471    0.318
 5050.00    0.83236   0.86642    0.319
 5051.00    0.83370   0.87035    0.320
 5052.00    0.83101   0.87547    0.322
 5053.00    0.82858   0.88093    0.323
 5054.00    0.82642   0.88625    0.321
 5055.00    0.82903   0.89099    0.319
 5056.00    0.83610   0.89464    0.318
 5057.00    0.84042   0.89699    0.318
 5058.00    0.84248   0.89782    0.319
 5059.00    0.84218   0.89654    0.320
 5060.00    0.84016   0.89267    0.319
 5061.00    0.84348   0.88652    0.320
 5062.00    0.85018   0.87970    0.322
 5063.00    0.84545   0.87386    0.322
 5064.00    0.83436   0.86926    0.320
 5065.00    0.82993   0.86597    0.320
 5066.00    0.82869   0.86450    0.320
 5067.00    0.83449   0.86455    0.321
 5068.00    0.84322   0.86487    0.323
 5069.00    0.83769   0.86492    0.323
 5070.00    0.82708   0.86511    0.322
 5071.00    0.82422   0.86511    0.321
 5072.00    0.82370   0.86410    0.320
 5073.00    0.82793   0.86211    0.321
 5074.00    0.83334   0.85921    0.323
 5075.00    0.83642   0.85474    0.323
 5076.00    0.83903   0.84868    0.323
 5077.00    0.83409   0.84299    0.321
 5078.00    0.82796   0.83955    0.320
 5079.00    0.81957   0.83858    0.317
 5080.00    0.81092   0.83977    0.314
 5081.00    0.80224   0.84321    0.311
 5082.00    0.79356   0.84847    0.309
 5083.00    0.78941   0.85439    0.308
 5084.00    0.78546   0.86008    0.307
 5085.00    0.77853   0.86534    0.305
 5086.00    0.77166   0.87008    0.303
 5087.00    0.76945   0.87404    0.301
 5088.00    0.76804   0.87719    0.299
 5089.00    0.78172   0.87964    0.300
 5090.00    0.79496   0.88100    0.301
 5091.00    0.80329   0.88044    0.303
 5092.00    0.81190   0.87757    0.305
 5093.00    0.82275   0.87264    0.308
 5094.00    0.83245   0.86630    0.310
 5095.00    0.83547   0.85953    0.312
 5096.00    0.83333   0.85392    0.312
 5097.00    0.80716   0.85111    0.308
 5098.00    0.78487   0.85112    0.304
 5099.00    0.77732   0.85261    0.304
 5100.00    0.77286   0.85427    0.303
 5101.00    0.77817   0.85543    0.304
 5102.00    0.78103   0.85572    0.304
 5103.00    0.77727   0.85480    0.303
 5104.00    0.77834   0.85273    0.303
 5105.00    0.79061   0.85049    0.306
 5106.00    0.80198   0.84898    0.309
 5107.00    0.81159   0.84860    0.311
 5108.00    0.81711   0.85020    0.311
 5109.00    0.81552   0.85375    0.309
 5110.00    0.81424   0.85831    0.309
 5111.00    0.81342   0.86345    0.311
 5112.00    0.81668   0.86866    0.313
 5113.00    0.82541   0.87332    0.316
 5114.00    0.83140   0.87697    0.317
 5115.00    0.83414   0.87879    0.317
 5116.00    0.83509   0.87809    0.318
 5117.00    0.83417   0.87474    0.320
 5118.00    0.83475   0.86907    0.321
 5119.00    0.83669   0.86175    0.320
 5120.00    0.83281   0.85347    0.318
 5121.00    0.82420   0.84555    0.314
 5122.00    0.82080   0.83935    0.313
 5123.00    0.82111   0.83515    0.314
 5124.00    0.81370   0.83276    0.314
 5125.00    0.80146   0.83209    0.314
 5126.00    0.79738   0.83305    0.314
 5127.00    0.79774   0.83552    0.315
 5128.00    0.80489   0.83922    0.315
 5129.00    0.81526   0.84327    0.315
 5130.00    0.82310   0.84692    0.317
 5131.00    0.82992   0.84996    0.319
 5132.00    0.83370   0.85215    0.318
 5133.00    0.83641   0.85245    0.315
 5134.00    0.82899   0.85059    0.315
 5135.00    0.81859   0.84735    0.316
 5136.00    0.81359   0.84356    0.315
 5137.00    0.80992   0.84051    0.314
 5138.00    0.81174   0.83830    0.315
 5139.00    0.81465   0.83593    0.317
 5140.00    0.81235   0.83411    0.317
 5141.00    0.80924   0.83357    0.317
 5142.00    0.80428   0.83331    0.315
 5143.00    0.79911   0.83266    0.313
 5144.00    0.79852   0.83197    0.313
 5145.00    0.79828   0.83159    0.313
 5146.00    0.79932   0.83164    0.314
 5147.00    0.80041   0.83171    0.315
 5148.00    0.79901   0.83157    0.314
 5149.00    0.79777   0.83170    0.313
 5150.00    0.80401   0.83265    0.310
 5151.00    0.81025   0.83482    0.308
 5152.00    0.81634   0.83855    0.313
 5153.00    0.82217   0.84361    0.317
 5154.00    0.82508   0.84924    0.316
 5155.00    0.82720   0.85433    0.314
 5156.00    0.82328   0.85775    0.313
 5157.00    0.82041   0.85886    0.312
 5158.00    0.82360   0.85682    0.312
 5159.00    0.82629   0.85087    0.312
 5160.00    0.82670   0.84128    0.311
 5161.00    0.82614   0.82845    0.309
 5162.00    0.82198   0.81244    0.310
 5163.00    0.81616   0.79424    0.310
 5164.00    0.80516   0.77609    0.310
 5165.00    0.79385   0.76097    0.310
 5166.00    0.78172   0.75097    0.315
 5167.00    0.77081   0.74581    0.317
 5168.00    0.76267   0.74344    0.315
 5169.00    0.75844   0.74316    0.314
 5170.00    0.76191   0.74717    0.316
 5171.00    0.76871   0.75706    0.317
 5172.00    0.78120   0.77086    0.318
 5173.00    0.78503   0.78499    0.316
 5174.00    0.77584   0.79720    0.313
 5175.00    0.77666   0.80615    0.311
 5176.00    0.79068   0.81048    0.312
 5177.00    0.79534   0.80951    0.311
 5178.00    0.78911   0.80356    0.308
 5179.00    0.77553   0.79373    0.305
 5180.00    0.75440   0.78278    0.303
 5181.00    0.74346   0.77548    0.301
 5182.00    0.74175   0.77541    0.299
 5183.00    0.74097   0.78182    0.300
 5184.00    0.74095   0.79159    0.302
 5185.00    0.75390   0.80196    0.305
 5186.00    0.77594   0.81146    0.307
 5187.00    0.78934   0.81886    0.309
 5188.00    0.79741   0.82238    0.310
 5189.00    0.80214   0.82225    0.311
 5190.00    0.80508   0.82124    0.000
 5191.00    0.81055   0.82126    0.000
 5192.00    0.81719   0.82235    0.000
 5193.00    0.81991   0.82485    0.000
 5194.00    0.82107   0.82902    0.000
 5195.00    0.81857   0.83405    0.000
 5196.00    0.81481   0.83890    0.000
 5197.00    0.81397   0.84241    0.000
 5198.00    0.81396   0.84335    0.000
 5199.00    0.82083   0.84116    0.000
 5200.00    0.82935   0.83607    0.000
 5201.00    0.83292   0.82831    0.000
 5202.00    0.83554   0.81881    0.000
 5203.00    0.82330   0.80992    0.000
 5204.00    0.80884   0.80352    0.000
 5205.00    0.80594   0.80006    0.000
 5206.00    0.80431   0.80023    0.000
 5207.00    0.80063   0.80459    0.000
 5208.00    0.79681   0.81219    0.000
 5209.00    0.80532   0.82138    0.000
 5210.00    0.81428   0.83042    0.000
 5211.00    0.82234   0.83770    0.312
 5212.00    0.83018   0.84249    0.313
 5213.00    0.82984   0.84561    0.311
 5214.00    0.82959   0.84844    0.309
 5215.00    0.83088   0.85160    0.310
 5216.00    0.83188   0.85476    0.312
 5217.00    0.82999   0.85695    0.312
 5218.00    0.82850   0.85734    0.311
 5219.00    0.82994   0.85527    0.312
 5220.00    0.83184   0.85023    0.311
 5221.00    0.83624   0.84245    0.310
 5222.00    0.83844   0.83312    0.309
 5223.00    0.83085   0.82400    0.308
 5224.00    0.82560   0.81747    0.308
 5225.00    0.82891   0.81582    0.311
 5226.00    0.83033   0.81883    0.312
 5227.00    0.82599   0.82416    0.309
 5228.00    0.81995   0.82999    0.308
 5229.00    0.80948   0.83506    0.309
 5230.00    0.80401   0.83881    0.309
 5231.00    0.80976   0.84222    0.308
 5232.00    0.81779   0.84628    0.306
 5233.00    0.83028   0.85118    0.304
 5234.00    0.83742   0.85669    0.302
 5235.00    0.83555   0.86222    0.301
 5236.00    0.83630   0.86711    0.301
 5237.00    0.84095   0.87112    0.302
 5238.00    0.84297   0.87409    0.303
 5239.00    0.84159   0.87562    0.302
 5240.00    0.84044   0.87553    0.301
 5241.00    0.83956   0.87416    0.299
 5242.00    0.83869   0.87159    0.299
 5243.00    0.83783   0.86712    0.300
 5244.00    0.83549   0.86098    0.302
 5245.00    0.83182   0.85495    0.303
 5246.00    0.83210   0.85008    0.304
 5247.00    0.83547   0.84609    0.304
 5248.00    0.83394   0.84339    0.305
 5249.00    0.82902   0.84293    0.304
 5250.00    0.83152   0.84452    0.305
 5251.00    0.83852   0.84720    0.307
 5252.00    0.83573   0.85048    0.308
 5253.00    0.82774   0.85466    0.309
 5254.00    0.82969   0.85945    0.309
 5255.00    0.83619   0.86310    0.309
 5256.00    0.84141   0.86363    0.309
 5257.00    0.84611   0.85997    0.308
 5258.00    0.83959   0.85207    0.308
 5259.00    0.82929   0.84059    0.308
 5260.00    0.82587   0.82677    0.307
 5261.00    0.82440   0.81219    0.307
 5262.00    0.81790   0.79855    0.310
 5263.00    0.81022   0.78747    0.313
 5264.00    0.80684   0.78026    0.316
 5265.00    0.80427   0.77654    0.320
 5266.00    0.80162   0.77442    0.323
 5267.00    0.79897   0.77430    0.325
 5268.00    0.79778   0.77879    0.326
 5269.00    0.79674   0.78774    0.327
 5270.00    0.79861   0.79832    0.324
 5271.00    0.80067   0.80872    0.321
 5272.00    0.81100   0.81858    0.321
 5273.00    0.82161   0.82819    0.321
 5274.00    0.83004   0.83798    0.321
 5275.00    0.83825   0.84669    0.321
 5276.00    0.83994   0.85239    0.316
 5277.00    0.84139   0.85481    0.312
 5278.00    0.83931   0.85507    0.314
 5279.00    0.83740   0.85453    0.315
 5280.00    0.83720   0.85433    0.310
 5281.00    0.83729   0.85548    0.306
 5282.00    0.83945   0.85926    0.307
 5283.00    0.84086   0.86583    0.307
 5284.00    0.83829   0.87343    0.304
 5285.00    0.83644   0.88025    0.302
 5286.00    0.83771   0.88580    0.301
 5287.00    0.84030   0.89000    0.302
 5288.00    0.84763   0.89224    0.304
 5289.00    0.85490   0.89157    0.305
 5290.00    0.86200   0.88788    0.304
 5291.00    0.86722   0.88208    0.304
 5292.00    0.86764   0.87499    0.303
 5293.00    0.86491   0.86674    0.303
 5294.00    0.85528   0.85786    0.304
 5295.00    0.84823   0.85024    0.304
 5296.00    0.84612   0.84628    0.303
 5297.00    0.84255   0.84651    0.301
 5298.00    0.83656   0.84938    0.300
 5299.00    0.83808   0.85392    0.300
 5300.00    0.85057   0.86039    0.302
 5301.00    0.86095   0.86841    0.303
 5302.00    0.86864   0.87645    0.303
 5303.00    0.87159   0.88294    0.302
 5304.00    0.86919   0.88734    0.299
 5305.00    0.87242   0.89033    0.299
 5306.00    0.88125   0.89274    0.302
 5307.00    0.91588   0.89436    0.306
 5308.00    0.97320   0.89453    0.312
 5309.00    0.96963   0.89319    0.325
 5310.00    0.91886   0.89080    0.346
 5311.00    0.87988   0.88783    0.353
 5312.00    0.84894   0.88454    0.349
 5313.00    0.83945   0.88089    0.350
 5314.00    0.84277   0.87725    0.353
 5315.00    0.83654   0.87437    0.349
 5316.00    0.82534   0.87213    0.343
 5317.00    0.83064   0.86971    0.324
 5318.00    0.84339   0.86658    0.303
 5319.00    0.84961   0.86222    0.298
 5320.00    0.85329   0.85601    0.299
 5321.00    0.84327   0.84794    0.299
 5322.00    0.82871   0.83917    0.298
 5323.00    0.82239   0.83094    0.299
 5324.00    0.81834   0.82299    0.300
 5325.00    0.81343   0.81554    0.301
 5326.00    0.80832   0.81158    0.301
 5327.00    0.81577   0.81400    0.302
 5328.00    0.82551   0.82158    0.304
 5329.00    0.82666   0.83088    0.303
 5330.00    0.82660   0.84006    0.302
 5331.00    0.83736   0.84891    0.303
 5332.00    0.84922   0.85686    0.303
 5333.00    0.85046   0.86222    0.302
 5334.00    0.85102   0.86407    0.300
 5335.00    0.83731   0.86318    0.297
 5336.00    0.82323   0.86062    0.294
 5337.00    0.82990   0.85689    0.295
 5338.00    0.83641   0.85333    0.296
 5339.00    0.83822   0.85195    0.296
 5340.00    0.83995   0.85279    0.295
 5341.00    0.84053   0.85420    0.295
 5342.00    0.84042   0.85523    0.295
 5343.00    0.83379   0.85595    0.294
 5344.00    0.82903   0.85702    0.292
 5345.00    0.83696   0.85849    0.290
 5346.00    0.84285   0.85997    0.288
 5347.00    0.83800   0.86234    0.289
 5348.00    0.83484   0.86678    0.289
 5349.00    0.83883   0.87287    0.290
 5350.00    0.84401   0.87935    0.292
 5351.00    0.85333   0.88570    0.294
 5352.00    0.86146   0.89194    0.295
 5353.00    0.86607   0.89733    0.293
 5354.00    0.87046   0.90084    0.291
 5355.00    0.87428   0.90221    0.291
 5356.00    0.87597   0.90160    0.290
 5357.00    0.87306   0.89913    0.289
 5358.00    0.86758   0.89486    0.289
 5359.00    0.85727   0.88903    0.289
 5360.00    0.85144   0.88256    0.289
 5361.00    0.85295   0.87611    0.288
 5362.00    0.84989   0.86943    0.289
 5363.00    0.84024   0.86254    0.290
 5364.00    0.83652   0.85606    0.292
 5365.00    0.84029   0.85020    0.292
 5366.00    0.83863   0.84498    0.293
 5367.00    0.83092   0.84046    0.294
 5368.00    0.82724   0.83746   -2.000
 5369.00    0.82752   0.83783   -2.000
 5370.00    0.82887   0.84263   -2.000
 5371.00    0.83114   0.85042   -2.000
 5372.00    0.83608   0.85863   -2.000
 5373.00    0.84305   0.86587   -2.000
 5374.00    0.84715   0.87151   -2.000
 5375.00    0.84930   0.87544   -2.000
 5376.00    0.85398   0.87779   -2.000
 5377.00    0.86013   0.87826   -2.000
 5378.00    0.85914   0.87707   -2.000
 5379.00    0.85448   0.87526   -2.000
 5380.00    0.85226   0.87349   -2.000
 5381.00    0.85113   0.87208   -2.000
 5382.00    0.85693   0.87127   -2.000
 5383.00    0.86538   0.87049    0.298
 5384.00    0.86675   0.86888    0.297
 5385.00    0.86582   0.86634    0.297
 5386.00    0.85177   0.86291    0.293
 5387.00    0.83417   0.85867    0.289
 5388.00    0.83014   0.85393    0.287
 5389.00    0.82913   0.84902    0.287
 5390.00    0.83175   0.84431    0.288
 5391.00    0.83503   0.84015    0.289
 5392.00    0.83363   0.83667    0.290
 5393.00    0.83159   0.83375    0.291
 5394.00    0.83352   0.83119    0.291
 5395.00    0.83583   0.82986    0.291
 5396.00    0.83639   0.83071    0.292
 5397.00    0.83683   0.83206    0.293
 5398.00    0.83425   0.83193    0.291
 5399.00    0.83160   0.83050    0.288
 5400.00    0.83201   0.82795    0.286
 5401.00    0.83248   0.82334    0.284
 5402.00    0.83444   0.81673    0.285
 5403.00    0.83598   0.81009    0.286
 5404.00    0.83184   0.80580    0.288
 5405.00    0.82759   0.80435    0.289
 5406.00    0.82226   0.80424    0.288
 5407.00    0.81849   0.80470    0.286
 5408.00    0.82504   0.80717    0.285
 5409.00    0.83165   0.81317    0.285
 5410.00    0.83855   0.82172    0.287
 5411.00    0.84325   0.83059    0.288
 5412.00    0.83882   0.83869    0.285
 5413.00    0.83575   0.84636    0.284
 5414.00    0.83734   0.85379    0.285
 5415.00    0.84019   0.85963    0.286
 5416.00    0.84669   0.86263    0.287
 5417.00    0.85129   0.86314    0.288
 5418.00    0.85124   0.86248    0.287
 5419.00    0.84785   0.86185    0.286
 5420.00    0.83735   0.86114    0.284
 5421.00    0.83436   0.85928    0.284
 5422.00    0.84528   0.85681    0.287
 5423.00    0.85120   0.85553    0.288
 5424.00    0.84905   0.85506    0.288
 5425.00    0.84692   0.85330    0.288
 5426.00    0.84484   0.84889    0.287
 5427.00    0.84463   0.84298    0.287
 5428.00    0.84674   0.83878    0.288
 5429.00    0.84829   0.83677    0.289
 5430.00    0.84920   0.83483    0.289
 5431.00    0.85072   0.83321    0.289
 5432.00    0.85284   0.83377    0.287
 5433.00    0.85802   0.83749    0.289
 5434.00    0.86583   0.84388    0.292
 5435.00    0.86583   0.85169    0.291
 5436.00    0.85996   0.85997    0.288
 5437.00    0.85743   0.86732    0.288
 5438.00    0.85711   0.87232    0.289
 5439.00    0.85836   0.87421    0.288
 5440.00    0.86051   0.87314    0.286
 5441.00    0.85884   0.86958    0.285
 5442.00    0.85523   0.86385    0.284
 5443.00    0.85340   0.85682    0.283
 5444.00    0.85235   0.85030    0.282
 5445.00    0.85206   0.84662    0.281
 5446.00    0.85206   0.84656    0.280
 5447.00    0.85638   0.84785    0.282
 5448.00    0.86207   0.84844    0.284
 5449.00    0.86126   0.84819    0.285
 5450.00    0.85872   0.84753    0.285
 5451.00    0.85107   0.84629    0.282
 5452.00    0.84230   0.84403    0.279
 5453.00    0.83528   0.84165    0.280
 5454.00    0.82855   0.84148    0.282
 5455.00    0.83995   0.84381    0.285
 5456.00    0.85372   0.84648    0.288
 5457.00    0.85583   0.84811    0.285
 5458.00    0.85687   0.84866    0.281
 5459.00    0.85571   0.84859    0.282
 5460.00    0.85442   0.84796    0.283
 5461.00    0.85572   0.84721    0.281
 5462.00    0.85703   0.84753    0.278
 5463.00    0.85331   0.84854    0.279
 5464.00    0.84981   0.84923    0.279
 5465.00    0.85114   0.84977    0.281
 5466.00    0.85235   0.85007    0.282
 5467.00    0.85190   0.84931    0.282
 5468.00    0.85122   0.84705    0.282
 5469.00    0.84858   0.84363    0.281
 5470.00    0.84729   0.83941    0.281
 5471.00    0.85472   0.83467    0.284
 5472.00    0.85924   0.83041    0.286
 5473.00    0.84918   0.82661    0.284
 5474.00    0.84088   0.82276    0.283
 5475.00    0.83968   0.82082    0.284
 5476.00    0.83761   0.82230    0.285
 5477.00    0.83263   0.82539    0.284
 5478.00    0.82914   0.82789   -2.000
 5479.00    0.82992   0.82995   -2.000
 5480.00    0.83228   0.83322   -2.000
 5481.00    0.83848   0.83763   -2.000
 5482.00    0.84125   0.84173   -2.000
 5483.00    0.83681   0.84454   -2.000
 5484.00    0.82529   0.84571   -2.000
 5485.00    0.80090   0.84584   -2.000
 5486.00    0.77226   0.84615   -2.000
 5487.00    0.73684   0.84692   -2.000
 5488.00    0.73821   0.84749   -2.000
 5489.00    0.79095   0.84786   -2.000
 5490.00    0.83345   0.84797   -2.000
 5491.00    0.86338   0.84777   -2.000
 5492.00    0.88160   0.84804   -2.000
 5493.00    0.88713   0.84865   -2.000
 5494.00    0.88328   0.84840   -2.000
 5495.00    0.87044   0.84723   -2.000
 5496.00    0.85912   0.84668   -2.000
 5497.00    0.84909   0.84684   -2.000
 5498.00    0.84436   0.84575   -2.000
 5499.00    0.84357   0.84289   -2.000
 5500.00    0.83949   0.84011   -2.000
 5501.00    0.83328   0.83859   -2.000
 5502.00    0.83380   0.83754    0.276
 5503.00    0.83816   0.83592    0.275
 5504.00    0.83948   0.83393    0.277
 5505.00    0.83929   0.83300    0.280
 5506.00    0.84421   0.83317    0.281
 5507.00    0.85132   0.83275    0.282
 5508.00    0.84515   0.83150    0.281
 5509.00    0.83407   0.83003    0.280
 5510.00    0.82674   0.82897    0.278
 5511.00    0.82058   0.82943    0.275
 5512.00    0.81880   0.83151    0.274
 5513.00    0.81815   0.83481    0.274
 5514.00    0.82169   0.83896    0.277
 5515.00    0.82612   0.84371    0.282
 5516.00    0.83687   0.84889    0.281
 5517.00    0.84870   0.85316    0.279
 5518.00    0.84515   0.85550    0.280
 5519.00    0.83966   0.85611    0.281
 5520.00    0.84372   0.85523    0.281
 5521.00    0.84861   0.85285    0.281
 5522.00    0.84336   0.84934    0.282
 5523.00    0.83759   0.84526    0.282
 5524.00    0.83831   0.84123    0.281
 5525.00    0.83910   0.83751    0.279
 5526.00    0.83608   0.83489    0.278
 5527.00    0.83325   0.83470    0.277
 5528.00    0.83454   0.83634    0.279
 5529.00    0.83605   0.83812    0.280
 5530.00    0.84019   0.83947    0.280
 5531.00    0.84426   0.84074    0.280
 5532.00    0.84770   0.84211    0.280
 5533.00    0.85098   0.84347    0.279
 5534.00    0.85329   0.84524    0.280
 5535.00    0.85405   0.84716    0.280
 5536.00    0.84723   0.84877    0.279
 5537.00    0.84072   0.85064    0.278
 5538.00    0.83537   0.85269    0.276
 5539.00    0.83318   0.85409    0.274
 5540.00    0.84137   0.85437    0.270
 5541.00    0.84804   0.85414    0.307
 5542.00    0.85043   0.85457    0.744
 5543.00    0.85360   0.85558   -1.000
 5544.00    0.85864   0.85659   -1.000
 5545.00    0.86206   0.85810   -1.000
 5546.00    0.86214   0.86013   -1.000
 5547.00    0.86055   0.86167   -1.000
 5548.00    0.85597   0.86228   -1.000
 5549.00    0.85566   0.86209    1.397
 5550.00    0.86206   0.86103    0.392
 5551.00    0.86164   0.85910    0.276
 5552.00    0.85185   0.85687    0.274
 5553.00    0.84326   0.85516    0.273
 5554.00    0.83615   0.85390    0.272
 5555.00    0.83770   0.85231    0.273
 5556.00    0.84849   0.85053    0.275
 5557.00    0.85305   0.84910    0.277
 5558.00    0.85173   0.84754    0.278
 5559.00    0.84727   0.84532    0.277
 5560.00    0.84022   0.84256    0.274
 5561.00    0.83859   0.83994    0.273
 5562.00    0.84094   0.83790    0.274
 5563.00    0.84283   0.83589    0.275
 5564.00    0.84442   0.83407    0.275
 5565.00    0.84476   0.83301    0.276
 5566.00    0.84440   0.83242    0.276
 5567.00    0.84341   0.83211    0.277
 5568.00    0.84211   0.83266    0.277
 5569.00    0.84376   0.83400    0.278
 5570.00    0.84665   0.83480    0.279
 5571.00    0.84853   0.83568    0.279
 5572.00    0.85005   0.83806    0.279
 5573.00    0.84921   0.84073    0.279
 5574.00    0.84765   0.84252    0.279
 5575.00    0.84173   0.84392    0.278
 5576.00    0.83471   0.84501    0.277
 5577.00    0.83921   0.84544    0.279
 5578.00    0.84610   0.84481    0.282
 5579.00    0.85063   0.84240    0.280
 5580.00    0.85478   0.83824    0.277
 5581.00    0.85168   0.83309    0.277
 5582.00    0.84770   0.82704    0.277
 5583.00    0.83833   0.82021    0.276
 5584.00    0.82852   0.81312    0.275
 5585.00    0.82348   0.80695    0.274
 5586.00    0.81868   0.80306    0.273
 5587.00    0.82217   0.80163    0.276
 5588.00    0.82559   0.80255    0.279
 5589.00    0.81785   0.80531    0.279
 5590.00    0.81082   0.80898    0.278
 5591.00    0.81771   0.81275    0.280
 5592.00    0.82382   0.81633    0.282
 5593.00    0.82074   0.81990    0.279
 5594.00    0.81845   0.82284    0.277
 5595.00    0.82250   0.82331    0.280
 5596.00    0.82639   0.82166    0.283
 5597.00    0.82919   0.82045    0.282
 5598.00    0.83175   0.82050    0.281
 5599.00    0.83315   0.82115    0.281
 5600.00    0.83463   0.82279    0.282
 5601.00    0.83645   0.82654    0.282
 5602.00    0.83885   0.83277    0.282
 5603.00    0.84311   0.83978    0.281
 5604.00    0.84532   0.84594    0.280
 5605.00    0.84193   0.85090    0.278
 5606.00    0.84218   0.85443    0.276
 5607.00    0.85094   0.85594    0.275
 5608.00    0.85790   0.85475    0.274
 5609.00    0.86124   0.85137    0.273
 5610.00    0.86084   0.84701    0.272
 5611.00    0.85383   0.84181    0.272
 5612.00    0.84746   0.83515    0.272
 5613.00    0.84206   0.82812    0.273
 5614.00    0.83871   0.82405    0.275
 5615.00    0.83814   0.82360    0.276
 5616.00    0.83493   0.82398    0.277
 5617.00    0.82856   0.82371    0.278
 5618.00    0.82671   0.82373    0.278
 5619.00    0.82963   0.82489    0.276
 5620.00    0.82617   0.82610    0.274
 5621.00    0.81679   0.82583    0.271
 5622.00    0.81592   0.82462    0.272
 5623.00    0.82202   0.82490    0.275
 5624.00    0.82443   0.82759    0.274
 5625.00    0.82419   0.83111    0.272
 5626.00    0.82501   0.83444    0.271
 5627.00    0.82652   0.83791    0.272
 5628.00    0.83186   0.84116    0.270
 5629.00    0.83932   0.84312    0.269
 5630.00    0.84156   0.84318    0.268
 5631.00    0.84128   0.84162    0.268
 5632.00    0.83817   0.83918    0.268
 5633.00    0.83389   0.83632    0.269
 5634.00    0.83513   0.83303    0.268
 5635.00    0.83832   0.82976    0.267
 5636.00    0.83697   0.82755    0.267
 5637.00    0.83425   0.82658    0.267
 5638.00    0.83345   0.82599    0.267
 5639.00    0.83312   0.82547    0.267
 5640.00    0.83592   0.82595    0.267
 5641.00    0.83935   0.82750    0.268
 5642.00    0.83532   0.82916    0.267
 5643.00    0.83011   0.83065    0.266
 5644.00    0.83341   0.83220    0.265
 5645.00    0.83771   0.83397    0.265
 5646.00    0.84006   0.83544    0.264
 5647.00    0.84225   0.83597    0.264
 5648.00    0.84031   0.83578    0.265
 5649.00    0.83818   0.83552    0.266
 5650.00    0.83256   0.83492    0.267
 5651.00    0.82692   0.83265    0.268
 5652.00    0.82224   0.82835    0.268
 5653.00    0.81794   0.82398    0.269
 5654.00    0.82047   0.82089    0.271
 5655.00    0.82325   0.81732    0.273
 5656.00    0.82882   0.81263    0.274
 5657.00    0.83324   0.81010    0.274
 5658.00    0.82876   0.81124    0.272
 5659.00    0.82499   0.81325    0.270
 5660.00    0.82539   0.81449    0.273
 5661.00    0.82583   0.81651    0.275
 5662.00    0.82645   0.82024    0.273
 5663.00    0.82745   0.82399    0.272
 5664.00    0.82992   0.82630    0.273
 5665.00    0.83118   0.82781    0.272
 5666.00    0.82856   0.82995    0.268
 5667.00    0.82845   0.83286    0.265
 5668.00    0.83506   0.83565    0.266
 5669.00    0.83875   0.83824    0.267
 5670.00    0.83573   0.84137    0.267
 5671.00    0.83319   0.84477    0.266
 5672.00    0.83162   0.84697    0.266
 5673.00    0.83204   0.84767    0.266
 5674.00    0.83594   0.84789    0.267
 5675.00    0.83967   0.84754    0.268
 5676.00    0.84316   0.84549    0.270
 5677.00    0.84563   0.84228    0.271
 5678.00    0.84675   0.83932    0.273
 5679.00    0.84446   0.83648    0.272
 5680.00    0.83813   0.83289    0.269
 5681.00    0.83429   0.82951    0.267
 5682.00    0.83305   0.82770    0.264
 5683.00    0.83412   0.82707    0.263
 5684.00    0.83733   0.82661    0.264
 5685.00    0.84165   0.82661    0.264
 5686.00    0.84689   0.82810    0.264
 5687.00    0.84140   0.83089    0.263
 5688.00    0.82829   0.83399    0.261
 5689.00    0.82275   0.83676    0.262
 5690.00    0.82193   0.83932    0.264
 5691.00    0.82756   0.84107    0.264
 5692.00    0.83671   0.84122    0.263
 5693.00    0.83827   0.84015    0.263
 5694.00    0.83624   0.83832    0.265
 5695.00    0.83651   0.83536    0.266
 5696.00    0.83772   0.83126    0.269
 5697.00    0.83662   0.82741    0.269
 5698.00    0.83473   0.82423    0.270
 5699.00    0.83720   0.82084    0.270
 5700.00    0.84096   0.81740    0.270
 5701.00    0.84097   0.81469    0.269
 5702.00    0.84006   0.81234    0.268
 5703.00    0.83291   0.80928    0.267
 5704.00    0.82454   0.80576    0.266
 5705.00    0.82214   0.80272    0.264
 5706.00    0.82066   0.80053    0.263
 5707.00    0.82556   0.79972    0.262
 5708.00    0.83117   0.80095    0.262
 5709.00    0.83110   0.80378    0.263
 5710.00    0.83060   0.80799    0.265
 5711.00    0.83267   0.81389    0.263
 5712.00    0.83484   0.82058    0.261
 5713.00    0.83518   0.82689    0.261
 5714.00    0.83564   0.83260    0.260
 5715.00    0.84118   0.83769    0.260
 5716.00    0.84666   0.84210    0.260
 5717.00    0.85092   0.84582    0.262
 5718.00    0.85523   0.84870    0.263
 5719.00    0.86001   0.85075    0.261
 5720.00    0.86383   0.85194    0.259
 5721.00    0.86035   0.85206    0.259
 5722.00    0.85788   0.85146    0.259
 5723.00    0.86113   0.85054    0.259
 5724.00    0.86354   0.84884    0.259
 5725.00    0.86215   0.84636    0.260
 5726.00    0.85992   0.84463    0.261
 5727.00    0.85456   0.84435    0.260
 5728.00    0.84991   0.84418    0.260
 5729.00    0.84751   0.84350    0.261
 5730.00    0.84638   0.84349    0.261
 5731.00    0.84858   0.84471    0.263
 5732.00    0.85039   0.84598    0.263
 5733.00    0.85132   0.84648    0.260
 5734.00    0.85309   0.84652    0.259
 5735.00    0.85651   0.84648    0.260
 5736.00    0.86103   0.84625    0.262
 5737.00    0.86742   0.84571    0.264
 5738.00    0.86932   0.84525    0.265
 5739.00    0.86451   0.84513    0.263
 5740.00    0.85926   0.84503    0.000
 5741.00    0.85344   0.84457    0.000
 5742.00    0.85045   0.84408    0.000
 5743.00    0.85074   0.84405    0.000
 5744.00    0.85194   0.84385    0.000
 5745.00    0.85405   0.84251    0.000
 5746.00    0.85533   0.84019    0.000
 5747.00    0.85586   0.83815    0.000
 5748.00    0.85512   0.83665    0.000
 5749.00    0.85337   0.83513    0.000
 5750.00    0.85247   0.83343    0.000
 5751.00    0.85217   0.83204    0.000
 5752.00    0.85331   0.83172    0.000
 5753.00    0.85534   0.83265    0.000
 5754.00    0.85571   0.83402    0.000
 5755.00    0.85520   0.83472    0.000
 5756.00    0.85328   0.83454    0.000
 5757.00    0.85072   0.83395    0.000
 5758.00    0.84629   0.83351    0.000
 5759.00    0.84112   0.83318    0.000
 5760.00    0.84391   0.83307    0.000
 5761.00    0.84941   0.83415    0.000
 5762.00    0.85277   0.83704    0.000
 5763.00    0.85552   0.84058    0.000
 5764.00    0.85533   0.84352    0.000
 5765.00    0.85444   0.84578    0.000
 5766.00    0.85929   0.84738    0.000
 5767.00    0.86523   0.84801    0.000
 5768.00    0.86038   0.84752    0.000
 5769.00    0.85393   0.84624    0.000
 5770.00    0.85492   0.84468    0.000
 5771.00    0.85673   0.84313    0.000
 5772.00    0.85529   0.84138    0.000
 5773.00    0.85362   0.83917    0.000
 5774.00    0.85558   0.83628    0.000
 5775.00    0.85766   0.83237    0.000
 5776.00    0.86460   0.82771    0.000
 5777.00    0.87118   0.82259    0.000
 5778.00    0.86428   0.81668    0.000
 5779.00    0.85758   0.81042    0.000
 5780.00    0.85414   0.80595    0.000
 5781.00    0.85049   0.80419    0.000
 5782.00    0.84473   0.80386    0.000
 5783.00    0.83935   0.80454    0.000
 5784.00    0.83674   0.80712    0.000
 5785.00    0.83511   0.81141    0.000
 5786.00    0.83896   0.81612    0.000
 5787.00    0.84270   0.82045    0.000
 5788.00    0.84594   0.82420    0.000
 5789.00    0.84785   0.82759    0.000
 5790.00    0.84494   0.83087    0.000
 5791.00    0.84208   0.83348   -2.000
 5792.00    0.83935   0.83528   -2.000
 5793.00    0.83558   0.83715   -2.000
 5794.00    0.82913   0.83889   -2.000
 5795.00    0.82640   0.83973   -2.000
 5796.00    0.83201   0.84037   -2.000
 5797.00    0.83672   0.84179   -2.000
 5798.00    0.83970   0.84300   -2.000
 5799.00    0.84135   0.84320   -2.000
 5800.00    0.84078   0.84306   -2.000
 5801.00    0.84180   0.84286   -2.000
 5802.00    0.84518   0.84195   -2.000
 5803.00    0.84917   0.84070   -2.000
 5804.00    0.85394   0.84007   -2.000
 5805.00    0.85752   0.83999   -2.000
 5806.00    0.85972   0.83993   -2.000
 5807.00    0.86069   0.83996   -2.000
 5808.00    0.86042   0.84029   -2.000
 5809.00    0.86257   0.84035   -2.000
 5810.00    0.86689   0.83984   -2.000
 5811.00    0.86926   0.83939    0.000
 5812.00    0.87010   0.83952    0.000
 5813.00    0.86479   0.83975    0.000
 5814.00    0.85524   0.84015    0.000
 5815.00    0.85450   0.84161    0.000
 5816.00    0.85910   0.84411    0.000
 5817.00    0.86372   0.84653    0.000
 5818.00    0.86836   0.84845    0.000
 5819.00    0.86625   0.85024    0.000
 5820.00    0.86106   0.85170    0.000
 5821.00    0.85855   0.85245    0.000
 5822.00    0.85709   0.85277    0.000
 5823.00    0.85905   0.85319    0.000
 5824.00    0.86215   0.85346    0.000
 5825.00    0.86294   0.85327    0.000
 5826.00    0.86307   0.85297    0.000
 5827.00    0.86389   0.85278    0.000
 5828.00    0.86487   0.85218    0.000
 5829.00    0.86452   0.85096    0.000
 5830.00    0.86391   0.84988    0.000
 5831.00    0.86759   0.84905    0.000
 5832.00    0.87188   0.84786    0.000
 5833.00    0.86988   0.84674    0.000
 5834.00    0.86722   0.84671    0.000
 5835.00    0.85819   0.84734    0.000
 5836.00    0.84872   0.84773    0.000
 5837.00    0.84919   0.84828    0.000
 5838.00    0.84999   0.84941    0.000
 5839.00    0.85231   0.85028    0.000
 5840.00    0.85475   0.85015    0.000
 5841.00    0.86067   0.84921    0.000
 5842.00    0.86618   0.84769    0.000
 5843.00    0.86561   0.84555    0.000
 5844.00    0.86484   0.84289    0.000
 5845.00    0.86217   0.83992    0.000
 5846.00    0.85910   0.83678    0.000
 5847.00    0.85331   0.83354    0.000
 5848.00    0.84794   0.83035    0.000
 5849.00    0.84487   0.82730    0.000
 5850.00    0.84231   0.82392    0.000
 5851.00    0.84190   0.81992    0.000
 5852.00    0.84172   0.81632    0.000
 5853.00    0.84231   0.81405    0.000
 5854.00    0.84145   0.81242    0.000
 5855.00    0.83622   0.81085    0.000
 5856.00    0.83401   0.81027    0.000
 5857.00    0.83954   0.81149    0.000
 5858.00    0.84227   0.81384    0.000
 5859.00    0.83885   0.81629    0.000
 5860.00    0.83717   0.81830    0.000
 5861.00    0.83879   0.82023    0.000
 5862.00    0.84081   0.82255    0.000
 5863.00    0.84349   0.82483    0.000
 5864.00    0.84518   0.82624    0.000
 5865.00    0.84541   0.82715    0.000
 5866.00    0.84729   0.82829    0.000
 5867.00    0.85129   0.82925    0.000
 5868.00    0.85480   0.82914    0.000
 5869.00    0.85778   0.82782    0.000
 5870.00    0.85735   0.82569    0.000
 5871.00    0.85352   0.82325    0.000
 5872.00    0.85084   0.82074    0.000
 5873.00    0.84916   0.81799    0.000
 5874.00    0.84803   0.81534    0.000
 5875.00    0.84732   0.81373    0.000
 5876.00    0.84459   0.81338    0.000
 5877.00    0.84049   0.81277    0.000
 5878.00    0.84238   0.81129    0.000
 5879.00    0.84786   0.80957    0.000
 5880.00    0.84500   0.80735    0.000
 5881.00    0.83781   0.80297    0.000
 5882.00    0.83271   0.79561    0.000
 5883.00    0.82855   0.78524    0.000
 5884.00    0.82460   0.77237    0.000
 5885.00    0.82073   0.75868    0.000
 5886.00    0.81459   0.74524    0.000
 5887.00    0.80770   0.73180    0.000
 5888.00    0.79733   0.72045    0.000
 5889.00    0.78601   0.71414    0.000
 5890.00    0.77805   0.71190    0.000
 5891.00    0.77086   0.71228    0.000
 5892.00    0.77124   0.71588    0.000
 5893.00    0.77299   0.72145    0.000
 5894.00    0.77546   0.72812    0.000
 5895.00    0.77804   0.73819    0.000
 5896.00    0.78310   0.75105    0.000
 5897.00    0.78842   0.76308    0.000
 5898.00    0.79936   0.77407    0.000
 5899.00    0.81067   0.78520    0.000
 5900.00    0.81496   0.79486    0.000
 5901.00    0.81903   0.80186    0.245
 5902.00    0.81947   0.80715    0.243
 5903.00    0.81989   0.81105    0.241
 5904.00    0.81988   0.81344    0.242
 5905.00    0.82007   0.81516    0.242
 5906.00    0.82338   0.81660    0.242
 5907.00    0.82623   0.81704    0.242
 5908.00    0.82487   0.81632    0.242
 5909.00    0.82368   0.81531    0.242
 5910.00    0.82368   0.81425    0.244
 5911.00    0.82380   0.81269    0.245
 5912.00    0.82456   0.81095    0.244
 5913.00    0.82534   0.81004    0.243
 5914.00    0.82621   0.81022    0.243
 5915.00    0.82534   0.81112    0.244
 5916.00    0.81833   0.81237    0.243
 5917.00    0.81456   0.81392    0.243
 5918.00    0.82026   0.81578    0.244
 5919.00    0.82559   0.81748    0.245
 5920.00    0.82998   0.81851    0.244
 5921.00    0.83215   0.81917    0.244
 5922.00    0.82953   0.81968    0.243
 5923.00    0.82732   0.81960    0.243
 5924.00    0.82586   0.81887    0.242
 5925.00    0.82583   0.81800    0.242
 5926.00    0.82813   0.81727    0.242
 5927.00    0.83009   0.81645    0.242
 5928.00    0.83156   0.81540    0.241
 5929.00    0.83117   0.81485    0.241
 5930.00    0.82843   0.81530    0.240
 5931.00    0.82862   0.81595    0.240
 5932.00    0.83208   0.81609    0.239
 5933.00    0.83295   0.81650    0.239
 5934.00    0.83129   0.81767    0.240
 5935.00    0.82837   0.81843    0.239
 5936.00    0.82436   0.81836    0.238
 5937.00    0.82461   0.81845    0.238
 5938.00    0.82813   0.81865    0.239
 5939.00    0.83042   0.81825    0.240
 5940.00    0.83188   0.81782    0.240
 5941.00    0.83313   0.81798    0.239
 5942.00    0.83427   0.81800    0.239
 5943.00    0.83592   0.81740    0.240
 5944.00    0.83784   0.81681    0.241
 5945.00    0.83896   0.81644    0.242
 5946.00    0.83973   0.81541    0.242
 5947.00    0.84063   0.81359    0.244
 5948.00    0.84158   0.81240    0.245
 5949.00    0.83906   0.81225    0.246
 5950.00    0.83543   0.81164    0.246
 5951.00    0.83162   0.81045    0.245
 5952.00    0.82777   0.81041    0.245
 5953.00    0.82918   0.81153    0.244
 5954.00    0.83174   0.81236    0.242
 5955.00    0.83322   0.81315    0.242
 5956.00    0.83450   0.81492    0.241
 5957.00    0.83431   0.81730    0.241
 5958.00    0.83392   0.81953    0.240
 5959.00    0.83280   0.82149    0.241
 5960.00    0.83160   0.82311    0.241
 5961.00    0.83402   0.82439    0.240
 5962.00    0.83666   0.82552    0.238
 5963.00    0.84094   0.82628    0.238
 5964.00    0.84523   0.82671    0.237
 5965.00    0.84454   0.82746    0.237
 5966.00    0.84380   0.82840    0.236
 5967.00    0.84167   0.82887    0.236
 5968.00    0.83988   0.82891    0.236
 5969.00    0.84251   0.82854    0.236
 5970.00    0.84510   0.82728    0.236
 5971.00    0.84724   0.82521    0.236
 5972.00    0.84896   0.82280    0.236
 5973.00    0.84797   0.82016    0.237
 5974.00    0.84661   0.81751    0.237
 5975.00    0.84341   0.81540    0.238
 5976.00    0.83989   0.81388    0.238
 5977.00    0.83505   0.81265    0.237
 5978.00    0.83057   0.81145    0.237
 5979.00    0.82734   0.81030    0.239
 5980.00    0.82479   0.80944    0.240
 5981.00    0.82418   0.80867    0.239
 5982.00    0.82383   0.80774    0.239
 5983.00    0.82412   0.80758    0.240
 5984.00    0.82454   0.80883    0.241
 5985.00    0.82524   0.81039    0.241
 5986.00    0.82615   0.81166    0.240
 5987.00    0.82745   0.81356    0.239
 5988.00    0.82925   0.81593    0.238
 5989.00    0.83186   0.81741    0.238
 5990.00    0.83291   0.81802    0.237
 5991.00    0.83175   0.81856    0.237
 5992.00    0.83225   0.81866    0.236
 5993.00    0.83481   0.81784    0.235
 5994.00    0.83742   0.81661    0.234
 5995.00    0.84009   0.81539    0.234
 5996.00    0.84091   0.81405    0.234
 5997.00    0.83994   0.81262    0.234
 5998.00    0.83482   0.81144    0.234
 5999.00    0.82618   0.81059    0.233
 6000.00    0.82088   0.80949    0.233
 6001.00    0.81810   0.80800    0.233
 6002.00    0.81697   0.80662    0.232
 6003.00    0.81694   0.80539    0.230
 6004.00    0.81441   0.80432    0.230
 6005.00    0.81045   0.80362    0.230
 6006.00    0.80918   0.80307    0.232
 6007.00    0.80927   0.80273    0.234
 6008.00    0.81216   0.80310    0.235
 6009.00    0.81628   0.80380    0.235
 6010.00    0.82046   0.80374    0.237
 6011.00    0.82466   0.80292    0.241
 6012.00    0.82457   0.80247    0.242
 6013.00    0.82310   0.80245    0.241
 6014.00    0.82147   0.80160    0.243
 6015.00    0.81979   0.80015    0.244
 6016.00    0.82007   0.79977    0.243
 6017.00    0.82076   0.80010    0.241
 6018.00    0.82257   0.79996    0.243
 6019.00    0.82457   0.80023    0.245
 6020.00    0.82359   0.80195    0.242
 6021.00    0.82221   0.80412    0.239
 6022.00    0.82215   0.80601    0.238
 6023.00    0.82221   0.80868    0.237
 6024.00    0.82237   0.81202    0.235
 6025.00    0.82254   0.81474    0.234
 6026.00    0.82661   0.81707    0.234
 6027.00    0.83078   0.81984    0.235
 6028.00    0.83676   0.82231    0.234
 6029.00    0.84253   0.82385    0.233
 6030.00    0.84344   0.82519    0.233
 6031.00    0.84420   0.82655    0.233
 6032.00    0.84314   0.82733    0.232
 6033.00    0.84168   0.82747    0.231
 6034.00    0.83689   0.82742    0.231
 6035.00    0.83251   0.82725    0.231
 6036.00    0.83085   0.82689    0.231
 6037.00    0.82891   0.82643    0.231
 6038.00    0.82559   0.82628    0.230
 6039.00    0.82282   0.82657    0.230
 6040.00    0.82223   0.82698    0.231
 6041.00    0.82205   0.82769    0.232
 6042.00    0.82319   0.82884    0.234
 6043.00    0.82383   0.82982    0.236
 6044.00    0.82306   0.83033    0.237
 6045.00    0.82255   0.83083    0.237
 6046.00    0.82269   0.83100    0.238
 6047.00    0.82375   0.83025    0.239
 6048.00    0.82676   0.82898    0.240
 6049.00    0.83077   0.82765    0.240
 6050.00    0.83659   0.82594    0.238
 6051.00    0.84038   0.82374    0.236
 6052.00    0.84096   0.82187    0.234
 6053.00    0.83878   0.82059    0.234
 6054.00    0.83275   0.81955    0.234
 6055.00    0.83075   0.81873    0.234
 6056.00    0.83371   0.81825    0.233
 6057.00    0.83575   0.81788    0.233
 6058.00    0.83682   0.81736    0.233
 6059.00    0.83597   0.81654    0.232
 6060.00    0.83331   0.81529    0.231
 6061.00    0.83100   0.81458    0.231
 6062.00    0.82899   0.81498    0.231
 6063.00    0.82792   0.81572    0.232
 6064.00    0.82755   0.81708    0.233
 6065.00    0.82787   0.81999    0.232
 6066.00    0.82864   0.82359    0.230
 6067.00    0.82926   0.82656    0.231
 6068.00    0.82980   0.82906    0.233
 6069.00    0.83278   0.83112    0.233
 6070.00    0.83697   0.83200    0.233
 6071.00    0.83769   0.83161    0.235
 6072.00    0.83691   0.83017    0.237
 6073.00    0.83498   0.82757    0.237
 6074.00    0.83264   0.82443    0.236
 6075.00    0.83289   0.82141    0.236
 6076.00    0.83395   0.81788    0.237
 6077.00    0.83399   0.81407    0.237
 6078.00    0.83376   0.81161    0.238
 6079.00    0.83039   0.81012    0.236
 6080.00    0.82636   0.80822    0.234
 6081.00    0.82748   0.80687    0.233
 6082.00    0.82946   0.80699    0.233
 6083.00    0.83159   0.80718    0.235
 6084.00    0.83375   0.80660    0.236
 6085.00    0.83161   0.80621    0.233
 6086.00    0.82909   0.80653    0.230
 6087.00    0.82555   0.80661    0.230
 6088.00    0.82195   0.80612    0.230
 6089.00    0.81968   0.80631    0.228
 6090.00    0.81752   0.80755    0.226
 6091.00    0.82197   0.80851    0.227
 6092.00    0.82631   0.80911    0.228
 6093.00    0.82828   0.81011    0.228
 6094.00    0.82992   0.81082    0.228
 6095.00    0.82758   0.81046    0.229
 6096.00    0.82529   0.80914    0.230
 6097.00    0.82335   0.80664    0.232
 6098.00    0.82196   0.80379    0.234
 6099.00    0.82391   0.80200    0.234
 6100.00    0.82584   0.80030    0.235
 6101.00    0.82770   0.79872    0.237
 6102.00    0.82872   0.79915    0.238
 6103.00    0.82648   0.80131    0.237
 6104.00    0.82502   0.80370    0.237
 6105.00    0.82616   0.80616    0.238
 6106.00    0.82793   0.80870    0.238
 6107.00    0.83146   0.81105    0.237
 6108.00    0.83482   0.81324    0.236
 6109.00    0.83781   0.81460    0.236
 6110.00    0.83903   0.81488    0.236
 6111.00    0.83661   0.81472    0.236
 6112.00    0.83466   0.81439    0.235
 6113.00    0.83356   0.81319    0.232
 6114.00    0.83193   0.81060    0.230
 6115.00    0.82950   0.80752    0.230
 6116.00    0.82720   0.80446    0.229
 6117.00    0.82508   0.80076    0.229
 6118.00    0.82375   0.79753    0.229
 6119.00    0.82338   0.79583    0.228
 6120.00    0.82253   0.79448    0.228
 6121.00    0.82115   0.79389    0.229
 6122.00    0.82082   0.79523    0.230
 6123.00    0.82147   0.79702    0.229
 6124.00    0.82142   0.79834    0.229
 6125.00    0.82080   0.80029    0.229
 6126.00    0.82055   0.80222    0.229
 6127.00    0.82056   0.80278    0.229
 6128.00    0.82150   0.80246    0.229
 6129.00    0.82303   0.80131    0.230
 6130.00    0.82077   0.79862    0.230
 6131.00    0.81639   0.79437    0.230
 6132.00    0.81217   0.78921    0.231
 6133.00    0.80802   0.78487    0.233
 6134.00    0.80488   0.78212    0.235
 6135.00    0.80215   0.78018    0.237
 6136.00    0.80508   0.77949    0.238
 6137.00    0.81004   0.78176    0.239
 6138.00    0.81394   0.78640    0.239
 6139.00    0.81752   0.79079    0.239
 6140.00    0.81872   0.79462    0.237
 6141.00    0.81931   0.79898    0.236
 6142.00    0.82189   0.80279    0.236
 6143.00    0.82489   0.80447    0.235
 6144.00    0.82548   0.80478    0.233
 6145.00    0.82568   0.80488    0.230
 6146.00    0.82657   0.80434    0.228
 6147.00    0.82755   0.80312    0.226
 6148.00    0.82138   0.80192    0.227
 6149.00    0.81461   0.80053    0.227
 6150.00    0.80974   0.79895    0.225
 6151.00    0.80497   0.79766    0.223
 6152.00    0.80636   0.79565    0.225
 6153.00    0.80780   0.79223    0.227
 6154.00    0.80640   0.78842    0.228
 6155.00    0.80501   0.78387    0.228
 6156.00    0.80388   0.77726    0.232
 6157.00    0.80266   0.77004    0.235
 6158.00    0.80045   0.76426    0.236
 6159.00    0.79858   0.75938    0.237
 6160.00    0.79941   0.75505    0.237
 6161.00    0.79984   0.75266    0.237
 6162.00    0.79792   0.75317    0.237
 6163.00    0.79556   0.75491    0.238
 6164.00    0.79108   0.75604    0.237
 6165.00    0.78793   0.75784    0.237
 6166.00    0.78991   0.76147    0.237
 6167.00    0.79275   0.76447    0.237
 6168.00    0.79832   0.76585    0.236
 6169.00    0.80241   0.76858    0.234
 6170.00    0.80240   0.77278    0.234
 6171.00    0.80132   0.77564    0.234
 6172.00    0.79770   0.77786    0.231
 6173.00    0.79503   0.78147    0.230
 6174.00    0.79430   0.78479    0.230
 6175.00    0.79198   0.78644    0.229
 6176.00    0.78688   0.78834    0.228
 6177.00    0.78182   0.79077    0.227
 6178.00    0.77683   0.79188    0.224
 6179.00    0.77318   0.79210    0.223
 6180.00    0.77133   0.79248    0.224
 6181.00    0.77212   0.79173    0.224
 6182.00    0.77605   0.78935    0.224
 6183.00    0.78024   0.78656    0.225
 6184.00    0.78469   0.78365    0.227
 6185.00    0.78676   0.78007    0.228
 6186.00    0.78663   0.77595    0.228
 6187.00    0.78691   0.77305    0.230
 6188.00    0.78754   0.77227    0.234
 6189.00    0.78673   0.77202    0.235
 6190.00    0.78490   0.77228    0.234
 6191.00    0.78321   0.77464    0.233
 6192.00    0.78160   0.77817    0.233
 6193.00    0.78168   0.78067    0.235
 6194.00    0.78269   0.78249    0.239
 6195.00    0.77365   0.78448    0.245
 6196.00    0.75980   0.78618   -2.000
 6197.00    0.74423   0.78715   -2.000
 6198.00    0.72795   0.78775   -2.000
 6199.00    0.73237   0.78882   -2.000
 6200.00    0.74411   0.79042   -2.000
 6201.00    0.77563   0.79187   -2.000
 6202.00    0.81306   0.79292   -2.000
 6203.00    0.83930   0.79372   -2.000
 6204.00    0.86277   0.79395   -2.000
 6205.00    0.86207   0.79295   -2.000
 6206.00    0.85652   0.79078   -2.000
 6207.00    0.84030   0.78778   -2.000
 6208.00    0.82239   0.78366    0.233
 6209.00    0.81248   0.77876    0.233
 6210.00    0.80349   0.77395    0.232
 6211.00    0.79991   0.76931    0.228
 6212.00    0.79675   0.76519    0.224
 6213.00    0.79245   0.76232    0.227
 6214.00    0.78810   0.76036    0.229
 6215.00    0.78482   0.75919    0.231
 6216.00    0.78156   0.75933    0.232
 6217.00    0.77894   0.76026    0.233
 6218.00    0.77664   0.76120    0.234
 6219.00    0.78017   0.76231    0.233
 6220.00    0.78388   0.76382    0.233
 6221.00    0.78943   0.76496    0.233
 6222.00    0.79410   0.76507    0.233
 6223.00    0.79189   0.76470    0.233
 6224.00    0.79012   0.76401    0.232
 6225.00    0.79086   0.76201    0.231
 6226.00    0.79134   0.75956    0.230
 6227.00    0.79056   0.75822    0.232
 6228.00    0.78923   0.75710    0.234
 6229.00    0.78582   0.75647    0.235
 6230.00    0.78377   0.75779    0.234
 6231.00    0.78601   0.75990    0.229
 6232.00    0.78704   0.76143    0.225
 6233.00    0.78484   0.76324    0.226
 6234.00    0.78280   0.76457    0.225
 6235.00    0.78112   0.76384    0.223
 6236.00    0.78038   0.76252    0.221
 6237.00    0.78151   0.76093    0.221
 6238.00    0.78281   0.75789    0.223
 6239.00    0.78439   0.75520    0.226
 6240.00    0.78498   0.75412    0.228
 6241.00    0.78407   0.75300    0.229
 6242.00    0.78447   0.75234    0.229
 6243.00    0.78663   0.75373    0.230
 6244.00    0.78819   0.75518    0.231
 6245.00    0.78906   0.75580    0.233
 6246.00    0.78904   0.75679    0.233
 6247.00    0.78807   0.75688    0.232
 6248.00    0.78687   0.75526    0.232
 6249.00    0.78544   0.75317    0.233
 6250.00    0.78343   0.75047    0.233
 6251.00    0.78095   0.74699    0.232
 6252.00    0.77820   0.74407    0.232
 6253.00    0.77527   0.74192    0.231
 6254.00    0.77355   0.74067    0.231
 6255.00    0.77260   0.74135    0.231
 6256.00    0.77350   0.74313    0.230
 6257.00    0.77543   0.74569    0.229
 6258.00    0.77400   0.74994    0.231
 6259.00    0.77099   0.75465    0.235
 6260.00    0.76613   0.75806    0.246
 6261.00    0.76051   0.76153    0.262
 6262.00    0.76689   0.76534    0.270
 6263.00    0.77744   0.76734    0.274
 6264.00    0.79350   0.76820    0.269
 6265.00    0.81118   0.76971    0.260
 6266.00    0.81808   0.77092    0.250
 6267.00    0.82235   0.77132    0.239
 6268.00    0.81653   0.77214    0.233
 6269.00    0.80872   0.77323    0.228
 6270.00    0.80349   0.77397    0.227
 6271.00    0.79864   0.77459    0.228
 6272.00    0.80011   0.77485    0.229
 6273.00    0.80229   0.77466    0.231
 6274.00    0.80115   0.77434    0.232
 6275.00    0.79977   0.77358    0.232
 6276.00    0.80169   0.77263    0.232
 6277.00    0.80375   0.77215    0.232
 6278.00    0.80050   0.77208    0.231
 6279.00    0.79733   0.77250    0.231
 6280.00    0.79875   0.77371    0.000
 6281.00    0.80007   0.77551    0.000
 6282.00    0.79961   0.77758    0.000
 6283.00    0.79924   0.77979    0.000
 6284.00    0.79972   0.78163    0.000
 6285.00    0.80062   0.78284    0.000
 6286.00    0.80467   0.78345    0.000
 6287.00    0.80826   0.78323    0.000
 6288.00    0.80921   0.78202    0.000
 6289.00    0.80951   0.78020    0.000
 6290.00    0.80689   0.77823    0.000
 6291.00    0.80432   0.77581    0.000
 6292.00    0.80193   0.77289    0.000
 6293.00    0.79877   0.77035    0.000
 6294.00    0.79323   0.76817    0.000
 6295.00    0.78935   0.76595    0.000
 6296.00    0.78982   0.76417    0.000
 6297.00    0.78970   0.76310    0.000
 6298.00    0.78824   0.76280    0.000
 6299.00    0.78775   0.76333    0.000
 6300.00    0.78917   0.76430    0.000
 6301.00    0.79091   0.76599    0.000
 6302.00    0.79319   0.76864    0.000
 6303.00    0.79459   0.77112    0.000
 6304.00    0.79469   0.77290    0.000
 6305.00    0.79484   0.77460    0.000
 6306.00    0.79507   0.77559    0.000
 6307.00    0.79623   0.77502    0.000
 6308.00    0.79847   0.77380    0.000
 6309.00    0.80003   0.77204    0.000
 6310.00    0.80089   0.76895    0.000
 6311.00    0.80009   0.76606    0.000
 6312.00    0.79779   0.76400    0.000
 6313.00    0.79302   0.76129    0.000
 6314.00    0.78628   0.75913    0.000
 6315.00    0.78267   0.75927    0.000
 6316.00    0.78126   0.76000    0.000
 6317.00    0.78447   0.76063    0.000
 6318.00    0.79051   0.76310    0.000
 6319.00    0.79408   0.76671    0.000
 6320.00    0.79633   0.76968    0.000
 6321.00    0.79770   0.77273    0.221
 6322.00    0.79865   0.77593    0.224
 6323.00    0.79967   0.77849    0.226
 6324.00    0.80071   0.78036    0.228
 6325.00    0.80168   0.78153    0.228
 6326.00    0.80262   0.78192    0.228
 6327.00    0.80099   0.78177    0.229
 6328.00    0.79861   0.78106    0.229
 6329.00    0.79671   0.77949    0.228
 6330.00    0.79491   0.77739    0.225
 6331.00    0.79519   0.77505    0.224
 6332.00    0.79586   0.77280    0.223
 6333.00    0.79353   0.77087    0.224
 6334.00    0.79076   0.76898    0.225
 6335.00    0.78837   0.76791    0.224
 6336.00    0.78603   0.76804    0.223
 6337.00    0.78668   0.76817    0.222
 6338.00    0.78754   0.76811    0.222
 6339.00    0.79027   0.76861    0.222
 6340.00    0.79307   0.76935    0.223
 6341.00    0.79433   0.76972    0.223
 6342.00    0.79558   0.77003    0.223
 6343.00    0.79666   0.77092    0.223
 6344.00    0.79765   0.77243    0.223
 6345.00    0.79710   0.77377    0.224
 6346.00    0.79660   0.77478    0.226
 6347.00    0.79657   0.77598    0.227
 6348.00    0.79683   0.77669    0.228
 6349.00    0.79921   0.77606    0.226
 6350.00    0.80112   0.77439    0.225
 6351.00    0.80045   0.77219    0.227
 6352.00    0.79949   0.76934    0.229
 6353.00    0.79723   0.76538    0.227
 6354.00    0.79527   0.76104    0.226
 6355.00    0.79444   0.75748    0.228
 6356.00    0.79204   0.75402    0.229
 6357.00    0.78481   0.75048    0.228
 6358.00    0.77929   0.74848    0.228
 6359.00    0.77816   0.74816    0.227
 6360.00    0.77874   0.74855    0.227
 6361.00    0.78310   0.75009    0.231
 6362.00    0.78620   0.75324    0.233
 6363.00    0.78686   0.75724    0.231
 6364.00    0.78814   0.76150    0.229
 6365.00    0.79048   0.76581    0.227
 6366.00    0.79318   0.76999    0.226
 6367.00    0.79644   0.77395    0.225
 6368.00    0.79753   0.77730    0.224
 6369.00    0.79583   0.77982    0.223
 6370.00    0.79537   0.78181    0.223
 6371.00    0.79632   0.78341    0.222
 6372.00    0.79751   0.78422    0.223
 6373.00    0.79895   0.78409    0.225
 6374.00    0.79795   0.78366    0.224
 6375.00    0.79478   0.78315    0.222
 6376.00    0.79215   0.78205    0.222
 6377.00    0.78993   0.78086    0.225
 6378.00    0.78968   0.78039    0.226
 6379.00    0.79079   0.78010    0.227
 6380.00    0.79395   0.77978    0.226
 6381.00    0.79834   0.78020    0.225
 6382.00    0.80285   0.78085    0.226
 6383.00    0.80742   0.78105    0.228
 6384.00    0.80676   0.78124    0.227
 6385.00    0.80371   0.78111    0.225
 6386.00    0.80153   0.78025    0.225
 6387.00    0.79968   0.77898    0.224
 6388.00    0.79747   0.77715    0.224
 6389.00    0.79514   0.77502    0.224
 6390.00    0.79017   0.77349    0.223
 6391.00    0.78444   0.77202    0.223
 6392.00    0.77938   0.77031    0.223
 6393.00    0.77447   0.76989    0.224
 6394.00    0.77243   0.77015    0.225
 6395.00    0.77093   0.76936    0.227
 6396.00    0.77499   0.76925    0.228
 6397.00    0.77985   0.77059    0.228
 6398.00    0.78717   0.77117    0.229
 6399.00    0.79476   0.77151    0.230
 6400.00    0.79803   0.77319    0.229
 6401.00    0.80101   0.77459    0.228
 6402.00    0.80019   0.77481    0.229
 6403.00    0.79924   0.77484    0.229
 6404.00    0.80140   0.77474    0.230
 6405.00    0.80359   0.77425    0.231
 6406.00    0.80672   0.77299    0.231
 6407.00    0.80941   0.77163    0.231
 6408.00    0.80535   0.77158    0.230
 6409.00    0.80107   0.77148    0.229
 6410.00    0.79461   0.77072    0.229
 6411.00    0.78868   0.77120    0.229
 6412.00    0.78642   0.77194    0.226
 6413.00    0.78479   0.77147    0.223
 6414.00    0.78655   0.77128    0.222
 6415.00    0.78806   0.77146    0.222
 6416.00    0.78847   0.77100    0.223
 6417.00    0.78855   0.77092    0.225
 6418.00    0.78743   0.77189    0.225
 6419.00    0.78691   0.77307    0.225
 6420.00    0.78816   0.77457    0.224
 6421.00    0.79017   0.77685    0.224
 6422.00    0.79410   0.77896    0.224
 6423.00    0.79806   0.78003    0.224
 6424.00    0.80206   0.78065    0.225
 6425.00    0.80467   0.78068    0.226
 6426.00    0.80461   0.77943    0.229
 6427.00    0.80411   0.77788    0.231
 6428.00    0.80289   0.77675    0.233
 6429.00    0.80252   0.77552    0.234
 6430.00    0.80339   0.77469    0.232
 6431.00    0.80236   0.77472    0.231
 6432.00    0.79890   0.77501    0.230
 6433.00    0.79639   0.77534    0.229
 6434.00    0.79497   0.77571    0.230
 6435.00    0.79271   0.77647    0.230
 6436.00    0.78963   0.77785    0.230
 6437.00    0.78626   0.77903    0.228
 6438.00    0.78266   0.78042    0.227
 6439.00    0.78129   0.78273    0.226
 6440.00    0.78165   0.78446    0.227
 6441.00    0.78450   0.78489    0.226
 6442.00    0.78903   0.78470    0.226
 6443.00    0.79313   0.78353    0.226
 6444.00    0.79698   0.78075    0.226
 6445.00    0.79383   0.77686    0.226
 6446.00    0.78705   0.77330    0.226
 6447.00    0.78100   0.77043    0.225
 6448.00    0.77527   0.76766    0.225
 6449.00    0.76861   0.76644    0.227
 6450.00    0.76158   0.76726    0.229
 6451.00    0.75037   0.76815    0.226
 6452.00    0.73780   0.76959    0.221
 6453.00    0.72642   0.77221    0.220
 6454.00    0.71538   0.77392    0.219
 6455.00    0.70378   0.77480    0.218
 6456.00    0.69206   0.77600    0.217
 6457.00    0.68105   0.77613    0.216
 6458.00    0.67018   0.77501    0.215
 6459.00    0.67474   0.77467    0.216
 6460.00    0.68145   0.77465    0.217
 6461.00    0.69841   0.77387    0.218
 6462.00    0.71638   0.77417    0.220
 6463.00    0.72703   0.77568    0.221
 6464.00    0.73722   0.77637    0.222
 6465.00    0.74802   0.77711    0.222
 6466.00    0.75883   0.77843    0.222
 6467.00    0.76711   0.77870    0.222
 6468.00    0.77513   0.77854    0.222
 6469.00    0.77621   0.77889    0.222
 6470.00    0.77730   0.77857    0.222
 6471.00    0.77859   0.77800    0.223
 6472.00    0.78034   0.77825    0.224
 6473.00    0.78634   0.77800    0.225
 6474.00    0.79196   0.77691    0.227
 6475.00    0.79502   0.77628    0.226
 6476.00    0.79722   0.77542    0.226
 6477.00    0.79486   0.77348    0.226
 6478.00    0.79230   0.77177    0.227
 6479.00    0.78889   0.77076    0.228
 6480.00    0.78560   0.76959    0.229
 6481.00    0.78274   0.76870    0.229
 6482.00    0.78004   0.76859    0.229
 6483.00    0.77782   0.76840    0.227
 6484.00    0.77692   0.76758    0.226
 6485.00    0.77933   0.76598    0.226
 6486.00    0.78083   0.76297    0.226
 6487.00    0.78039   0.75841    0.225
 6488.00    0.77882   0.75260    0.225
 6489.00    0.77518   0.74538    0.225
 6490.00    0.77155   0.73766    0.226
 6491.00    0.76796   0.73094    0.226
 6492.00    0.76443   0.72525    0.226
 6493.00    0.76099   0.72131    0.225
 6494.00    0.75851   0.72043    0.224
 6495.00    0.75723   0.72192    0.223
 6496.00    0.75903   0.72554    0.223
 6497.00    0.76425   0.73120    0.225
 6498.00    0.76891   0.73755    0.226
 6499.00    0.77302   0.74435    0.228
 6500.00    0.77583   0.75102    0.227
 6501.00    0.77751   0.75656    0.226
 6502.00    0.77833   0.76134    0.225
 6503.00    0.77849   0.76515    0.226
 6504.00    0.77949   0.76764    0.226
 6505.00    0.78106   0.76940    0.227
 6506.00    0.78273   0.77058    0.228
 6507.00    0.78446   0.77088    0.228
 6508.00    0.78554   0.77064    0.228
 6509.00    0.78629   0.77026    0.228
 6510.00    0.78918   0.76933    0.229
 6511.00    0.79300   0.76774    0.231
 6512.00    0.79423   0.76636    0.231
 6513.00    0.79448   0.76515    0.231
 6514.00    0.79529   0.76367    0.229
 6515.00    0.79628   0.76288    0.226
 6516.00    0.79810   0.76305    0.227
 6517.00    0.80015   0.76330    0.229
 6518.00    0.79861   0.76392    0.228
 6519.00    0.79628   0.76503    0.226
 6520.00    0.79481   0.76587    0.225
 6521.00    0.79348   0.76634    0.225
 6522.00    0.79394   0.76641    0.226
 6523.00    0.79463   0.76614    0.227
 6524.00    0.79397   0.76574    0.226
 6525.00    0.79319   0.76498    0.224
 6526.00    0.79293   0.76420    0.225
 6527.00    0.79271   0.76381    0.226
 6528.00    0.79473   0.76346    0.000
 6529.00    0.79678   0.76322    0.000
 6530.00    0.79420   0.76342    0.000
 6531.00    0.79183   0.76390    0.000
 6532.00    0.79492   0.76445    0.000
 6533.00    0.79772   0.76502    0.000
 6534.00    0.79660   0.76566    0.000
 6535.00    0.79529   0.76601    0.000
 6536.00    0.79223   0.76565    0.000
 6537.00    0.78974   0.76475    0.000
 6538.00    0.79101   0.76317    0.000
 6539.00    0.79253   0.76064    0.000
 6540.00    0.79526   0.75764    0.000
 6541.00    0.79718   0.75421    0.000
 6542.00    0.79577   0.75040    0.000
 6543.00    0.79549   0.74697    0.000
 6544.00    0.79905   0.74367    0.000
 6545.00    0.80220   0.74020    0.000
 6546.00    0.80415   0.73712    0.000
 6547.00    0.80487   0.73379    0.000
 6548.00    0.80257   0.72965    0.000
 6549.00    0.79999   0.72493    0.000
 6550.00    0.79681   0.71916    0.000
 6551.00    0.79279   0.71197    0.000
 6552.00    0.78721   0.70348    0.000
 6553.00    0.78334   0.69361    0.000
 6554.00    0.78221   0.68207    0.000
 6555.00    0.77962   0.66874    0.000
 6556.00    0.77497   0.65513    0.000
 6557.00    0.77113   0.64212    0.000
 6558.00    0.76830   0.62922    0.000
 6559.00    0.76615   0.61989    0.000
 6560.00    0.76474   0.61669    0.000
 6561.00    0.76687   0.61671    0.000
 6562.00    0.77242   0.62147    0.000
 6563.00    0.77418   0.63293    0.000
 6564.00    0.77271   0.64582    0.000
 6565.00    0.77116   0.65852    0.000
 6566.00    0.76956   0.67255    0.000
 6567.00    0.76973   0.68473    0.000
 6568.00    0.77107   0.69374    0.000
 6569.00    0.77228   0.70174    0.000
 6570.00    0.77343   0.70838    0.000
 6571.00    0.77325   0.71334    0.000
 6572.00    0.77240   0.71819    0.000
 6573.00    0.77393   0.72287    0.000
 6574.00    0.77649   0.72697    0.000
 6575.00    0.77692   0.73119    0.000
 6576.00    0.77655   0.73495    0.000
 6577.00    0.77772   0.73797    0.000
 6578.00    0.77938   0.74090    0.000
 6579.00    0.78945   0.74324    0.000
 6580.00    0.80175   0.74503    0.000
 6581.00    0.81147   0.74690    0.000
 6582.00    0.82063   0.74824    0.000
 6583.00    0.82167   0.74922    0.000
 6584.00    0.82133   0.75001    0.000
 6585.00    0.81584   0.74976    0.000
 6586.00    0.80969   0.74889    0.000
 6587.00    0.80310   0.74779    0.000
 6588.00    0.79647   0.74570    0.000
 6589.00    0.79016   0.74334    0.000
 6590.00    0.78387   0.74191    0.000
 6591.00    0.78241   0.74080    0.000
 6592.00    0.78103   0.74013    0.000
 6593.00    0.77840   0.74108    0.000
 6594.00    0.77581   0.74284    0.000
 6595.00    0.77415   0.74468    0.000
 6596.00    0.77286   0.74718    0.000
 6597.00    0.77634   0.74957    0.000
 6598.00    0.78029   0.75117    0.000
 6599.00    0.78829   0.75235    0.000
 6600.00    0.79476   0.75278    0.000
 6601.00    0.79148   0.75224    0.000
 6602.00    0.78846   0.75125    0.000
 6603.00    0.78677   0.75012    0.000
 6604.00    0.78496   0.74891    0.000
 6605.00    0.78272   0.74797    0.000
 6606.00    0.77983   0.74788    0.000
 6607.00    0.77478   0.74857    0.000
 6608.00    0.77197   0.74973    0.000
 6609.00    0.77548   0.75150    0.238
 6610.00    0.77843   0.75377    0.238
 6611.00    0.78004   0.75610    0.237
 6612.00    0.78134   0.75812    0.236
 6613.00    0.78198   0.75987    0.236
 6614.00    0.78206   0.76141    0.235
 6615.00    0.78111   0.76229    0.232
 6616.00    0.78002   0.76251    0.230
 6617.00    0.77872   0.76229    0.229
 6618.00    0.78105   0.76154    0.230
 6619.00    0.78841   0.76034    0.231
 6620.00    0.79321   0.75862    0.232
 6621.00    0.79487   0.75682    0.234
 6622.00    0.79242   0.75524    0.235
 6623.00    0.78554   0.75336    0.235
 6624.00    0.78063   0.75163    0.235
 6625.00    0.77759   0.75036    0.235
 6626.00    0.77713   0.74870    0.237
 6627.00    0.77884   0.74706    0.240
 6628.00    0.77918   0.74586    0.241
 6629.00    0.77851   0.74440    0.240
 6630.00    0.77733   0.74328    0.240
 6631.00    0.77581   0.74309    0.241
 6632.00    0.77455   0.74303    0.242
 6633.00    0.77343   0.74337    0.244
 6634.00    0.77172   0.74464    0.241
 6635.00    0.76970   0.74570    0.236
 6636.00    0.77126   0.74632    0.235
 6637.00    0.77435   0.74738    0.234
 6638.00    0.77487   0.74798    0.234
 6639.00    0.77445   0.74770    0.234
 6640.00    0.77207   0.74790    0.234
 6641.00    0.76909   0.74823    0.233
 6642.00    0.76828   0.74804    0.233
 6643.00    0.76803   0.74829    0.233
 6644.00    0.76936   0.74899    0.234
 6645.00    0.77101   0.74948    0.235
 6646.00    0.77219   0.74994    0.237
 6647.00    0.77328   0.75047    0.240
 6648.00    0.77106   0.75092    0.239
 6649.00    0.76842   0.75109    0.239
 6650.00    0.76830   0.75100    0.241
 6651.00    0.76841   0.75097    0.244
 6652.00    0.77329   0.75061    0.244
 6653.00    0.77841   0.74981    0.244
 6654.00    0.77468   0.74905    0.245
 6655.00    0.77079   0.74788    0.245
 6656.00    0.76659   0.74602    0.243
 6657.00    0.76271   0.74431    0.242
 6658.00    0.76573   0.74251    0.241
 6659.00    0.76819   0.74020    0.240
 6660.00    0.76391   0.73863    0.240
 6661.00    0.75992   0.73780    0.240
 6662.00    0.75824   0.73701    0.238
 6663.00    0.75721   0.73728    0.236
 6664.00    0.76020   0.73847    0.235
 6665.00    0.76188   0.73977    0.235
 6666.00    0.75718   0.74151    0.236
 6667.00    0.75444   0.74323    0.237
 6668.00    0.75946   0.74443    0.239
 6669.00    0.76397   0.74518    0.240
 6670.00    0.76679   0.74490    0.241
 6671.00    0.76881   0.74363    0.241
 6672.00    0.76864   0.74211    0.242
 6673.00    0.76715   0.73985    0.244
 6674.00    0.76256   0.73715    0.248
 6675.00    0.75900   0.73564    0.251
 6676.00    0.75758   0.73469    0.251
 6677.00    0.75690   0.73397    0.250
 6678.00    0.75757   0.73492    0.250
 6679.00    0.75908   0.73670    0.250
 6680.00    0.76191   0.73832    0.251
 6681.00    0.76377   0.74049    0.250
 6682.00    0.76429   0.74273    0.246
 6683.00    0.76680   0.74435    0.243
 6684.00    0.77171   0.74566    0.243
 6685.00    0.77370   0.74665    0.242
 6686.00    0.77259   0.74710    0.242
 6687.00    0.77341   0.74717    0.241
 6688.00    0.77605   0.74682    0.240
 6689.00    0.77680   0.74602    0.241
 6690.00    0.77598   0.74507    0.242
 6691.00    0.77213   0.74383    0.243
 6692.00    0.76607   0.74234    0.245
 6693.00    0.76076   0.74132    0.246
 6694.00    0.75592   0.74045    0.248
 6695.00    0.75326   0.73967    0.249
 6696.00    0.75182   0.73964    0.000
 6697.00    0.75478   0.73967    0.000
 6698.00    0.75989   0.73975    0.000
 6699.00    0.76347   0.74016    0.000
 6700.00    0.76640   0.74016    0.000
 6701.00    0.76557   0.74015    0.000
 6702.00    0.76338   0.74027    0.000
 6703.00    0.75916   0.73980    0.000
 6704.00    0.75432   0.73942    0.000
 6705.00    0.75780   0.73910    0.000
 6706.00    0.76339   0.73797    0.000
 6707.00    0.75936   0.73676    0.000
 6708.00    0.75334   0.73541    0.000
 6709.00    0.75598   0.73329    0.000
 6710.00    0.76003   0.73107    0.000
 6711.00    0.76422   0.72897    0.000
 6712.00    0.76844   0.72699    0.000
 6713.00    0.76639   0.72538    0.000
 6714.00    0.76381   0.72447    0.000
 6715.00    0.76874   0.72459    0.000
 6716.00    0.77402   0.72530    0.000
 6717.00    0.76985   0.72658    0.000
 6718.00    0.76560   0.72847    0.000
 6719.00    0.76484   0.73044    0.000
 6720.00    0.76371   0.73235    0.000
 6721.00    0.75543   0.73402    0.000
 6722.00    0.74824   0.73534    0.000
 6723.00    0.75359   0.73657    0.000
 6724.00    0.75850   0.73747    0.000
 6725.00    0.75993   0.73807    0.000
 6726.00    0.76192   0.73874    0.000
 6727.00    0.76730   0.73922    0.000
 6728.00    0.77110   0.73938    0.000
 6729.00    0.76736   0.73946    0.000
 6730.00    0.76631   0.73926    0.000
 6731.00    0.77561   0.73867    0.000
 6732.00    0.77959   0.73794    0.000
 6733.00    0.76643   0.73699    0.000
 6734.00    0.75755   0.73587    0.000
 6735.00    0.76036   0.73470    0.000
 6736.00    0.76187   0.73348    0.000
 6737.00    0.76034   0.73257    0.000
 6738.00    0.75739   0.73166    0.000
 6739.00    0.75156   0.73068    0.000
 6740.00    0.74733   0.73024    0.000
 6741.00    0.74591   0.72979    0.000
 6742.00    0.74314   0.72907    0.000
 6743.00    0.73827   0.72866    0.000
 6744.00    0.74017   0.72842    0.000
 6745.00    0.75123   0.72795    0.000
 6746.00    0.75195   0.72747    0.000
 6747.00    0.74037   0.72772    0.000
 6748.00    0.73543   0.72805    0.000
 6749.00    0.73743   0.72826    0.000
 6750.00    0.73659   0.72964    0.000
 6751.00    0.73310   0.73123    0.000
 6752.00    0.73239   0.73261    0.000
 6753.00    0.73394   0.73488    0.276
 6754.00    0.72727   0.73704    0.278
 6755.00    0.71468   0.73865    0.276
 6756.00    0.71882   0.74042    0.276
 6757.00    0.73349   0.74161    0.277
 6758.00    0.75125   0.74197    0.282
 6759.00    0.77071   0.74206    0.289
 6760.00    0.78755   0.74146    0.294
 6761.00    0.80315   0.74025    0.299
 6762.00    0.84133   0.73900    0.308
 6763.00    0.88886   0.73741    0.320
 6764.00    0.89333   0.73579    0.322
 6765.00    0.88258   0.73488    0.320
 6766.00    0.89038   0.73423    0.318
 6767.00    0.90373   0.73390    0.316
 6768.00    0.90075   0.73457    0.315
 6769.00    0.89372   0.73581    0.315
 6770.00    0.86086   0.73713    0.304
 6771.00    0.82281   0.73886    0.292
 6772.00    0.80864   0.74076    0.289
 6773.00    0.79822   0.74206    0.286
 6774.00    0.78826   0.74287    0.281
 6775.00    0.77836   0.74334    0.275
 6776.00    0.77358   0.74272    0.275
 6777.00    0.76920   0.74131    0.276
 6778.00    0.78313   0.73970    0.281
 6779.00    0.79786   0.73740    0.286
 6780.00    0.79362   0.73501    0.288
 6781.00    0.78924   0.73332    0.290
 6782.00    0.78782   0.73178    0.288
 6783.00    0.78707   0.73079    0.286
 6784.00    0.79827   0.73094    0.288
 6785.00    0.80850   0.73121    0.289
 6786.00    0.80799   0.73157    0.290
 6787.00    0.80687   0.73250    0.292
 6788.00    0.80107   0.73315    0.293
 6789.00    0.79459   0.73325    0.293
 6790.00    0.78410   0.73355    0.293
 6791.00    0.77675   0.73380    0.292
 6792.00    0.78393   0.73366    0.291
 6793.00    0.79068   0.73390    0.291
 6794.00    0.79584   0.73434    0.291
 6795.00    0.79734   0.73469    0.291
 6796.00    0.78735   0.73533    0.289
 6797.00    0.78167   0.73589    0.288
 6798.00    0.78753   0.73646    0.287
 6799.00    0.79054   0.73686    0.286
 6800.00    0.78698   0.73678    0.283
 6801.00    0.78378   0.73702    0.282
 6802.00    0.78130   0.73693    0.282
 6803.00    0.77679   0.73623    0.281
 6804.00    0.76877   0.73622    0.278
 6805.00    0.76249   0.73598    0.277
 6806.00    0.75885   0.73526    0.277
 6807.00    0.75861   0.73526    0.277
 6808.00    0.76291   0.73512    0.278
 6809.00    0.76523   0.73488    0.279
 6810.00    0.76521   0.73504    0.280
 6811.00    0.76313   0.73502    0.281
 6812.00    0.75892   0.73538    0.283
 6813.00    0.76246   0.73597    0.287
 6814.00    0.77310   0.73633    0.295
 6815.00    0.77756   0.73705    0.297
 6816.00    0.77706   0.73777    0.295
 6817.00    0.77530   0.73840    0.291
 6818.00    0.77267   0.73925    0.286
 6819.00    0.77290   0.73985    0.284
 6820.00    0.77490   0.74023    0.283
 6821.00    0.78244   0.74049    0.283
 6822.00    0.79299   0.74052    0.283
 6823.00    0.79009   0.74032    0.280
 6824.00    0.78084   0.73982    0.276
 6825.00    0.77408   0.73942    0.275
 6826.00    0.76832   0.73920    0.276
 6827.00    0.76525   0.73892    0.278
 6828.00    0.76312   0.73876    0.280
 6829.00    0.76727   0.73861    0.281
 6830.00    0.77327   0.73840    0.282
 6831.00    0.78289   0.73796    0.285
 6832.00    0.79340   0.73685    0.288
 6833.00    0.79337   0.73538    0.286
 6834.00    0.79129   0.73355    0.284
 6835.00    0.78662   0.73115    0.288
 6836.00    0.78155   0.72888    0.292
 6837.00    0.77465   0.72686    0.293
 6838.00    0.76755   0.72525    0.294
 6839.00    0.76753   0.72462    0.296
 6840.00    0.76805   0.72484    0.297
 6841.00    0.76528   0.72581    0.292
 6842.00    0.76239   0.72735    0.288
 6843.00    0.76001   0.72921    0.284
 6844.00    0.75757   0.73113    0.280
 6845.00    0.75243   0.73256    0.276
 6846.00    0.74797   0.73358    0.272
 6847.00    0.75495   0.73401    0.273
 6848.00    0.76098   0.73354    0.274
 6849.00    0.75700   0.73284    0.274
 6850.00    0.75427   0.73158    0.275
 6851.00    0.76085   0.72955    0.278
 6852.00    0.76582   0.72812    0.281
 6853.00    0.76164   0.72680    0.278
 6854.00    0.75797   0.72504    0.277
 6855.00    0.75659   0.72431    0.279
 6856.00    0.75449   0.72412    0.281
 6857.00    0.74973   0.72364    0.283
 6858.00    0.74378   0.72385    0.285
 6859.00    0.73416   0.72465    0.286
 6860.00    0.72814   0.72517    0.286
 6861.00    0.73160   0.72551    0.285
 6862.00    0.73628   0.72603    0.283
 6863.00    0.74374   0.72632    0.283
 6864.00    0.74606   0.72601    0.284
 6865.00    0.73831   0.72579    0.284
 6866.00    0.73283   0.72583    0.283
 6867.00    0.73123   0.72550    0.282
 6868.00    0.73366   0.72521    0.281
 6869.00    0.74216   0.72559    0.281
 6870.00    0.74934   0.72607    0.280
 6871.00    0.75482   0.72636    0.278
 6872.00    0.75549   0.72698    0.276
 6873.00    0.75060   0.72779    0.274
 6874.00    0.74725   0.72832    0.272
 6875.00    0.74550   0.72857    0.270
 6876.00    0.74506   0.72878    0.270
 6877.00    0.74582   0.72883    0.273
 6878.00    0.74712   0.72858    0.276
 6879.00    0.74886   0.72841    0.279
 6880.00    0.75120   0.72869    0.282
 6881.00    0.75397   0.72919    0.285
 6882.00    0.75819   0.72973    0.287
 6883.00    0.76331   0.73095    0.289
 6884.00    0.76044   0.73266    0.289
 6885.00    0.75330   0.73393    0.290
 6886.00    0.75035   0.73533    0.288
 6887.00    0.74936   0.73703    0.286
 6888.00    0.74716   0.73795    0.283
 6889.00    0.74448   0.73855    0.279
 6890.00    0.73996   0.73937    0.278
 6891.00    0.73480   0.73958    0.277
 6892.00    0.73208   0.73956    0.277
 6893.00    0.73005   0.73985    0.276
 6894.00    0.73741   0.74007    0.278
 6895.00    0.74701   0.74027    0.280
 6896.00    0.74977   0.74054    0.278
 6897.00    0.75123   0.74109    0.275
 6898.00    0.75228   0.74179    0.279
 6899.00    0.75327   0.74226    0.284
 6900.00    0.75577   0.74287    0.285
 6901.00    0.75843   0.74355    0.286
 6902.00    0.75999   0.74399    0.288
 6903.00    0.76147   0.74441    0.290
 6904.00    0.75428   0.74444    0.290
 6905.00    0.74677   0.74418    0.289
 6906.00    0.74360   0.74384    0.287
 6907.00    0.74068   0.74285    0.286
 6908.00    0.74616   0.74161    0.286
 6909.00    0.75098   0.74048    0.286
 6910.00    0.74534   0.73893    0.285
 6911.00    0.74017   0.73775    0.283
 6912.00    0.73968   0.73718    0.280
 6913.00    0.73858   0.73641    0.278
 6914.00    0.73312   0.73636    0.278
 6915.00    0.72877   0.73681    0.278
 6916.00    0.73056   0.73695    0.278
 6917.00    0.73245   0.73724    0.278
 6918.00    0.73471   0.73739    0.277
 6919.00    0.73595   0.73714    0.277
 6920.00    0.73345   0.73658    0.277
 6921.00    0.73204   0.73587    0.278
 6922.00    0.73395   0.73522    0.280
 6923.00    0.73551   0.73469    0.283
 6924.00    0.73619   0.73434    0.288
 6925.00    0.73494   0.73427    0.291
 6926.00    0.72944   0.73450    0.289
 6927.00    0.72866   0.73491    0.289
 6928.00    0.73699   0.73534    0.293
 6929.00    0.74436   0.73568    0.296
 6930.00    0.75014   0.73624    0.294
 6931.00    0.75272   0.73699    0.292
 6932.00    0.75058   0.73740    0.291
 6933.00    0.74858   0.73794    0.290
 6934.00    0.74679   0.73867    0.289
 6935.00    0.74402   0.73902    0.288
 6936.00    0.74014   0.73911    0.287
 6937.00    0.73875   0.73902    0.285
 6938.00    0.73984   0.73845    0.281
 6939.00    0.74071   0.73765    0.282
 6940.00    0.74139   0.73681    0.285
 6941.00    0.73972   0.73559    0.285
 6942.00    0.73622   0.73475    0.282
 6943.00    0.73241   0.73433    0.281
 6944.00    0.72838   0.73362    0.282
 6945.00    0.72403   0.73349    0.284
 6946.00    0.71948   0.73370    0.287
 6947.00    0.72928   0.73344    0.291
 6948.00    0.74664   0.73357    0.295
 6949.00    0.75305   0.73391    0.297
 6950.00    0.75446   0.73397    0.297
 6951.00    0.75275   0.73445    0.297
 6952.00    0.74982   0.73538    0.296
 6953.00    0.74694   0.73629    0.295
 6954.00    0.74408   0.73739    0.294
 6955.00    0.73995   0.73882    0.291
 6956.00    0.73547   0.74010    0.287
 6957.00    0.73882   0.74127    0.286
 6958.00    0.74398   0.74245    0.285
 6959.00    0.74543   0.74329    0.285
 6960.00    0.74619   0.74416    0.284
 6961.00    0.73671   0.74486    0.283
 6962.00    0.72577   0.74513    0.281
 6963.00    0.72636   0.74565    0.283
 6964.00    0.72815   0.74599    0.286
 6965.00    0.73198   0.74573    0.288
 6966.00    0.73594   0.74550    0.289
 6967.00    0.74058   0.74480    0.291
 6968.00    0.74525   0.74349    0.293
 6969.00    0.73732   0.74191    0.294
 6970.00    0.72979   0.73945    0.295
 6971.00    0.73456   0.73660    0.296
 6972.00    0.73895   0.73389    0.298
 6973.00    0.73781   0.73109    0.298
 6974.00    0.73531   0.72847    0.299
 6975.00    0.71969   0.72683    0.295
 6976.00    0.70627   0.72671    0.291
 6977.00    0.70815   0.72736    0.290
 6978.00    0.71026   0.72888    0.288
 6979.00    0.71360   0.73179    0.285
 6980.00    0.71808   0.73489    0.284
 6981.00    0.72745   0.73770    0.287
 6982.00    0.73541   0.74036    0.288
 6983.00    0.73839   0.74239    0.288
 6984.00    0.73988   0.74379    0.288
 6985.00    0.73690   0.74459    0.289
 6986.00    0.73649   0.74502    0.290
 6987.00    0.74260   0.74533    0.291
 6988.00    0.74452   0.74530    0.293
 6989.00    0.73732   0.74527    0.295
 6990.00    0.73116   0.74516    0.297
 6991.00    0.72701   0.74482    0.296
 6992.00    0.72730   0.74438    0.298
 6993.00    0.73492   0.74349    0.302
 6994.00    0.73663   0.74242    0.303
 6995.00    0.72978   0.74119    0.298
 6996.00    0.72803   0.73971    0.295
 6997.00    0.73281   0.73848    0.295
 6998.00    0.73135   0.73726    0.295
 6999.00    0.72286   0.73608    0.295
 7000.00    0.71637   0.73532    0.293
 7001.00    0.71186   0.73499    0.288
 7002.00    0.71105   0.73484    0.290
 7003.00    0.71348   0.73474    0.298
 7004.00    0.71491   0.73490    0.308
 7005.00    0.71558   0.73524    0.322
 7006.00    0.60670   0.73543    0.288
 7007.00    0.42360   0.73522    0.239
 7008.00    0.42906   0.73493    0.330
 7009.00    0.54649   0.73444    1.297
 7010.00    0.58943   0.73343   -1.000
 7011.00    0.59380   0.73246   -1.000
 7012.00    0.59433   0.73157   -1.000
 7013.00    0.59314   0.73104   -1.000
 7014.00    0.59211   0.73114   -1.000
 7015.00    0.59113   0.73114   -1.000
 7016.00    0.58708   0.73156   -1.000
 7017.00    0.58203   0.73273   -1.000
 7018.00    0.58353   0.73343   -1.000
 7019.00    0.58683   0.73377   -1.000
 7020.00    0.58669   0.73416   -1.000
 7021.00    0.58578   0.73450   -1.000
 7022.00    0.58991   0.73482   -1.000
 7023.00    0.59495   0.73513   -1.000
 7024.00    0.59225   0.73586   -1.000
 7025.00    0.58848   0.73691   -1.000
 7026.00    0.59714   0.73784   -1.000
 7027.00    0.60702   0.73886   -1.000
 7028.00    0.60644   0.73973   -1.000
 7029.00    0.60519   0.74032   -1.000
 7030.00    0.60218   0.74090   -1.000
 7031.00    0.59914   0.74121   -1.000
 7032.00    0.60344   0.74155   -1.000
 7033.00    0.60749   0.74218   -1.000
 7034.00    0.60471   0.74270   -1.000
 7035.00    0.60201   0.74396   -1.000
 7036.00    0.60033   0.74598   -1.000
 7037.00    0.59877   0.74772   -1.000
 7038.00    0.59826   0.74992   -1.000
 7039.00    0.59807   0.75271   -1.000
 7040.00    0.60006   0.75499   -1.000
 7041.00    0.60302   0.75671   -1.000
 7042.00    0.61101   0.75817   -1.000
 7043.00    0.61903   0.75881   -1.000
 7044.00    0.62720   0.75850   -1.000
 7045.00    0.63154   0.75763   -1.000
 7046.00    0.62253   0.75576   -1.000
 7047.00    0.61588   0.75307   -1.000
 7048.00    0.61611   0.74962   -1.000
 7049.00    0.61563   0.74537   -1.000
 7050.00    0.61336   0.74116   -2.000
 7051.00    0.61556   0.73684   -2.000
 7052.00    0.62737   0.73267   -2.000
 7053.00    0.63461   0.72928   -2.000
 7054.00    0.63332   0.72633   -2.000
 7055.00    0.63333   0.72395   -2.000
 7056.00    0.63550   0.72207   -2.000
 7057.00    0.63374   0.72053   -2.000
 7058.00    0.62637   0.71931   -2.000
 7059.00    0.62800   0.71801   -2.000
 7060.00    0.64094   0.71712   -2.000
 7061.00    0.64760   0.71658   -2.000
 7062.00    0.64731   0.71574   -2.000
 7063.00    0.64870   0.71531   -2.000
 7064.00    0.65174   0.71523   -2.000
 7065.00    0.64867   0.71537   -2.000
 7066.00    0.64034   0.71621   -2.000
 7067.00    0.63525   0.71737   -2.000
 7068.00    0.63262   0.71892   -2.000
 7069.00    0.63314   0.72108   -2.000
 7070.00    0.63576   0.72322   -2.000
 7071.00    0.65228   0.72501   -2.000
 7072.00    0.67693   0.72656   -2.000
 7073.00    0.68428   0.72769   -2.000
 7074.00    0.68281   0.72824   -2.000
 7075.00    0.67669   0.72793   -2.000
 7076.00    0.66854   0.72685   -2.000
 7077.00    0.67255   0.72525   -2.000
 7078.00    0.68118   0.72249   -2.000
 7079.00    0.67794   0.71907   -2.000
 7080.00    0.67089   0.71531   -2.000
 7081.00    0.66621   0.71098   -2.000
 7082.00    0.66218   0.70694   -2.000
 7083.00    0.65421   0.70291   -2.000
 7084.00    0.64538   0.69911   -2.000
 7085.00    0.63204   0.69660   -2.000
 7086.00    0.61791   0.69430   -2.000
 7087.00    0.62696   0.69241   -2.000
 7088.00    0.63911   0.69162   -2.000
 7089.00    0.63146   0.69087   -2.000
 7090.00    0.62193   0.69095   -2.000
 7091.00    0.61710   0.69162   -2.000
 7092.00    0.61254   0.69222   -2.000
 7093.00    0.61095   0.69361   -2.000
 7094.00    0.60946   0.69492   -2.000
 7095.00    0.61232   0.69655   -2.000
 7096.00    0.61455   0.69827   -2.000
 7097.00    0.60079   0.69951   -2.000
 7098.00    0.58770   0.70102   -2.000
 7099.00    0.58364   0.70202   -2.000
 7100.00    0.57961   0.70274   -2.000
 7101.00    0.57575   0.70318   -2.000
 7102.00    0.57297   0.70304   -2.000
 7103.00    0.57724   0.70288   -2.000
 7104.00    0.58044   0.70262   -2.000
 7105.00    0.57825   0.70198   -2.000
 7106.00    0.57487   0.70120   -2.000
 7107.00    0.56666   0.70061   -2.000
 7108.00    0.56014   0.70043   -2.000
 7109.00    0.55940   0.70036   -2.000
 7110.00    0.55928   0.70040   -2.000
 7111.00    0.56094   0.70076   -2.000
 7112.00    0.56310   0.70142   -2.000
 7113.00    0.56645   0.70197   -2.000
 7114.00    0.56928   0.70231   -2.000
 7115.00    0.57103   0.70259   -2.000
 7116.00    0.57332   0.70242   -2.000
 7117.00    0.57661   0.70201   -2.000
 7118.00    0.58187   0.70128   -2.000
 7119.00    0.59033   0.70034   -2.000
 7120.00    0.60073   0.69934   -2.000
 7121.00    0.61386   0.69766   -2.000
 7122.00    0.61906   0.69613   -2.000
 7123.00    0.61443   0.69487   -2.000
 7124.00    0.61374   0.69330   -2.000
 7125.00    0.61734   0.69191   -2.000
 7126.00    0.60821   0.69088   -2.000
 7127.00    0.58680   0.69040   -2.000
 7128.00    0.58543   0.69075   -2.000
 7129.00    0.60110   0.69122   -2.000
 7130.00    0.60767   0.69207   -2.000
 7131.00    0.60741   0.69389   -2.000
 7132.00    0.60656   0.69565   -2.000
 7133.00    0.60532   0.69743   -2.000
 7134.00    0.59596   0.69906   -2.000
 7135.00    0.58194   0.70012   -2.000
 7136.00    0.57468   0.70118   -2.000
 7137.00    0.57082   0.70190   -2.000
 7138.00    0.58324   0.70184   -2.000
 7139.00    0.60273   0.70142   -2.000
 7140.00    0.60878   0.70120   -2.000
 7141.00    0.60982   0.70046   -2.000
 7142.00    0.59859   0.69936   -2.000
 7143.00    0.58348   0.69864   -2.000
 7144.00    0.57600   0.69777   -2.000
 7145.00    0.57054   0.69755   -2.000
 7146.00    0.57265   0.69783   -2.000
 7147.00    0.57640   0.69803   -2.000
 7148.00    0.57845   0.69937   -2.000
 7149.00    0.58021   0.70106   -2.000
 7150.00    0.57821   0.70249   -2.000
 7151.00    0.57573   0.70419   -2.000
 7152.00    0.57719   0.70558   -2.000
 7153.00    0.57902   0.70665   -2.000
 7154.00    0.58878   0.70701   -2.000
 7155.00    0.59898   0.70665   -2.000
 7156.00    0.59041   0.70639   -2.000
 7157.00    0.58155   0.70553   -2.000
 7158.00    0.58086   0.70417   -2.000
 7159.00    0.58092   0.70281   -2.000
 7160.00    0.59764   0.70164   -2.000
 7161.00    0.61308   0.70111   -2.000
 7162.00    0.61252   0.70109   -2.000
 7163.00    0.61283   0.70137   -2.000
 7164.00    0.62053   0.70218   -2.000
 7165.00    0.62582   0.70388   -2.000
 7166.00    0.61581   0.70596   -2.000
 7167.00    0.60998   0.70781   -2.000
 7168.00    0.62492   0.70945   -2.000
 7169.00    0.63441   0.71065   -2.000
 7170.00    0.62198   0.71124   -2.000
 7171.00    0.60937   0.71153   -2.000
 7172.00    0.59612   0.71109   -2.000
 7173.00    0.58615   0.71018   -2.000
 7174.00    0.58540   0.70913   -2.000
 7175.00    0.58860   0.70746   -2.000
 7176.00    0.60133   0.70599   -2.000
 7177.00    0.61320   0.70510   -2.000
 7178.00    0.62328   0.70388   -2.000
 7179.00    0.62436   0.70270   -2.000
 7180.00    0.60914   0.70163   -2.000
 7181.00    0.59501   0.70053   -2.000
 7182.00    0.58265   0.70008   -2.000
 7183.00    0.57374   0.69911   -2.000
 7184.00    0.56963   0.69792   -2.000
 7185.00    0.56037   0.69733   -2.000
 7186.00    0.54479   0.69649   -2.000
 7187.00    0.54590   0.69617   -2.000
 7188.00    0.56499   0.69634   -2.000
 7189.00    0.57149   0.69681   -2.000
 7190.00    0.56602   0.69786   -2.000
 7191.00    0.56334   0.69874   -2.000
 7192.00    0.56301   0.69968   -2.000
 7193.00    0.56383   0.70078   -2.000
 7194.00    0.56552   0.70214   -2.000
 7195.00    0.56723   0.70330   -2.000
 7196.00    0.56896   0.70382   -2.000
 7197.00    0.56589   0.70445   -2.000
 7198.00    0.56008   0.70494   -2.000
 7199.00    0.56825   0.70512   -2.000
 7200.00    0.58333   0.70488   -2.000
 7201.00    0.59029   0.70399   -2.000
 7202.00    0.59379   0.70339   -2.000
 7203.00    0.58994   0.70278   -2.000
 7204.00    0.58341   0.70225   -2.000
 7205.00    0.56674   0.70206   -2.000
 7206.00    0.54693   0.70165   -2.000
 7207.00    0.54401   0.70220   -2.000
 7208.00    0.54545   0.70331   -2.000
 7209.00    0.54637   0.70443   -2.000
 7210.00    0.54719   0.70591   -2.000
 7211.00    0.54117   0.70718   -2.000
 7212.00    0.53401   0.70834   -2.000
 7213.00    0.54514   0.70950   -2.000
 7214.00    0.55855   0.71059   -2.000
 7215.00    0.55425   0.71145   -2.000
 7216.00    0.54841   0.71241   -2.000
 7217.00    0.55001   0.71327   -2.000
 7218.00    0.55198   0.71393   -2.000
