###################################################################
## OUTPUT of StarlightChains_v04.for    [Cid@UFSC - 01/Apr/2007] ##
###################################################################

## Some input info
KUG0210-078._53_44.txt                   [arq_obs]
Base.CB07.vall.4m                        [arq_base]
Masks.EmLines.NEW.gm                     [arq_masks]
StCv04.C11.config                        [arq_config]
   66                                    [N_base]
    0                                    [N_YAV_components = # of components with extra extinction!]
    0                                    [i_FitPowerLaw (1/0 = Yes/No)]
-9.99                                    [alpha_PowerLaw]
CCM                                      [red_law_option]
 1.458241                                [q_norm = A(l_norm)/A(V)]

## (Re)Sampling Parameters
 3741.00                                 [l_ini (A)]
 7218.00                                 [l_fin (A)]
    1.00                                 [dl    (A)]     (OBS: dl_cushion =    50.00 A)

## Normalization info
 4020.00                                 [l_norm (A) - for base]
 4010.00                                 [llow_norm (A) - window for f_obs]
 4060.00                                 [lupp_norm (A) - window for f_obs]
5.898311E-18                             [fobs_norm (in input units)]

## S/N
 3691.00                                 [llow_SN (A) - window for S/N]
 7268.00                                 [lupp_SN (A) - window for S/N]
   2.460                                 [S/N in S/N window]
   2.599                                 [S/N in norm. window]
   0.007                                 [S/N_err in S/N window]
   0.007                                 [S/N_err in norm. window]
  1.0000                                 [fscale_chi2]

## etc...
    -2008000                             [idum_orig]
  2400                                   [NOl_eff]
  2079                                   [Nl_eff]
   321    NSIGMA                         [Ntot_cliped & clip_method]
  3943590                                [Nglobal_steps]
   7                                     [N_chains]
  44                                     [NEX0s_base = N_base in EX0s-fits]
 0   0   1      321   2.0   4.730E+03    [Clip-Bug, RC-Crash & Burn-In warning-flags, n_censored_weights, wei_nsig_threshold & wei_limit]
    52     50.797     49.883      0.913  [idt_all, wdt_TotTime, wdt_UsrTime & wdt_SysTime (sec)]

## Synthesis Results - Best model ##

 9.86127E-06                             [chi2/Nl_eff]
    19.87173                             [adev (%)]

   128.76001                             [sum-of-x (%)]
 5.34494E-17                             [Flux_tot (units of input spectrum!)]
 1.30607E-14                             [Mini_tot (???)]
 9.01774E-15                             [Mcor_tot (???)]

 429.85                                  [v0_min  (km/s)]
  65.69                                  [vd_min  (km/s)]
 1.4528                                  [AV_min  (mag)]
 0.0000                                  [YAV_min (mag)]

# j     x_j(%)      Mini_j(%)     Mcor_j(%)     age_j(yr)     Z_j      (L/M)_j    YAV?  Mstars   component_j        a/Fe...       SSP_chi2r SSP_adev(%)   SSP_AV   SSP_x(%)
  1     23.6777     6.8789E+00    9.9629E+00    1.000000E+06  0.00400  1.094E-02    0   1.0000   age020_m42            0.0000     9.0651E-06    18.3214   1.6453   145.0706
  2      0.0000     0.0000E+00    0.0000E+00    3.160000E+06  0.00400  4.007E-02    0   0.9999   age045_m42            0.0000     8.7401E-06    18.2963   0.9861   151.7454
  3      0.4787     5.9924E-02    8.2347E-02    5.010000E+06  0.00400  2.539E-02    0   0.9488   age055_m42            0.0000     8.9001E-06    18.3202   1.2689   149.8161
  4      0.0000     0.0000E+00    0.0000E+00    6.610000E+06  0.00400  2.620E-02    0   0.9220   age061_m42            0.0000     8.7991E-06    18.3178   0.9175   151.9325
  5      0.0000     0.0000E+00    0.0000E+00    1.000000E+07  0.00400  1.322E-02    0   0.8862   age070_m42            0.0000     8.8819E-06    18.4609   0.6659   154.7242
  6      1.3734     5.5371E-01    6.8736E-01    1.445000E+07  0.00400  7.883E-03    0   0.8571   age078_m42            0.0000     8.9906E-06    18.4049   0.9761   151.4695
  7      0.0000     0.0000E+00    0.0000E+00    2.512000E+07  0.00400  5.251E-03    0   0.8174   age090_m42            0.0000     8.9216E-06    18.5514   0.5521   155.0329
  8      0.0000     0.0000E+00    0.0000E+00    4.000000E+07  0.00400  3.649E-03    0   0.7851   age104_m42            0.0000     8.9160E-06    18.5867   0.3379   155.5158
  9      0.0000     0.0000E+00    0.0000E+00    5.500000E+07  0.00400  3.098E-03    0   0.7629   age110_m42            0.0000     8.8209E-06    18.4725   0.4818   155.5119
 10      0.0000     0.0000E+00    0.0000E+00    1.015200E+08  0.00400  2.228E-03    0   0.7207   age116_m42            0.0000     8.7536E-06    18.4003   0.4979   155.7151
 11      9.8468     2.8633E+01    2.7570E+01    2.861200E+08  0.00400  1.093E-03    0   0.6648   age125_m42            0.0000     8.7647E-06    18.8327  -0.0409   158.8672
 12      1.4952     7.2037E+00    6.6409E+00    5.088000E+08  0.00400  6.597E-04    0   0.6365   age130_m42            0.0000     8.7427E-06    18.6834  -0.0557   159.7833
 13      0.0000     0.0000E+00    0.0000E+00    1.434000E+09  0.00400  2.132E-04    0   0.5798   age139_m42            0.0000     9.0213E-06    18.6878  -0.9644   158.6236
 14      0.0000     0.0000E+00    0.0000E+00    4.250000E+09  0.00400  5.895E-05    0   0.5377   age158_m42            0.0000     9.9308E-06    21.9575  -1.0000   138.3370
 15      0.0000     0.0000E+00    0.0000E+00    7.500000E+09  0.00400  3.510E-05    0   0.5212   age171_m42            0.0000     1.0631E-05    24.6949  -1.0000   130.5132
 16      0.0477     7.5574E+00    5.5100E+00    1.300000E+10  0.00400  2.005E-05    0   0.5034   age193_m42            0.0000     1.1418E-05    27.5205  -1.0000   123.7996
 17      0.0222     4.6267E+00    3.3284E+00    1.800000E+10  0.00400  1.525E-05    0   0.4967   age213_m42            0.0000     1.1468E-05    28.0483  -1.0000   122.6364
 18      0.7656     1.9656E-01    2.8469E-01    1.000000E+06  0.00800  1.238E-02    0   1.0000   age020_m52            0.0000     9.0413E-06    18.3178   1.6371   145.5159
 19     24.6171     2.5452E+00    3.6738E+00    3.160000E+06  0.00800  3.074E-02    0   0.9966   age045_m52            0.0000     9.0570E-06    18.2854   1.5676   146.3498
 20      4.2291     5.0380E-01    6.8902E-01    5.010000E+06  0.00800  2.668E-02    0   0.9443   age055_m52            0.0000     9.0105E-06    18.2761   1.3556   148.2321
 21      0.0000     0.0000E+00    0.0000E+00    6.610000E+06  0.00800  2.136E-02    0   0.9177   age061_m52            0.0000     9.1875E-06    18.4935   0.1845   154.9946
 22      0.0000     0.0000E+00    0.0000E+00    1.000000E+07  0.00800  1.215E-02    0   0.8827   age070_m52            0.0000     8.9497E-06    18.5666   0.8491   154.3388
 23      0.3405     1.2415E-01    1.5377E-01    1.445000E+07  0.00800  8.717E-03    0   0.8552   age078_m52            0.0000     8.9921E-06    18.4109   0.9491   153.1497
 24      0.0000     0.0000E+00    0.0000E+00    2.512000E+07  0.00800  5.592E-03    0   0.8162   age090_m52            0.0000     8.9137E-06    18.6213   0.6225   156.4675
 25     16.6119     1.3552E+01    1.5390E+01    4.000000E+07  0.00800  3.896E-03    0   0.7841   age104_m52            0.0000     8.8848E-06    18.6622   0.5465   156.7861
 26      0.0000     0.0000E+00    0.0000E+00    1.015200E+08  0.00800  2.148E-03    0   0.7226   age116_m52            0.0000     8.8559E-06    18.5387   0.4841   155.9523
 27      0.0000     0.0000E+00    0.0000E+00    2.861200E+08  0.00800  9.925E-04    0   0.6683   age125_m52            0.0000     8.7908E-06    18.6793  -0.0004   161.4794
 28      0.0000     0.0000E+00    0.0000E+00    9.047900E+08  0.00800  3.141E-04    0   0.6138   age135_m52            0.0000     8.9104E-06    18.8265  -0.7302   163.1905
 29      0.8647     1.5987E+01    1.3553E+01    1.434000E+09  0.00800  1.719E-04    0   0.5853   age139_m52            0.0000     9.5052E-06    21.2129  -1.0000   148.9163
 30      0.0000     0.0000E+00    0.0000E+00    2.500000E+09  0.00800  7.872E-05    0   0.5600   age150_m52            0.0000     1.0439E-05    24.4891  -1.0000   134.9374
 31      0.0000     0.0000E+00    0.0000E+00    4.250000E+09  0.00800  4.336E-05    0   0.5426   age158_m52            0.0000     1.0577E-05    24.6263  -1.0000   132.9191
 32      0.0000     0.0000E+00    0.0000E+00    6.250000E+09  0.00800  3.159E-05    0   0.5319   age166_m52            0.0000     1.1519E-05    27.8794  -1.0000   125.2642
 33      0.0000     0.0000E+00    0.0000E+00    1.300000E+10  0.00800  1.361E-05    0   0.5073   age193_m52            0.0000     1.4193E-05    36.3706  -1.0000   107.5891
 34      0.0000     0.0000E+00    0.0000E+00    1.800000E+10  0.00800  9.886E-06    0   0.4990   age213_m52            0.0000     1.5056E-05    37.8737  -1.0000   102.9628
 35      0.0000     0.0000E+00    0.0000E+00    1.000000E+06  0.02000  1.544E-02    0   1.0000   age020_m62            0.0000     9.0514E-06    18.3108   1.6334   145.8404
 36     16.3966     1.3853E+00    1.9778E+00    3.160000E+06  0.02000  3.762E-02    0   0.9858   age045_m62            0.0000     9.1072E-06    18.3248   1.5749   146.9592
 37      0.0000     0.0000E+00    0.0000E+00    5.010000E+06  0.02000  3.296E-02    0   0.9342   age055_m62            0.0000     8.8771E-06    18.3253   1.2387   151.1291
 38     13.8848     3.8241E+00    4.9077E+00    8.710000E+06  0.02000  1.154E-02    0   0.8861   age067_m62            0.0000     9.1873E-06    19.8479   0.3368   159.3086
 39      0.0000     0.0000E+00    0.0000E+00    1.445000E+07  0.02000  7.663E-03    0   0.8472   age078_m62            0.0000     9.0997E-06    19.1227   0.5225   157.1284
 40      0.0000     0.0000E+00    0.0000E+00    2.512000E+07  0.02000  4.532E-03    0   0.8099   age090_m62            0.0000     9.1139E-06    19.2721   0.5202   156.4929
 41      0.0000     0.0000E+00    0.0000E+00    5.500000E+07  0.02000  2.733E-03    0   0.7595   age110_m62            0.0000     8.9492E-06    18.6600   0.5174   156.2027
 42      0.0000     0.0000E+00    0.0000E+00    1.609000E+08  0.02000  1.369E-03    0   0.6985   age120_m62            0.0000     8.7621E-06    18.5843   0.3571   159.9682
 43      0.0000     0.0000E+00    0.0000E+00    2.861200E+08  0.02000  9.013E-04    0   0.6714   age125_m62            0.0000     8.7072E-06    18.5945   0.1230   163.5303
 44      0.0000     0.0000E+00    0.0000E+00    5.088000E+08  0.02000  5.028E-04    0   0.6449   age130_m62            0.0000     8.6809E-06    18.6017  -0.2341   165.5932
 45      0.0412     5.3926E-01    4.8260E-01    9.047900E+08  0.02000  2.428E-04    0   0.6179   age135_m62            0.0000     8.9746E-06    18.7264  -0.7945   161.6764
 46      0.0000     0.0000E+00    0.0000E+00    1.434000E+09  0.02000  1.263E-04    0   0.5908   age139_m62            0.0000     9.4386E-06    19.9010  -1.0000   150.6222
 47      0.0000     0.0000E+00    0.0000E+00    2.500000E+09  0.02000  5.985E-05    0   0.5673   age150_m62            0.0000     1.0621E-05    24.4163  -1.0000   135.3661
 48      0.0000     0.0000E+00    0.0000E+00    4.250000E+09  0.02000  3.271E-05    0   0.5468   age158_m62            0.0000     1.2143E-05    29.3768  -1.0000   122.6900
 49      0.0196     4.5690E+00    3.4192E+00    1.000000E+10  0.02000  1.360E-05    0   0.5167   age181_m62            0.0000     1.4303E-05    35.2704  -1.0000   109.1910
 50      0.0000     0.0000E+00    0.0000E+00    1.800000E+10  0.02000  7.124E-06    0   0.5013   age213_m62            0.0000     1.5905E-05    38.5827  -1.0000   100.7122
 51      0.0000     0.0000E+00    0.0000E+00    1.000000E+06  0.05000  2.592E-02    0   0.9998   age020_m72            0.0000     9.0164E-06    18.2682   1.6238   145.9708
 52     10.9783     7.2017E-01    9.9893E-01    3.160000E+06  0.05000  4.845E-02    0   0.9577   age045_m72            0.0000     9.0999E-06    18.3444   1.4702   148.1285
 53      1.5339     1.5870E-01    2.1024E-01    5.010000E+06  0.05000  3.072E-02    0   0.9147   age055_m72            0.0000     9.1369E-06    18.8887   1.0560   152.5528
 54      1.4145     3.0899E-01    3.9727E-01    6.610000E+06  0.05000  1.455E-02    0   0.8877   age061_m72            0.0000     9.5023E-06    21.9182   0.3923   160.5996
 55      0.0906     3.1734E-02    3.9177E-02    1.000000E+07  0.05000  9.074E-03    0   0.8524   age070_m72            0.0000     9.2512E-06    19.6857   1.2337   152.0239
 56      0.0000     0.0000E+00    0.0000E+00    2.512000E+07  0.05000  4.250E-03    0   0.7902   age090_m72            0.0000     9.0853E-06    19.2826   0.9637   153.7445
 57      0.0298     3.0702E-02    3.3874E-02    4.000000E+07  0.05000  3.087E-03    0   0.7618   age104_m72            0.0000     8.9951E-06    19.4286   0.7531   155.8192
 58      0.0000     0.0000E+00    0.0000E+00    1.015200E+08  0.05000  1.700E-03    0   0.7096   age116_m72            0.0000     8.7922E-06    18.7555   0.5115   159.0414
 59      0.0000     0.0000E+00    0.0000E+00    2.861200E+08  0.05000  7.384E-04    0   0.6633   age125_m72            0.0000     8.6564E-06    18.5897  -0.0031   164.7888
 60      0.0000     0.0000E+00    0.0000E+00    5.088000E+08  0.05000  3.819E-04    0   0.6372   age130_m72            0.0000     8.7421E-06    18.5878  -0.4791   165.2393
 61      0.0000     0.0000E+00    0.0000E+00    9.047900E+08  0.05000  1.676E-04    0   0.6110   age135_m72            0.0000     9.4470E-06    19.2349  -1.0000   154.2574
 62      0.0000     0.0000E+00    0.0000E+00    1.434000E+09  0.05000  8.837E-05    0   0.5874   age139_m72            0.0000     1.0596E-05    24.3671  -1.0000   137.0511
 63      0.0001     9.3381E-03    7.5711E-03    2.500000E+09  0.05000  4.233E-05    0   0.5598   age150_m72            0.0000     1.2153E-05    29.3255  -1.0000   123.6965
 64      0.0000     0.0000E+00    0.0000E+00    6.250000E+09  0.05000  1.435E-05    0   0.5249   age166_m72            0.0000     1.4929E-05    37.0428  -1.0000   105.4156
 65      0.0000     0.0000E+00    0.0000E+00    1.300000E+10  0.05000  6.513E-06    0   0.5036   age193_m72            0.0000     1.7333E-05    41.2949  -1.0000    96.1550
 66      0.0000     0.0000E+00    0.0000E+00    1.800000E+10  0.05000  4.527E-06    0   0.4945   age213_m72            0.0000     1.8833E-05    43.4822  -1.0000    90.2071


## Synthesis Results - Average & Chains ##

# j      x_j: min, <> & last-chain-values for 1 ...  7 chains
  1     23.6777     25.1757     45.1676      6.4601     18.2266     46.8551     38.1731      6.5119     33.4200
  2      0.0000      1.0906      0.3902      0.4575      1.4467      0.0000      0.0000      0.1033      0.6353
  3      0.4787      0.9478      0.7313      2.3581      0.9645      0.0254      1.0238      1.4843      0.0000
  4      0.0000      1.2010      0.3290      0.9124      1.1261      0.7232      0.0000      2.3891      3.1036
  5      0.0000      1.3314      0.0000      1.1383      1.7141      0.3210      0.0637      0.3177      0.3646
  6      1.3734      0.7292      0.0000      0.9143      1.4756      0.2214      0.0000      1.9451      0.7916
  7      0.0000      0.7228      0.4260      0.0000      1.8585      0.0000      0.0000      2.5479      0.0000
  8      0.0000      0.8354      0.3955      0.0000      0.3238      0.3197      0.0000      0.0000      3.6649
  9      0.0000      1.0136      0.1226      0.0000      1.6724      0.3093      0.0466      0.3895      1.1799
 10      0.0000      1.1252      0.5711      0.9532      0.0557      0.3143      2.2648      1.1194      1.0003
 11      9.8468      0.8341      0.0000      0.8427      0.0000      0.0998      0.5224      3.5005      0.0000
 12      1.4952      0.7958      0.0848      0.0000      0.5363      0.3510      0.2700      1.1492      0.0656
 13      0.0000      1.1852      0.9980      2.8917      2.1060      0.2319      0.0000      2.1697      0.0000
 14      0.0000      0.8029      0.0000      2.0922      0.0000      0.0000      0.5607      0.7462      0.0729
 15      0.0000      1.1920      0.4367      2.3297      2.2365      0.0317      0.0000      1.3193      0.5626
 16      0.0477      0.9992      1.1397      0.8074      2.4164      0.5046      1.5801      3.2257      1.1195
 17      0.0222      2.2215      2.1093     10.3182      0.7259      3.4070      3.0539      4.2251      4.9161
 18      0.7656      0.6467      0.0000      0.0000      0.0000      0.0000      0.6148      1.0221      0.0393
 19     24.6171      0.9322      0.0000      0.0000      3.8692      0.3913      0.5246      3.3315      0.0085
 20      4.2291      1.0604      0.0000      0.0000      1.8312      0.0000      0.2227      4.9682      1.8626
 21      0.0000      0.9529      0.2912      0.1916      2.5816      0.1746      0.5205      0.0000      0.7402
 22      0.0000      1.0157      0.1307      0.2430      0.0000      0.1036      0.1334      0.5714      1.0325
 23      0.3405      1.0209      0.0565      0.0622      0.3578      0.0000      0.3353      2.5124      0.0000
 24      0.0000      1.1809      0.2258      0.5450      0.4853      0.0000      1.6693      0.0000      0.9619
 25     16.6119      0.8034      0.4707      1.3261      0.4002      0.0072      0.0000      3.2550      2.0774
 26      0.0000      1.5942      0.4408      3.1737      0.0000      0.2367      0.0000      0.0000      1.2417
 27      0.0000      0.9022      0.0957      0.0000      1.1139      0.1788      1.5365      0.2890      0.5283
 28      0.0000      0.6785      0.3416      3.0129      3.2026      0.1567      0.8598      0.3425      0.0000
 29      0.8647      0.7882      0.0945      1.2207      0.4433      0.1637      0.6093      0.6370      0.7736
 30      0.0000      0.8522      0.1078      5.1597      0.0000      0.1548      0.1033      0.0000      0.7472
 31      0.0000      0.9841      0.3201      0.4812      0.0000      0.6774      0.5570      0.0000      0.0000
 32      0.0000      1.1456      0.0000      1.3476      1.6818      0.0000      1.3012      2.2417      0.3931
 33      0.0000      6.7951     10.6111      3.4745      8.4478     11.3700      9.7407      3.5267      8.6681
 34      0.0000     10.6381     18.3575     10.4817      9.4264     18.9355     16.0835     13.0548     13.7457
 35      0.0000      0.9949      0.0494      1.6349      1.1832      0.0065      0.8527      0.0000      0.6489
 36     16.3966      1.4307      0.0309      3.9422      0.0000      0.0285      1.1196      4.1281      0.8042
 37      0.0000      1.0128      0.2740      0.0000      0.3833      0.0000      0.0000      0.0000      1.5680
 38     13.8848      0.7773      0.0000      2.8957      0.7306      0.0000      0.0000      2.2658      0.4293
 39      0.0000      0.9202      0.0000      1.2596      0.5841      0.7472      0.0000      0.0000      0.8192
 40      0.0000      1.1566      0.0000      1.9630      3.2946      0.0989      0.4831      2.8653      0.3860
 41      0.0000      1.1883      0.7826      1.1106      0.8780      0.6982      1.0304      1.2657      0.5085
 42      0.0000      0.7322      0.2705      3.1478      0.5108      0.0000      0.0015      0.0000      0.5614
 43      0.0000      0.9300      0.6917      0.9198      3.0685      0.0000      0.2965      0.1472      0.3411
 44      0.0000      0.6115      0.2615      2.2840      0.3549      0.0000      1.3789      0.0000      0.0691
 45      0.0412      1.3423      0.0000      0.3702      0.0000      0.0000      1.2738      2.7956      1.6927
 46      0.0000      0.8700      0.1733      0.8519      1.1156      1.0094      0.0000      0.8942      0.5199
 47      0.0000      1.1154      0.0000      1.8337      1.4535      0.0000      0.3378      1.4158      0.0000
 48      0.0000      1.0899      0.9255      0.0000      2.8608      0.0000      0.0203      0.0000      0.5184
 49      0.0196      4.2375      5.7373      2.2908      1.8127      5.8396      5.5458      1.7111      5.3078
 50      0.0000      2.8563      4.7778      1.8841      3.8734      4.4102      4.7140      2.0411      2.4660
 51      0.0000      0.8328      0.2756      0.2357      1.3370      0.0021      0.9220      0.0000      0.0000
 52     10.9783      0.7533      0.4982      0.3523      0.0000      0.2131      0.0000      1.6453      0.0000
 53      1.5339      1.1270      0.1518      0.0000      0.6655      0.0919      0.0005      2.0035      0.1805
 54      1.4145      0.9199      0.2304      0.2688      0.8600      0.1000      0.1091      3.2380      0.0000
 55      0.0906      0.7813      0.1084      3.9960      1.8338      0.0000      0.0000      1.1264      1.2185
 56      0.0000      1.0724      0.1979      2.4257      1.7472      0.0000      0.1856      1.9551      0.2869
 57      0.0298      1.0669      0.0000      0.1681      0.5596      0.2152      0.2942      5.2455      0.0000
 58      0.0000      1.0448      0.0000      0.2136      1.6806      0.0375      0.1279      0.0000      0.0000
 59      0.0000      1.0377      0.6877      2.1798      0.0000      0.1449      0.3780      0.0000      1.1643
 60      0.0000      1.0186      0.1871      3.9598      0.5081      0.0221      1.2765      0.6082      0.1612
 61      0.0000      0.9621      0.0000      2.3244      2.3953      0.9071      0.6821      0.7469      0.2326
 62      0.0000      0.9713      0.4887      3.1476      0.0000      0.2901      0.2965      5.3984      0.3587
 63      0.0001      6.6635      9.8704      5.5794      9.9225     10.1484      9.5762      4.4736      7.4125
 64      0.0000      8.5411     12.8769      2.4217      7.7375     13.2353     11.1364      7.9062     11.1514
 65      0.0000      0.9010      0.1615      1.0689      0.9096      0.1426      0.0603      1.5310      0.5669
 66      0.0000      0.9268      0.2125      6.8143      2.3169      0.0132      0.1718      1.5362      1.5461

# j      m_j: min, <> & last-chain-values for 1 ...  7 chains
  1  9.9629E+00  1.1800E-01  1.5565E-01  2.4283E-02  7.8750E-02  1.5901E-01  1.4098E-01  2.9773E-02  1.2999E-01
  2  0.0000E+00  1.3955E-03  3.6706E-04  4.6946E-04  1.7064E-03  0.0000E+00  0.0000E+00  1.2899E-04  6.7458E-04
  3  8.2347E-02  1.8160E-03  1.0303E-03  3.6236E-03  1.7036E-03  3.5229E-05  1.5458E-03  2.7744E-03  0.0000E+00
  4  0.0000E+00  2.1671E-03  4.3652E-04  1.3204E-03  1.8731E-03  9.4481E-04  0.0000E+00  4.2052E-03  4.6475E-03
  5  0.0000E+00  4.5762E-03  0.0000E+00  3.1378E-03  5.4312E-03  7.9881E-04  1.7263E-04  1.0652E-03  1.0400E-03
  6  6.8736E-01  4.0653E-03  0.0000E+00  4.0880E-03  7.5835E-03  8.9363E-04  0.0000E+00  1.0578E-02  3.6625E-03
  7  0.0000E+00  5.7690E-03  2.5001E-03  0.0000E+00  1.3674E-02  0.0000E+00  0.0000E+00  1.9838E-02  0.0000E+00
  8  0.0000E+00  9.2162E-03  3.2080E-03  0.0000E+00  3.2930E-03  2.5535E-03  0.0000E+00  0.0000E+00  3.3554E-02
  9  0.0000E+00  1.2798E-02  1.1384E-03  0.0000E+00  1.9466E-02  2.8275E-03  4.6364E-04  4.7970E-03  1.2365E-02
 10  0.0000E+00  1.8662E-02  6.9639E-03  1.2679E-02  8.5195E-04  3.7748E-03  2.9600E-02  1.8112E-02  1.3769E-02
 11  2.7570E+01  2.6012E-02  0.0000E+00  2.1078E-02  0.0000E+00  2.2537E-03  1.2839E-02  1.0649E-01  0.0000E+00
 12  6.6409E+00  3.9371E-02  3.0855E-03  0.0000E+00  2.4458E-02  1.2573E-02  1.0525E-02  5.5461E-02  2.6938E-03
 13  0.0000E+00  1.6526E-01  1.0231E-01  3.2338E-01  2.7072E-01  2.3412E-02  0.0000E+00  2.9513E-01  0.0000E+00
 14  0.0000E+00  3.7552E-01  0.0000E+00  7.8477E-01  0.0000E+00  0.0000E+00  2.0666E-01  3.4045E-01  2.8308E-02
 15  0.0000E+00  9.0757E-01  2.4448E-01  1.4226E+00  1.5698E+00  1.7458E-02  0.0000E+00  9.7988E-01  3.5550E-01
 16  5.5100E+00  1.2863E+00  1.0788E+00  8.3361E-01  2.8677E+00  4.7032E-01  1.6029E+00  4.0509E+00  1.1960E+00
 17  3.3284E+00  3.7099E+00  2.5899E+00  1.3820E+01  1.1175E+00  4.1198E+00  4.0188E+00  6.8831E+00  6.8135E+00
 18  2.8469E-01  2.6784E-03  0.0000E+00  0.0000E+00  0.0000E+00  0.0000E+00  2.0065E-03  4.1295E-03  1.3506E-04
 19  3.6738E+00  1.5496E-03  0.0000E+00  0.0000E+00  5.9293E-03  4.7097E-04  6.8723E-04  5.4024E-03  1.1696E-05
 20  6.8902E-01  1.9245E-03  0.0000E+00  0.0000E+00  3.0635E-03  0.0000E+00  3.1847E-04  8.7953E-03  2.8052E-03
 21  0.0000E+00  2.0992E-03  4.7170E-04  3.3846E-04  5.2427E-03  2.7855E-04  9.0351E-04  0.0000E+00  1.3532E-03
 22  0.0000E+00  3.7836E-03  3.5802E-04  7.2588E-04  0.0000E+00  2.7956E-04  3.9154E-04  2.0762E-03  3.1918E-03
 23  1.5377E-01  5.1358E-03  2.0912E-04  2.5094E-04  1.6590E-03  0.0000E+00  1.3289E-03  1.2328E-02  0.0000E+00
 24  0.0000E+00  8.8382E-03  1.2424E-03  3.2713E-03  3.3479E-03  0.0000E+00  9.8443E-03  0.0000E+00  5.9741E-03
 25  1.5390E+01  8.2902E-03  3.5711E-03  1.0975E-02  3.8066E-03  5.3793E-05  0.0000E+00  3.2766E-02  1.7791E-02
 26  0.0000E+00  2.7498E-02  5.5904E-03  4.3904E-02  0.0000E+00  2.9558E-03  0.0000E+00  0.0000E+00  1.7775E-02
 27  0.0000E+00  3.1150E-02  2.4289E-03  0.0000E+00  3.5453E-02  4.4711E-03  4.1801E-02  9.7331E-03  1.5136E-02
 28  0.0000E+00  6.7989E-02  2.5167E-02  2.4211E-01  2.9581E-01  1.1371E-02  6.7884E-02  3.3479E-02  0.0000E+00
 29  1.3553E+01  1.3760E-01  1.2132E-02  1.7091E-01  7.1350E-02  2.0700E-02  8.3824E-02  1.0849E-01  1.1208E-01
 30  0.0000E+00  3.1084E-01  2.8917E-02  1.5094E+00  0.0000E+00  4.0884E-02  2.9702E-02  0.0000E+00  2.2618E-01
 31  0.0000E+00  6.3146E-01  1.5100E-01  2.4762E-01  0.0000E+00  3.1470E-01  2.8162E-01  0.0000E+00  0.0000E+00
 32  0.0000E+00  9.8908E-01  0.0000E+00  9.3308E-01  1.3385E+00  0.0000E+00  8.8525E-01  1.8880E+00  2.8164E-01
 33  0.0000E+00  1.2987E+01  1.4911E+01  5.3257E+00  1.4884E+01  1.5734E+01  1.4670E+01  6.5751E+00  1.3749E+01
 34  0.0000E+00  2.7533E+01  3.4932E+01  2.1757E+01  2.2490E+01  3.5485E+01  3.2801E+01  3.2959E+01  2.9524E+01
 35  0.0000E+00  3.3039E-03  1.2058E-04  4.3543E-03  3.6223E-03  1.5546E-05  2.2315E-03  0.0000E+00  1.7885E-03
 36  1.9778E+00  1.9223E-03  3.0568E-05  4.2480E-03  0.0000E+00  2.7704E-05  1.1853E-03  5.4107E-03  8.9669E-04
 37  0.0000E+00  1.4720E-03  2.9282E-04  0.0000E+00  5.1350E-04  0.0000E+00  0.0000E+00  0.0000E+00  1.8911E-03
 38  4.9077E+00  3.0604E-03  0.0000E+00  9.1432E-03  2.6516E-03  0.0000E+00  0.0000E+00  8.7021E-03  1.4026E-03
 39  0.0000E+00  5.2162E-03  0.0000E+00  5.7264E-03  3.0525E-03  3.0670E-03  0.0000E+00  0.0000E+00  3.8540E-03
 40  0.0000E+00  1.0598E-02  0.0000E+00  1.4426E-02  2.7830E-02  6.5594E-04  3.4884E-03  2.5612E-02  2.9356E-03
 41  0.0000E+00  1.6932E-02  8.1992E-03  1.2691E-02  1.1533E-02  7.2041E-03  1.1569E-02  1.7593E-02  6.0138E-03
 42  0.0000E+00  1.9157E-02  5.2033E-03  6.6046E-02  1.2319E-02  0.0000E+00  2.9978E-05  0.0000E+00  1.2188E-02
 43  0.0000E+00  3.5522E-02  1.9426E-02  2.8177E-02  1.0804E-01  0.0000E+00  8.9234E-03  5.4835E-03  1.0812E-02
 44  0.0000E+00  4.0218E-02  1.2646E-02  1.2047E-01  2.1514E-02  0.0000E+00  7.1461E-02  0.0000E+00  3.7696E-03
 45  4.8260E-01  1.7515E-01  0.0000E+00  3.8747E-02  0.0000E+00  0.0000E+00  1.3098E-01  3.5585E-01  1.8330E-01
 46  0.0000E+00  2.0867E-01  3.0554E-02  1.6388E-01  2.4668E-01  1.7531E-01  0.0000E+00  2.0923E-01  1.0349E-01
 47  0.0000E+00  5.4209E-01  0.0000E+00  7.1476E-01  6.5123E-01  0.0000E+00  1.2936E-01  6.7122E-01  0.0000E+00
 48  0.0000E+00  9.3420E-01  5.8326E-01  0.0000E+00  2.2605E+00  0.0000E+00  1.3692E-02  0.0000E+00  3.6877E-01
 49  3.4192E+00  8.2550E+00  8.2175E+00  3.5790E+00  3.2553E+00  8.2370E+00  8.5131E+00  3.2517E+00  8.5811E+00
 50  0.0000E+00  1.0306E+01  1.2674E+01  5.4519E+00  1.2883E+01  1.1522E+01  1.3403E+01  7.1839E+00  7.3841E+00
 51  0.0000E+00  1.6472E-03  4.0082E-04  3.7392E-04  2.4376E-03  3.0512E-06  1.4369E-03  0.0000E+00  0.0000E+00
 52  9.9893E-01  7.6348E-04  3.7126E-04  2.8633E-04  0.0000E+00  1.5637E-04  0.0000E+00  1.6267E-03  0.0000E+00
 53  2.1024E-01  1.7206E-03  1.7044E-04  0.0000E+00  9.3668E-04  1.0154E-04  6.5453E-07  2.9839E-03  2.2871E-04
 54  3.9727E-01  2.8778E-03  5.3002E-04  6.7440E-04  2.4801E-03  2.2641E-04  2.6887E-04  9.8812E-03  0.0000E+00
 55  3.9177E-02  3.7633E-03  3.8387E-04  1.5436E-02  8.1426E-03  0.0000E+00  0.0000E+00  5.2927E-03  4.8706E-03
 56  0.0000E+00  1.0223E-02  1.3871E-03  1.8546E-02  1.5355E-02  0.0000E+00  1.3944E-03  1.8182E-02  2.2700E-03
 57  3.3874E-02  1.3499E-02  0.0000E+00  1.7056E-03  6.5270E-03  1.9715E-03  2.9335E-03  6.4746E-02  0.0000E+00
 58  0.0000E+00  2.2362E-02  0.0000E+00  3.6662E-03  3.3159E-02  5.8052E-04  2.1579E-03  0.0000E+00  0.0000E+00
 59  0.0000E+00  4.7797E-02  2.3288E-02  8.0520E-02  0.0000E+00  4.8323E-03  1.3718E-02  0.0000E+00  4.4506E-02
 60  0.0000E+00  8.7141E-02  1.1768E-02  2.7169E-01  4.0071E-02  1.3664E-03  8.6053E-02  5.0761E-02  1.1446E-02
 61  0.0000E+00  1.7985E-01  0.0000E+00  3.4847E-01  4.1275E-01  1.2277E-01  1.0048E-01  1.3619E-01  3.6081E-02
 62  0.0000E+00  3.3103E-01  1.2246E-01  8.6036E-01  0.0000E+00  7.1595E-02  7.9640E-02  1.7948E+00  1.0146E-01
 63  7.5711E-03  4.5185E+00  4.9210E+00  3.0342E+00  6.2025E+00  4.9827E+00  5.1169E+00  2.9592E+00  4.1714E+00
 64  0.0000E+00  1.6019E+01  1.7757E+01  3.6426E+00  1.3378E+01  1.7974E+01  1.6459E+01  1.4465E+01  1.7357E+01
 65  0.0000E+00  3.5723E+00  4.7080E-01  3.3987E+00  3.3244E+00  4.0926E-01  1.8838E-01  5.9213E+00  1.8651E+00
 66  0.0000E+00  5.1911E+00  8.7490E-01  3.0609E+01  1.1963E+01  5.3436E-02  7.5838E-01  8.3931E+00  7.1866E+00

# AV, chi2 & Mass for <> & i_chain = 1 ...  7 solutions
AV       1.4528     -0.7301     -0.7226     -0.6436     -0.5414     -0.7536     -0.6690     -0.5759     -0.5708
chi2 9.8613E-06  1.1728E-05  1.1304E-05  1.1134E-05  1.1125E-05  1.1278E-05  1.1235E-05  1.1097E-05  1.1211E-05
Mass 9.0177E-15  4.3145E-14  5.9276E-14  6.0429E-14  6.0307E-14  5.7739E-14  5.9437E-14  5.4408E-14  6.4399E-14
 429.85                                  [v0_min (km/s) before EX0s...]
  65.69                                  [vd_min (km/s) before EX0s...]


## Synthetic spectrum (Best Model) ##l_obs f_obs f_syn wei
 3478    [Nl_obs]
 3741.00    4.05388   1.00106    0.000
 3742.00    4.47740   1.05527    0.000
 3743.00    4.31466   1.11206    0.000
 3744.00    3.34501   1.16137    0.000
 3745.00    1.90523   1.19830   -1.000
 3746.00    1.88575   1.22116   -1.000
 3747.00    2.58751   1.22993   -1.000
 3748.00    2.45738   1.22630   -1.000
 3749.00    1.96144   1.21267   -1.000
 3750.00    1.77776   1.18884   -1.000
 3751.00    1.71198   1.15414   -1.000
 3752.00    1.57065   1.10826   -1.000
 3753.00    1.40511   1.04870   -1.000
 3754.00    1.24488   0.98235   -1.000
 3755.00    1.08607   0.93735   -1.000
 3756.00    1.53626   0.94172   -1.000
 3757.00    2.12012   0.99119   -1.000
 3758.00    1.99329   1.05536   -1.000
 3759.00    1.74239   1.11068   -1.000
 3760.00    1.75058   1.15317   -1.000
 3761.00    1.79318   1.18643   -1.000
 3762.00    1.67122   1.21063   -1.000
 3763.00    1.53379   1.22542   -1.000
 3764.00    1.04914   1.23264   -1.000
 3765.00    0.54447   1.23715   -1.000
 3766.00    1.47448   1.24454   -1.000
 3767.00    2.43267   1.25183   -1.000
 3768.00    2.67837   1.25122   -1.000
 3769.00    2.87306   1.24005   -1.000
 3770.00    1.82869   1.21810   -1.000
 3771.00    0.86837   1.18327   -1.000
 3772.00    1.00949   1.13462   -1.000
 3773.00    1.09524   1.07292   -1.000
 3774.00    0.69491   1.00068   -1.000
 3775.00    0.30070   0.93347   -1.000
 3776.00   -0.05393   0.90356    0.000
 3777.00   -0.27480   0.93076    0.000
 3778.00    0.18136   0.99739   -1.000
 3779.00    0.70015   1.07072   -1.000
 3780.00    1.47528   1.13345   -1.000
 3781.00    1.97442   1.18243   -1.000
 3782.00    1.53748   1.21896   -1.000
 3783.00    1.16192   1.24630   -1.000
 3784.00    0.96186   1.26834   -1.000
 3785.00    0.73202   1.28732   -1.000
 3786.00    0.42943   1.30221   -1.000
 3787.00    0.07275   1.31155   -1.000
 3788.00   -0.39793   1.31563    0.000
 3789.00   -0.77272   1.31499    0.000
 3790.00   -0.97186   1.31083    0.000
 3791.00   -0.88010   1.30544    0.000
 3792.00   -0.32270   1.29946    0.000
 3793.00    0.27803   1.29146   -1.000
 3794.00    0.93961   1.27950   -1.000
 3795.00    1.10395   1.26095   -1.000
 3796.00    0.65368   1.23544   -1.000
 3797.00    0.45882   1.20666   -1.000
 3798.00    0.54222   1.17355   -1.000
 3799.00    0.58821   1.12767   -1.000
 3800.00    0.59824   1.06430   -1.000
 3801.00    0.36713   0.98685   -1.000
 3802.00   -0.06831   0.90922    0.000
 3803.00   -0.14804   0.86179    0.000
 3804.00    0.03767   0.87318   -1.000
 3805.00    0.27292   0.93781   -1.000
 3806.00    0.54066   1.02091   -1.000
 3807.00    0.32667   1.09440   -1.000
 3808.00   -0.16375   1.15148    0.000
 3809.00    0.13009   1.19315   -1.000
 3810.00    0.81593   1.21889   -1.000
 3811.00    0.66715   1.23349   -1.000
 3812.00    0.15744   1.24955   -1.000
 3813.00    0.15149   1.27296   -1.000
 3814.00    0.33236   1.29638   -1.000
 3815.00   -0.04243   1.31284    0.000
 3816.00   -0.59190   1.32185    0.000
 3817.00    0.17323   1.32456   -1.000
 3818.00    1.28321   1.32294   -1.000
 3819.00    1.22101   1.32004   -1.000
 3820.00    0.90766   1.31748   -1.000
 3821.00    0.87691   1.31302   -1.000
 3822.00    0.89412   1.29914   -1.000
 3823.00    1.61069   1.26457   -1.000
 3824.00    2.41700   1.21264   -1.000
 3825.00    2.09844   1.17934   -1.000
 3826.00    1.67891   1.19619   -1.000
 3827.00    0.99701   1.24300   -1.000
 3828.00    0.30101   1.27895   -1.000
 3829.00    0.17310   1.29025   -1.000
 3830.00    0.05896   1.28526   -1.000
 3831.00    0.14662   1.27368   -1.000
 3832.00    0.25553   1.25825   -1.000
 3833.00    0.83674   1.23776   -1.000
 3834.00    1.37994   1.21142   -1.000
 3835.00    1.45052   1.17818   -1.000
 3836.00    1.45805   1.13476   -1.000
 3837.00    0.93252   1.07642   -1.000
 3838.00    0.43266   1.00160   -1.000
 3839.00    0.09422   0.91677   -1.000
 3840.00   -0.14390   0.84472    0.000
 3841.00    0.11300   0.82095   -1.000
 3842.00    0.30951   0.85971   -1.000
 3843.00    0.26423   0.93668   -1.000
 3844.00    0.42301   1.01889   -1.000
 3845.00    1.26022   1.08935   -1.000
 3846.00    1.69477   1.14424   -1.000
 3847.00    0.99862   1.18602    0.000
 3848.00    0.45516   1.21893    0.000
 3849.00    0.27843   1.24543    0.000
 3850.00    0.75940   1.26586    0.000
 3851.00    2.60438   1.28104    0.000
 3852.00    3.33956   1.29272    0.000
 3853.00    2.07306   1.30190    0.000
 3854.00    1.24492   1.30841    0.000
 3855.00    1.10809   1.31229    0.000
 3856.00    1.10292   1.31560    0.000
 3857.00    1.28000   1.32037    0.000
 3858.00    1.22125   1.32494    0.000
 3859.00    0.87514   1.32562    0.000
 3860.00    0.38875   1.32148    0.000
 3861.00   -0.24831   1.31621    0.000
 3862.00   -0.34508   1.31579    0.000
 3863.00    0.07008   1.32083    0.000
 3864.00    0.46135   1.32474    0.000
 3865.00    0.83266   1.32399    0.000
 3866.00    1.00801   1.32224    0.000
 3867.00    1.03922   1.32198    0.000
 3868.00    0.77685   1.32145    0.000
 3869.00    0.32485   1.32020    0.000
 3870.00    0.10839   1.31838    0.000
 3871.00    0.02504   1.31290    0.000
 3872.00    0.03798   1.30270    0.000
 3873.00    0.09827   1.29696    0.000
 3874.00    0.16410   1.30290    0.000
 3875.00    0.23227   1.30873    0.000
 3876.00    0.73891   1.30042    0.000
 3877.00    1.40527   1.28494    0.000
 3878.00    1.15756   1.27886    0.000
 3879.00    0.62806   1.28313    0.000
 3880.00    0.25031   1.28480    0.000
 3881.00   -0.08849   1.27802    0.000
 3882.00    0.06794   1.26832   -1.000
 3883.00    0.32791   1.26022   -1.000
 3884.00   -0.06443   1.25246    0.000
 3885.00   -0.56434   1.24278    0.000
 3886.00   -0.69496   1.22771    0.000
 3887.00   -0.77984   1.20390    0.000
 3888.00   -0.31715   1.17336    0.000
 3889.00    0.19240   1.13883   -1.000
 3890.00    0.32166   1.09524   -1.000
 3891.00    0.43197   1.03457   -1.000
 3892.00    1.00172   0.95512   -1.000
 3893.00    1.56068   0.86692   -1.000
 3894.00    0.93747   0.80049   -1.000
 3895.00    0.35766   0.79464   -1.000
 3896.00    0.66563   0.85428   -1.000
 3897.00    0.97087   0.94297   -1.000
 3898.00    1.24373   1.02476   -1.000
 3899.00    1.45503   1.08829   -1.000
 3900.00    1.16478   1.13586   -1.000
 3901.00    0.88194   1.17185   -1.000
 3902.00    0.64436   1.19987   -1.000
 3903.00    0.49300   1.22054   -1.000
 3904.00    0.75649   1.23441   -1.000
 3905.00    0.89308   1.24650   -1.000
 3906.00    0.53266   1.26045   -1.000
 3907.00    0.21658   1.27383   -1.000
 3908.00    0.04504   1.28390   -1.000
 3909.00   -0.12129   1.29097    0.000
 3910.00   -0.27326   1.29529    0.000
 3911.00   -0.14028   1.29742    0.000
 3912.00    0.66561   1.30033   -1.000
 3913.00    1.13981   1.30594   -1.000
 3914.00    0.93710   1.31241   -1.000
 3915.00    0.52295   1.31633   -1.000
 3916.00   -0.26672   1.31570    0.000
 3917.00   -0.24505   1.31234    0.000
 3918.00    1.03729   1.31097   -1.000
 3919.00    1.62704   1.31334   -1.000
 3920.00    1.27179   1.31664   -1.000
 3921.00    1.30291   1.31775   -1.000
 3922.00    1.79816   1.31439   -1.000
 3923.00    1.41151   1.30403   -1.000
 3924.00    0.09086   1.28694   -1.000
 3925.00   -0.37138   1.27103    0.000
 3926.00   -0.03170   1.26635    0.000
 3927.00    0.56054   1.27325   -1.000
 3928.00    1.36080   1.28063   -1.000
 3929.00    1.18503   1.27987   -1.000
 3930.00    0.30172   1.27249   -1.000
 3931.00    0.05597   1.26215   -1.000
 3932.00    0.21598   1.25558   -1.000
 3933.00    0.30259   1.26028   -1.000
 3934.00    0.34834   1.27148   -1.000
 3935.00    0.24804   1.27927   -1.000
 3936.00    0.07705   1.27939   -1.000
 3937.00   -0.15513   1.26947    0.000
 3938.00   -0.41290   1.25165    0.000
 3939.00    0.10092   1.23761   -1.000
 3940.00    0.89075   1.23893   -1.000
 3941.00    0.97568   1.25383   -1.000
 3942.00    0.84757   1.27208   -1.000
 3943.00    0.85159   1.28627   -1.000
 3944.00    0.88879   1.29463   -1.000
 3945.00    0.81367   1.29930   -1.000
 3946.00    0.71565   1.30239   -1.000
 3947.00    0.57701   1.30333   -1.000
 3948.00    0.43188   1.30115   -1.000
 3949.00    0.65787   1.29660   -1.000
 3950.00    0.92816   1.29262   -1.000
 3951.00    0.99922   1.29215   -1.000
 3952.00    1.05406   1.29386   -1.000
 3953.00    0.44293   1.29448   -1.000
 3954.00   -0.19881   1.29401    0.000
 3955.00    1.02816   1.29342   -1.000
 3956.00    2.24301   1.29187   -1.000
 3957.00    1.58075   1.28775   -1.000
 3958.00    0.94890   1.28035   -1.000
 3959.00    0.89295   1.27127   -1.000
 3960.00    0.85063   1.26377    0.000
 3961.00    0.96177   1.25889    0.000
 3962.00    1.05407   1.25452    0.000
 3963.00    0.99825   1.24912    0.000
 3964.00    0.91074   1.24179    0.000
 3965.00    0.63514   1.22929    0.000
 3966.00    0.41104   1.20841    0.000
 3967.00    0.42879   1.18171    0.000
 3968.00    0.47442   1.15270    0.000
 3969.00    0.62694   1.11714    0.000
 3970.00    0.78277   1.07420    0.000
 3971.00    0.94923   1.03026    0.000
 3972.00    1.18789   0.98022    0.000
 3973.00    1.62209   0.91133    0.000
 3974.00    1.57866   0.82806    0.000
 3975.00    0.42614   0.76092    0.000
 3976.00   -0.21872   0.74871    0.000
 3977.00    0.15609   0.79991    0.000
 3978.00    0.72426   0.88329    0.000
 3979.00    1.63066   0.96562    0.000
 3980.00    1.99245   1.03464    0.000
 3981.00    1.52047   1.08870   -1.000
 3982.00    0.83225   1.12901   -1.000
 3983.00   -0.14679   1.15932    0.000
 3984.00   -0.45943   1.18309    0.000
 3985.00    0.01711   1.20226   -1.000
 3986.00    0.20241   1.21704   -1.000
 3987.00    0.08359   1.22630   -1.000
 3988.00    0.08933   1.23168   -1.000
 3989.00    0.20980   1.23838   -1.000
 3990.00    0.56977   1.24824   -1.000
 3991.00    1.12418   1.25797   -1.000
 3992.00    1.13527   1.26572   -1.000
 3993.00    0.75818   1.27240   -1.000
 3994.00    0.66391   1.27747   -1.000
 3995.00    0.74697   1.28000   -1.000
 3996.00    0.90225   1.28161   -1.000
 3997.00    1.09710   1.28419   -1.000
 3998.00    1.19159   1.28636   -1.000
 3999.00    1.23825   1.28488   -1.000
 4000.00    1.32539   1.28048   -1.000
 4001.00    1.42915   1.27830   -1.000
 4002.00    0.84352   1.27967   -1.000
 4003.00    0.01575   1.28124   -1.000
 4004.00    0.12192   1.28259   -1.000
 4005.00    0.50481   1.28557   -1.000
 4006.00    0.77801   1.28863   -1.000
 4007.00    1.02426   1.28876   -1.000
 4008.00    0.85852   1.28579   -1.000
 4009.00    0.61086   1.28127   -1.000
 4010.00    0.86275   1.27604   -1.000
 4011.00    1.19226   1.27088   -1.000
 4012.00    1.27895   1.26481   -1.000
 4013.00    1.33773   1.25313   -1.000
 4014.00    0.95129   1.23637   -1.000
 4015.00    0.53043   1.22779   -1.000
 4016.00    0.43861   1.23808   -1.000
 4017.00    0.36066   1.25884   -1.000
 4018.00    0.84801   1.27520   -1.000
 4019.00    1.32588   1.28339   -1.000
 4020.00    1.16210   1.28709   -1.000
 4021.00    1.00000   1.28864   -1.000
 4022.00    0.86755   1.28820   -1.000
 4023.00    0.82607   1.28700   -1.000
 4024.00    1.76350   1.28681   -1.000
 4025.00    2.49924   1.28660   -1.000
 4026.00    1.70388   1.28282   -1.000
 4027.00    1.00647   1.27325   -1.000
 4028.00    0.87398   1.25598   -1.000
 4029.00    0.73964   1.22461   -1.000
 4030.00    0.59684   1.17424   -1.000
 4031.00    0.53069   1.12103   -1.000
 4032.00    0.75207   1.10329   -1.000
 4033.00    0.96012   1.13808   -1.000
 4034.00    1.12638   1.19490   -1.000
 4035.00    1.16645   1.23665   -1.000
 4036.00    0.87083   1.25611   -1.000
 4037.00    0.80048   1.26342   -1.000
 4038.00    1.24456   1.26664   -1.000
 4039.00    1.53804   1.26863   -1.000
 4040.00    1.53378   1.27072   -1.000
 4041.00    1.51033   1.27479   -1.000
 4042.00    1.45379   1.28148   -1.000
 4043.00    1.51308   1.28757   -1.000
 4044.00    1.74709   1.28946   -1.000
 4045.00    1.72062   1.28732   -1.000
 4046.00    1.34887   1.28356   -1.000
 4047.00    0.98329   1.28040   -1.000
 4048.00    0.62490   1.27826   -1.000
 4049.00    0.37246   1.27521   -1.000
 4050.00    0.22907   1.27067   -1.000
 4051.00    0.16475   1.26759   -1.000
 4052.00    0.17223   1.26870   -1.000
 4053.00    0.28691   1.27308   -1.000
 4054.00    0.48739   1.27754   -1.000
 4055.00    0.88501   1.28038   -1.000
 4056.00    1.42145   1.28173   -1.000
 4057.00    1.53711   1.28132   -1.000
 4058.00    1.39286   1.27856   -1.000
 4059.00    1.32317   1.27418   -1.000
 4060.00    1.29371   1.27015   -1.000
 4061.00    1.07745   1.26823   -1.000
 4062.00    0.77364   1.26856   -1.000
 4063.00    0.78705   1.26972   -1.000
 4064.00    0.92860   1.26986   -1.000
 4065.00    1.03751   1.26834   -1.000
 4066.00    1.13516   1.26617   -1.000
 4067.00    1.33943   1.26399   -1.000
 4068.00    1.57466   1.26134   -1.000
 4069.00    2.01909   1.25893   -1.000
 4070.00    2.51377   1.25904   -1.000
 4071.00    2.35458   1.26066   -1.000
 4072.00    2.06868   1.25852   -1.000
 4073.00    1.99836   1.25005   -1.000
 4074.00    1.96052   1.23804   -1.000
 4075.00    1.82609   1.22707   -1.000
 4076.00    1.68098   1.22122   -1.000
 4077.00    1.43849   1.22223   -1.000
 4078.00    1.18888   1.22855   -1.000
 4079.00    1.36841   1.23484   -1.000
 4080.00    1.56437   1.23312   -1.000
 4081.00    1.29083   1.22388   -1.000
 4082.00    1.02706   1.21834   -1.000
 4083.00    1.22968   1.22188   -1.000
 4084.00    1.41485   1.22912   -1.000
 4085.00    1.31244   1.23557   -1.000
 4086.00    1.24978   1.24042   -1.000
 4087.00    1.59620   1.24203   -1.000
 4088.00    1.89115   1.23895   -1.000
 4089.00    1.80837   1.23191   -1.000
 4090.00    1.75641   1.22378   -1.000
 4091.00    1.87735   1.21794   -1.000
 4092.00    1.99222   1.21323    0.000
 4093.00    2.07987   1.20374    0.000
 4094.00    2.12806   1.18922    0.000
 4095.00    2.03131   1.17942    0.000
 4096.00    1.85813   1.17876    0.000
 4097.00    1.44990   1.17743    0.000
 4098.00    1.31663   1.16708    0.000
 4099.00    1.90201   1.14989    0.000
 4100.00    2.13215   1.12740    0.000
 4101.00    1.56453   1.09579    0.000
 4102.00    1.18902   1.05412    0.000
 4103.00    1.18734   1.00663    0.000
 4104.00    1.39970   0.95390    0.000
 4105.00    1.97525   0.88859    0.000
 4106.00    2.08512   0.81091    0.000
 4107.00    1.50278   0.74790    0.000
 4108.00    1.17674   0.73857    0.000
 4109.00    1.18559   0.79077    0.000
 4110.00    1.09854   0.87272    0.000
 4111.00    0.90109   0.95092    0.000
 4112.00    0.84879   1.01292    0.000
 4113.00    0.94382   1.05913    0.064
 4114.00    1.19173   1.09295   -1.000
 4115.00    1.57651   1.11763   -1.000
 4116.00    1.69829   1.13601   -1.000
 4117.00    1.61257   1.15162   -1.000
 4118.00    1.75153   1.16662   -1.000
 4119.00    2.04641   1.17894   -1.000
 4120.00    1.42493   1.18516   -1.000
 4121.00    0.24583   1.18631   -1.000
 4122.00    0.06461   1.18843    0.045
 4123.00    0.41352   1.19315    0.018
 4124.00    1.15240   1.19213    0.015
 4125.00    2.07109   1.17977    0.015
 4126.00    2.18419   1.16597    0.015
 4127.00    1.97741   1.16771    0.014
 4128.00    1.36955   1.18797    0.014
 4129.00    0.62595   1.21228    0.014
 4130.00    1.32878   1.22828    0.014
 4131.00    2.44317   1.23463    0.014
 4132.00    2.20759   1.23275    0.014
 4133.00    1.65506   1.22526    0.014
 4134.00    1.88202   1.21847    0.014
 4135.00    2.25611   1.21553    0.014
 4136.00    1.53577   1.21312    0.014
 4137.00    0.65561   1.21078    0.014
 4138.00    0.63654   1.21241    0.014
 4139.00    0.70898   1.21889    0.014
 4140.00    0.81149   1.22756    0.014
 4141.00    0.91608   1.23502    0.014
 4142.00    0.98434   1.23856    0.014
 4143.00    1.05135   1.23842    0.014
 4144.00    1.17544   1.23734    0.014
 4145.00    1.30205   1.23631    0.014
 4146.00    1.50812   1.23196    0.014
 4147.00    1.70266   1.21751    0.014
 4148.00    1.71896   1.18896    0.014
 4149.00    1.74604   1.15870    0.014
 4150.00    1.87934   1.15163    0.014
 4151.00    2.00994   1.17384    0.014
 4152.00    2.12136   1.20415    0.014
 4153.00    2.14598   1.22400    0.014
 4154.00    1.69685   1.23185    0.014
 4155.00    1.41458   1.23267    0.014
 4156.00    1.86169   1.23134    0.014
 4157.00    2.13201   1.22987    0.014
 4158.00    1.76650   1.22672    0.013
 4159.00    1.42420   1.22335    0.013
 4160.00    1.15197   1.22371    0.013
 4161.00    0.93394   1.22653    0.014
 4162.00    0.85511   1.22873    0.013
 4163.00    0.82138   1.23137    0.013
 4164.00    0.88731   1.23556    0.013
 4165.00    1.07680   1.23908    0.013
 4166.00    1.50297   1.23960    0.014
 4167.00    1.62826   1.23696    0.014
 4168.00    1.25067   1.23290    0.014
 4169.00    0.92027   1.23030    0.014
 4170.00    0.65898   1.23009    0.014
 4171.00    0.77816   1.23060    0.014
 4172.00    1.38739   1.22987    0.014
 4173.00    1.67537   1.22616    0.014
 4174.00    1.59882   1.22035    0.014
 4175.00    1.39446   1.21756    0.014
 4176.00    1.06219   1.21937    0.014
 4177.00    0.97224   1.22025    0.014
 4178.00    1.09617   1.21781    0.014
 4179.00    1.35403   1.21605    0.014
 4180.00    1.71605   1.21731    0.014
 4181.00    1.95007   1.22003    0.014
 4182.00    2.09655   1.22192    0.014
 4183.00    1.82487   1.22191    0.013
 4184.00    1.30252   1.22151    0.013
 4185.00    1.23182   1.22342    0.013
 4186.00    1.39734   1.22704    0.014
 4187.00    1.30704   1.22904    0.014
 4188.00    1.10069   1.22864    0.014
 4189.00    1.24747   1.22709    0.013
 4190.00    1.53206   1.22421    0.013
 4191.00    1.49136   1.22012    0.013
 4192.00    1.34261   1.21642    0.013
 4193.00    1.07694   1.21440    0.013
 4194.00    0.77868   1.21369    0.013
 4195.00    0.93784   1.21327    0.013
 4196.00    1.20195   1.21476    0.013
 4197.00    1.35124   1.21926    0.013
 4198.00    1.47944   1.22412    0.013
 4199.00    1.42468   1.22669    0.013
 4200.00    1.34406   1.22564    0.013
 4201.00    1.50074   1.22084    0.013
 4202.00    1.68161   1.21331    0.013
 4203.00    1.23246   1.20295    0.013
 4204.00    0.74226   1.18950    0.012
 4205.00    0.73507   1.17735    0.012
 4206.00    0.74321   1.17368    0.013
 4207.00    1.06483   1.18038    0.012
 4208.00    1.38640   1.19219    0.012
 4209.00    1.70611   1.20294    0.012
 4210.00    1.96598   1.21014    0.013
 4211.00    1.35461   1.21464    0.013
 4212.00    0.80303   1.21815    0.012
 4213.00    0.81690   1.22104    0.012
 4214.00    0.85201   1.22273    0.012
 4215.00    1.03307   1.22287    0.012
 4216.00    1.18412   1.22208    0.012
 4217.00    1.17571   1.22115    0.012
 4218.00    1.25888   1.22028    0.012
 4219.00    1.73316   1.21947    0.012
 4220.00    2.06657   1.21754    0.012
 4221.00    1.90365   1.21392    0.012
 4222.00    1.76012   1.21183    0.012
 4223.00    1.67403   1.21394    0.012
 4224.00    1.54731   1.21852    0.012
 4225.00    1.31805   1.22218    0.012
 4226.00    1.20001   1.22289    0.012
 4227.00    1.32364   1.22066    0.012
 4228.00    1.38858   1.21685    0.012
 4229.00    1.34285   1.21248    0.012
 4230.00    1.35624   1.20677    0.012
 4231.00    1.46700   1.19930    0.012
 4232.00    1.45967   1.19256    0.012
 4233.00    1.28187   1.19088    0.012
 4234.00    1.23773   1.19610    0.012
 4235.00    1.36328   1.20454    0.012
 4236.00    1.15254   1.21078    0.012
 4237.00    0.56554   1.21238    0.012
 4238.00    0.42371   1.20973    0.012
 4239.00    0.72115   1.20586    0.012
 4240.00    1.03497   1.20446    0.012
 4241.00    1.36303   1.20465    0.012
 4242.00    1.61791   1.20357    0.012
 4243.00    1.81670   1.20263    0.012
 4244.00    1.53792   1.20403    0.012
 4245.00    0.93729   1.20630    0.012
 4246.00    1.21675   1.20711    0.013
 4247.00    2.01582   1.20618    0.013
 4248.00    2.08515   1.20598    0.013
 4249.00    1.77875   1.20904    0.013
 4250.00    0.98609   1.21338    0.013
 4251.00   -0.02351   1.21423    0.000
 4252.00    0.70020   1.21050    0.013
 4253.00    2.08850   1.20597    0.013
 4254.00    2.28133   1.20346    0.013
 4255.00    2.08457   1.20186    0.012
 4256.00    2.35119   1.20004    0.012
 4257.00    2.74430   1.19877    0.012
 4258.00    2.68420   1.19691    0.012
 4259.00    2.52254   1.19306    0.013
 4260.00    2.15096   1.19058    0.013
 4261.00    1.74185   1.19330    0.013
 4262.00    1.76125   1.19916    0.013
 4263.00    1.83928   1.20318    0.013
 4264.00    1.52855   1.20309    0.012
 4265.00    1.17984   1.20021    0.012
 4266.00    1.62302   1.19709    0.012
 4267.00    2.11462   1.19619    0.012
 4268.00    1.69603   1.19890    0.012
 4269.00    1.25785   1.20349    0.012
 4270.00    1.79304   1.20515    0.012
 4271.00    2.31771   1.19783    0.012
 4272.00    2.56418   1.18021    0.012
 4273.00    2.74378   1.16414    0.012
 4274.00    2.00413   1.16414    0.012
 4275.00    1.32687   1.17654    0.012
 4276.00    1.21620   1.18596    0.012
 4277.00    1.12461   1.18698    0.012
 4278.00    1.16010   1.18497    0.012
 4279.00    1.17330   1.18356    0.012
 4280.00    1.07110   1.18133    0.012
 4281.00    1.09923   1.17801    0.012
 4282.00    1.67147   1.17711   -2.000
 4283.00    2.17875   1.18123   -2.000
 4284.00    2.46183   1.18840   -2.000
 4285.00    2.67534   1.19406   -2.000
 4286.00    2.68661   1.19533   -2.000
 4287.00    2.49432   1.19235   -2.000
 4288.00    1.79710   1.18724   -2.000
 4289.00    1.15619   1.18270   -2.000
 4290.00    0.63565   1.18030   -2.000
 4291.00    0.53648   1.18045   -2.000
 4292.00    1.21968   1.18285   -2.000
 4293.00    1.61896   1.18481   -2.000
 4294.00    1.55778   1.18269   -2.000
 4295.00    1.69164   1.17691   -2.000
 4296.00    2.10297   1.17256   -2.000
 4297.00    2.24896   1.17389   -2.000
 4298.00    2.06285   1.17926    0.012
 4299.00    1.67645   1.18255    0.012
 4300.00    1.06911   1.18083    0.012
 4301.00    1.17525   1.17794    0.012
 4302.00    1.97559   1.17782    0.012
 4303.00    2.13692   1.17870    0.012
 4304.00    1.74999   1.17672    0.012
 4305.00    1.45578   1.17153    0.011
 4306.00    1.23165   1.16668    0.011
 4307.00    1.37620   1.16418    0.011
 4308.00    1.76560   1.16169    0.012
 4309.00    1.68413   1.15850    0.012
 4310.00    1.32884   1.15803    0.011
 4311.00    1.40672   1.16098    0.011
 4312.00    1.70414   1.16290    0.011
 4313.00    1.81349   1.16069    0.011
 4314.00    1.84031   1.15678    0.011
 4315.00    1.61390   1.15564    0.011
 4316.00    1.29210   1.15848    0.011
 4317.00    1.33238   1.16240    0.011
 4318.00    1.48842   1.16381    0.011
 4319.00    1.65922   1.16216    0.011
 4320.00    1.83397   1.16058    0.011
 4321.00    1.62016   1.16191    0.011
 4322.00    1.32133   1.16504    0.011
 4323.00    1.36304   1.16697    0.012
 4324.00    1.46399   1.16622    0.012
 4325.00    0.81370   1.16344    0.011
 4326.00    0.06404   1.16096    0.011
 4327.00    0.70120   1.16053    0.011
 4328.00    1.46795   1.16016    0.011
 4329.00    1.57827   1.15563    0.012
 4330.00    1.65104   1.14499    0.000
 4331.00    1.83791   1.13123    0.000
 4332.00    2.02353   1.12130    0.000
 4333.00    1.75909   1.11931    0.000
 4334.00    1.51417   1.12128    0.000
 4335.00    1.73803   1.12019    0.000
 4336.00    1.93027   1.11290    0.000
 4337.00    1.71095   1.10011    0.000
 4338.00    1.51209   1.08369    0.000
 4339.00    1.49196   1.06523    0.000
 4340.00    1.43619   1.04417    0.000
 4341.00    1.15021   1.01628    0.000
 4342.00    0.98481   0.97554    0.000
 4343.00    1.42771   0.91876    0.000
 4344.00    1.73151   0.84787    0.000
 4345.00    1.46759   0.77197    0.000
 4346.00    1.35304   0.71434    0.000
 4347.00    1.74386   0.70621    0.000
 4348.00    2.01706   0.75495    0.000
 4349.00    1.95466   0.83132    0.000
 4350.00    1.80306   0.90148    0.000
 4351.00    1.43401   0.95406    0.033
 4352.00    1.21652   0.99287   -1.000
 4353.00    1.31786   1.02280   -1.000
 4354.00    1.54957   1.04634   -1.000
 4355.00    2.01961   1.06397   -1.000
 4356.00    2.26626   1.07527   -1.000
 4357.00    2.15600   1.08204   -1.000
 4358.00    1.90665   1.08969   -1.000
 4359.00    1.46229   1.10251   -1.000
 4360.00    1.11415   1.11859   -1.000
 4361.00    0.88473   1.13315   -1.000
 4362.00    1.20757   1.14387   -1.000
 4363.00    2.13103   1.15036   -1.000
 4364.00    2.43495   1.15317    0.042
 4365.00    2.14457   1.15431    0.014
 4366.00    1.74250   1.15600    0.011
 4367.00    1.24598   1.15894    0.011
 4368.00    1.07345   1.16279    0.011
 4369.00    1.14226   1.16680    0.011
 4370.00    1.20644   1.16957    0.011
 4371.00    1.26759   1.16968    0.011
 4372.00    1.23766   1.16652    0.011
 4373.00    1.15557   1.16194    0.011
 4374.00    1.12927   1.15976    0.011
 4375.00    1.13079   1.16128    0.011
 4376.00    1.42212   1.16390    0.011
 4377.00    1.83849   1.16477    0.011
 4378.00    1.87897   1.16346    0.011
 4379.00    1.78034   1.16119    0.011
 4380.00    1.53213   1.15905    0.011
 4381.00    1.23700   1.15837    0.011
 4382.00    1.20741   1.16101    0.011
 4383.00    1.24729   1.16647    0.011
 4384.00    1.48710   1.17129    0.010
 4385.00    1.76963   1.17319    0.010
 4386.00    1.68637   1.17272    0.010
 4387.00    1.54125   1.16969    0.010
 4388.00    1.19356   1.16192    0.010
 4389.00    0.82000   1.14989    0.010
 4390.00    0.95102   1.13861    0.010
 4391.00    1.12707   1.13067    0.010
 4392.00    1.45955   1.11994    0.010
 4393.00    1.80036   1.10154    0.010
 4394.00    1.94805   1.08781    0.010
 4395.00    2.08838   1.09597    0.010
 4396.00    1.93684   1.12142    0.010
 4397.00    1.76344   1.14581    0.010
 4398.00    1.10964   1.16071    0.010
 4399.00    0.52021   1.16690    0.010
 4400.00    0.72615   1.16627    0.010
 4401.00    0.90523   1.16293    0.010
 4402.00    0.85847   1.16312    0.010
 4403.00    0.84299   1.16878    0.010
 4404.00    1.02358   1.17464    0.010
 4405.00    1.23584   1.17536    0.010
 4406.00    1.60381   1.17198    0.010
 4407.00    1.92029   1.16940    0.010
 4408.00    2.03121   1.16944    0.011
 4409.00    1.97426   1.16838    0.011
 4410.00    1.36062   1.16336    0.010
 4411.00    0.99411   1.15804    0.010
 4412.00    1.31995   1.15728    0.010
 4413.00    1.45146   1.16002    0.010
 4414.00    1.11723   1.16276    0.010
 4415.00    0.80400   1.16510    0.010
 4416.00    0.53424   1.16759    0.010
 4417.00    0.49209   1.16968    0.010
 4418.00    0.85969   1.17094    0.010
 4419.00    1.08215   1.16863    0.010
 4420.00    1.07614   1.15919    0.010
 4421.00    1.27034   1.14665    0.010
 4422.00    1.74121   1.13986    0.010
 4423.00    2.00982   1.14213    0.010
 4424.00    2.03240   1.15053    0.011
 4425.00    1.88548   1.16043    0.010
 4426.00    1.55681   1.16778    0.010
 4427.00    1.40285   1.17072    0.010
 4428.00    1.41414   1.16989    0.010
 4429.00    1.64973   1.16844    0.010
 4430.00    2.07237   1.16876    0.010
 4431.00    2.13106   1.16929    0.010
 4432.00    1.92256   1.16768    0.011
 4433.00    1.69922   1.16495    0.011
 4434.00    1.46632   1.16382    0.011
 4435.00    1.67837   1.16403    0.011
 4436.00    2.14138   1.16304    0.011
 4437.00    2.24191   1.16120    0.011
 4438.00    2.16447   1.16034    0.011
 4439.00    1.92113   1.15935    0.011
 4440.00    1.60738   1.15636    0.011
 4441.00    1.42962   1.15187    0.011
 4442.00    1.30130   1.14737    0.011
 4443.00    1.55052   1.14534    0.011
 4444.00    1.91584   1.14936    0.011
 4445.00    1.73527   1.15844    0.011
 4446.00    1.41493   1.16502    0.011
 4447.00    1.31078   1.16378    0.011
 4448.00    1.25169   1.15768    0.011
 4449.00    1.16422   1.15342    0.011
 4450.00    1.07210   1.15475    0.010
 4451.00    1.58666   1.15958    0.010
 4452.00    2.17600   1.16233    0.010
 4453.00    1.75204   1.16105    0.010
 4454.00    1.24188   1.15944    0.010
 4455.00    1.59773   1.16030    0.010
 4456.00    1.99632   1.16189    0.010
 4457.00    1.73761   1.16221    0.010
 4458.00    1.47672   1.16126    0.010
 4459.00    1.73588   1.15944    0.010
 4460.00    1.97448   1.15653    0.010
 4461.00    1.79653   1.15323    0.000
 4462.00    1.60585   1.15192    0.000
 4463.00    1.26555   1.15297    0.000
 4464.00    0.94802   1.15420    0.000
 4465.00    0.81518   1.15415    0.000
 4466.00    0.75185   1.15305    0.000
 4467.00    1.11154   1.15127    0.000
 4468.00    1.37250   1.14977    0.000
 4469.00    1.15982   1.15037    0.000
 4470.00    0.97923   1.15236    0.000
 4471.00    0.92394   1.15254    0.000
 4472.00    1.00370   1.14920    0.000
 4473.00    1.52253   1.14258    0.000
 4474.00    1.90896   1.13122    0.000
 4475.00    1.93112   1.11013    0.000
 4476.00    1.88860   1.07470    0.000
 4477.00    1.69368   1.03590    0.000
 4478.00    1.54958   1.02404    0.000
 4479.00    1.50898   1.05374    0.000
 4480.00    1.50715   1.10112    0.000
 4481.00    1.57409   1.13627    0.000
 4482.00    1.61744   1.15340    0.010
 4483.00    1.62423   1.16032    0.010
 4484.00    1.57878   1.16065    0.010
 4485.00    1.46218   1.15211    0.010
 4486.00    1.47334   1.13418    0.010
 4487.00    1.63772   1.11674    0.010
 4488.00    1.46815   1.11467    0.010
 4489.00    0.94553   1.12983    0.010
 4490.00    0.74111   1.14920    0.010
 4491.00    0.83341   1.16211    0.010
 4492.00    0.90900   1.16704    0.010
 4493.00    0.97083   1.16608    0.010
 4494.00    1.08107   1.16118    0.010
 4495.00    1.22634   1.15543    0.010
 4496.00    1.34445   1.15236    0.010
 4497.00    1.44529   1.15338    0.010
 4498.00    1.50424   1.15669    0.010
 4499.00    1.53990   1.15887    0.010
 4500.00    1.67344   1.15798    0.010
 4501.00    1.85426   1.15537    0.010
 4502.00    1.60148   1.15380    0.010
 4503.00    1.16780   1.15461    0.010
 4504.00    0.99381   1.15727    0.010
 4505.00    0.91249   1.15992    0.009
 4506.00    1.10577   1.16032    0.010
 4507.00    1.38184   1.15860    0.010
 4508.00    1.52954   1.15826    0.010
 4509.00    1.64509   1.16177    0.010
 4510.00    1.59951   1.16682    0.010
 4511.00    1.52119   1.16926    0.009
 4512.00    1.16040   1.16775    0.009
 4513.00    0.75455   1.16410    0.010
 4514.00    0.92859   1.16106    0.009
 4515.00    1.17154   1.16004    0.009
 4516.00    1.12098   1.16002    0.009
 4517.00    1.04668   1.15883    0.009
 4518.00    1.20867   1.15566    0.009
 4519.00    1.38140   1.15166    0.009
 4520.00    1.45228   1.14812    0.009
 4521.00    1.51465   1.14623    0.009
 4522.00    1.20640   1.14713    0.009
 4523.00    0.91995   1.14972    0.009
 4524.00    1.04270   1.15180    0.009
 4525.00    1.16413   1.15330    0.009
 4526.00    1.27087   1.15499    0.009
 4527.00    1.35233   1.15576    0.009
 4528.00    1.23596   1.15356    0.009
 4529.00    1.15639   1.14888    0.009
 4530.00    1.29439   1.14480    0.009
 4531.00    1.39528   1.14302    0.009
 4532.00    1.32248   1.14211    0.009
 4533.00    1.30128   1.13950    0.009
 4534.00    1.47727   1.13415    0.009
 4535.00    1.59085   1.12859    0.009
 4536.00    1.50547   1.12719    0.009
 4537.00    1.42489   1.13111    0.009
 4538.00    1.35730   1.13645    0.009
 4539.00    1.29343   1.13797    0.009
 4540.00    1.23820   1.13465    0.009
 4541.00    1.22252   1.13127    0.009
 4542.00    1.28612   1.13296    0.009
 4543.00    1.25534   1.13874    0.009
 4544.00    1.05978   1.14213    0.009
 4545.00    1.03556   1.13742    0.009
 4546.00    1.27317   1.12445    0.009
 4547.00    1.41846   1.10987    0.009
 4548.00    1.43981   1.10376    0.009
 4549.00    1.39800   1.10985    0.009
 4550.00    1.28152   1.12145    0.000
 4551.00    1.17497   1.13080    0.000
 4552.00    1.07878   1.13658    0.000
 4553.00    1.15226   1.13974    0.000
 4554.00    1.38173   1.13945    0.000
 4555.00    1.43759   1.13611    0.000
 4556.00    1.35276   1.13319    0.000
 4557.00    1.41190   1.13201    0.000
 4558.00    1.57372   1.12957    0.000
 4559.00    1.56751   1.12611    0.000
 4560.00    1.45615   1.12595    0.000
 4561.00    1.22164   1.12942    0.000
 4562.00    0.91977   1.13419    0.000
 4563.00    1.09290   1.13990    0.000
 4564.00    1.49184   1.14558    0.000
 4565.00    1.59252   1.14943    0.000
 4566.00    1.57087   1.15168    0.000
 4567.00    1.48183   1.15299    0.000
 4568.00    1.36916   1.15247    0.000
 4569.00    1.19754   1.14910    0.000
 4570.00    1.00849   1.14421    0.000
 4571.00    1.15712   1.14090    0.000
 4572.00    1.38847   1.14010    0.000
 4573.00    1.31678   1.13987    0.000
 4574.00    1.18503   1.13965    0.000
 4575.00    1.31055   1.14073    0.000
 4576.00    1.47590   1.14231    0.000
 4577.00    1.12198   1.14194    0.000
 4578.00    0.70863   1.14038    0.000
 4579.00    0.75585   1.14026    0.000
 4580.00    0.83843   1.14103    0.000
 4581.00    0.94356   1.14114    0.000
 4582.00    1.04963   1.14201    0.000
 4583.00    1.13087   1.14419    0.000
 4584.00    1.20660   1.14494    0.000
 4585.00    1.05549   1.14268    0.000
 4586.00    0.91114   1.13931    0.000
 4587.00    0.88507   1.13745    0.000
 4588.00    0.86875   1.13734    0.000
 4589.00    0.95680   1.13722    0.000
 4590.00    1.02689   1.13631    0.000
 4591.00    0.96126   1.13596    0.000
 4592.00    0.94293   1.13706    0.000
 4593.00    1.19644   1.13863    0.000
 4594.00    1.40239   1.13968    0.000
 4595.00    1.39107   1.13951    0.000
 4596.00    1.32327   1.13702    0.000
 4597.00    1.04417   1.13280    0.000
 4598.00    0.92505   1.13048    0.000
 4599.00    1.30625   1.13184    0.000
 4600.00    1.49314   1.13367    0.000
 4601.00    1.16425   1.13249    0.000
 4602.00    0.99380   1.12963    0.000
 4603.00    1.18442   1.12950    0.000
 4604.00    1.24600   1.13338    0.000
 4605.00    1.05297   1.13741    0.000
 4606.00    0.94834   1.13748    0.000
 4607.00    0.99568   1.13368    0.000
 4608.00    1.10753   1.12996    0.000
 4609.00    1.31653   1.13010    0.000
 4610.00    1.43846   1.13329    0.000
 4611.00    1.44519   1.13587    0.000
 4612.00    1.43512   1.13617    0.000
 4613.00    1.40548   1.13588    0.000
 4614.00    1.36153   1.13676    0.000
 4615.00    1.30289   1.13837    0.000
 4616.00    1.33249   1.13949    0.000
 4617.00    1.44209   1.13999    0.000
 4618.00    1.46520   1.13993    0.000
 4619.00    1.41921   1.13917    0.000
 4620.00    1.36960   1.13856    0.000
 4621.00    1.31745   1.13928    0.000
 4622.00    1.20716   1.14052    0.000
 4623.00    1.06102   1.13996    0.000
 4624.00    0.95748   1.13625    0.000
 4625.00    0.87689   1.13067    0.000
 4626.00    0.80178   1.12750    0.000
 4627.00    0.72924   1.12942    0.000
 4628.00    0.96139   1.13418    0.000
 4629.00    1.31638   1.13857    0.000
 4630.00    1.47656   1.14140    0.000
 4631.00    1.56972   1.14219    0.000
 4632.00    1.65345   1.14126    0.000
 4633.00    1.73444   1.13958    0.000
 4634.00    1.49478   1.13702    0.000
 4635.00    1.17831   1.13264    0.000
 4636.00    1.27438   1.12749    0.000
 4637.00    1.45013   1.12495    0.000
 4638.00    1.48127   1.12649    0.000
 4639.00    1.49071   1.12917    0.000
 4640.00    1.22072   1.12995    0.000
 4641.00    0.91997   1.12973    0.000
 4642.00    1.13178   1.13002    0.000
 4643.00    1.38086   1.12903    0.000
 4644.00    1.03770   1.12463    0.000
 4645.00    0.67215   1.11850    0.000
 4646.00    0.89976   1.11387    0.000
 4647.00    1.12566   1.11175    0.000
 4648.00    1.17627   1.11203    0.000
 4649.00    1.22165   1.11531    0.000
 4650.00    1.18176   1.12038    0.000
 4651.00    1.15226   1.12244    0.000
 4652.00    1.22911   1.11674    0.000
 4653.00    1.27083   1.10433    0.000
 4654.00    1.05586   1.09203    0.000
 4655.00    0.90461   1.08482    0.000
 4656.00    1.10963   1.08284    0.000
 4657.00    1.22768   1.08655    0.000
 4658.00    0.95770   1.09677    0.000
 4659.00    0.78237   1.10912    0.000
 4660.00    0.95374   1.11662    0.000
 4661.00    1.08847   1.11826    0.000
 4662.00    1.11080   1.11891    0.000
 4663.00    1.17497   1.12198    0.000
 4664.00    1.34823   1.12719    0.000
 4665.00    1.47068   1.13263    0.000
 4666.00    1.47925   1.13532    0.000
 4667.00    1.40721   1.13297    0.000
 4668.00    1.17864   1.12725    0.000
 4669.00    1.04558   1.12264    0.000
 4670.00    1.07427   1.12103    0.000
 4671.00    1.02111   1.12023    0.000
 4672.00    0.84653   1.11746    0.000
 4673.00    0.80998   1.11261    0.000
 4674.00    0.95348   1.10872    0.000
 4675.00    1.14269   1.10906    0.000
 4676.00    1.38441   1.11397    0.000
 4677.00    1.50292   1.12048    0.000
 4678.00    1.49657   1.12429    0.000
 4679.00    1.53994   1.12324    0.000
 4680.00    1.62774   1.11953    0.000
 4681.00    1.65680   1.11682    0.000
 4682.00    1.63961   1.11648    0.000
 4683.00    1.55231   1.11788    0.000
 4684.00    1.41645   1.11977    0.000
 4685.00    1.27736   1.12052    0.000
 4686.00    1.13632   1.11927    0.000
 4687.00    0.86116   1.11662    0.000
 4688.00    0.51490   1.11329    0.000
 4689.00    0.48588   1.10796    0.000
 4690.00    0.60284   1.09677    0.000
 4691.00    0.76478   1.07885    0.000
 4692.00    0.94454   1.06372    0.000
 4693.00    1.02360   1.06436    0.000
 4694.00    1.06866   1.08063    0.000
 4695.00    1.28780   1.09946    0.000
 4696.00    1.55635   1.11096    0.000
 4697.00    1.47234   1.11524    0.000
 4698.00    1.30579   1.11676    0.000
 4699.00    1.11333   1.11846    0.000
 4700.00    0.91599   1.12070    0.000
 4701.00    0.75894   1.12296    0.000
 4702.00    0.60775   1.12441    0.000
 4703.00    0.69309   1.12314    0.000
 4704.00    0.80343   1.11762    0.000
 4705.00    0.78556   1.11009    0.000
 4706.00    0.75888   1.10564    0.000
 4707.00    0.95443   1.10596    0.000
 4708.00    1.15753   1.10763    0.000
 4709.00    1.16995   1.10772    0.000
 4710.00    1.18577   1.10676    0.000
 4711.00    1.32201   1.10621    0.000
 4712.00    1.44074   1.10658    0.000
 4713.00    1.29089   1.10767    0.000
 4714.00    1.16987   1.10852    0.000
 4715.00    1.33148   1.10842    0.000
 4716.00    1.47253   1.10791    0.000
 4717.00    1.46821   1.10584    0.000
 4718.00    1.42343   1.09682    0.000
 4719.00    1.15855   1.08112    0.000
 4720.00    0.92128   1.07160    0.000
 4721.00    0.80430   1.07842    0.000
 4722.00    0.74800   1.09444    0.000
 4723.00    0.90932   1.10759    0.000
 4724.00    1.03692   1.11491    0.000
 4725.00    1.06300   1.11918    0.000
 4726.00    1.10342   1.12186    0.000
 4727.00    1.18057   1.12303    0.000
 4728.00    1.23099   1.12270    0.000
 4729.00    1.22245   1.12197    0.000
 4730.00    1.13773   1.12220    0.000
 4731.00    0.90737   1.12298    0.000
 4732.00    0.75304   1.12211    0.000
 4733.00    0.72553   1.11798    0.000
 4734.00    0.81089   1.11188    0.000
 4735.00    1.06126   1.10708    0.000
 4736.00    1.16277   1.10537    0.000
 4737.00    1.07289   1.10603    0.000
 4738.00    0.99112   1.10795    0.000
 4739.00    0.91855   1.11059    0.000
 4740.00    0.85176   1.11327    0.000
 4741.00    0.79077   1.11503    0.000
 4742.00    0.83855   1.11492    0.000
 4743.00    0.98219   1.11338    0.000
 4744.00    1.03676   1.11249    0.000
 4745.00    1.02220   1.11305    0.000
 4746.00    1.04883   1.11340    0.000
 4747.00    1.10358   1.11237    0.000
 4748.00    1.20811   1.11123    0.000
 4749.00    1.34244   1.11172    0.000
 4750.00    1.25251   1.11340    0.000
 4751.00    1.04553   1.11471    0.000
 4752.00    1.03207   1.11544    0.000
 4753.00    1.10622   1.11616    0.000
 4754.00    1.18289   1.11660    0.000
 4755.00    1.26054   1.11648    0.000
 4756.00    1.20201   1.11614    0.000
 4757.00    1.09835   1.11551    0.000
 4758.00    1.22856   1.11428    0.000
 4759.00    1.42379   1.11275    0.000
 4760.00    1.30440   1.11130    0.000
 4761.00    1.11306   1.10999    0.008
 4762.00    1.01505   1.10874    0.008
 4763.00    0.93414   1.10770    0.008
 4764.00    0.99768   1.10738    0.008
 4765.00    1.08157   1.10788    0.008
 4766.00    1.03370   1.10839    0.008
 4767.00    0.97246   1.10760    0.008
 4768.00    1.21988   1.10480    0.008
 4769.00    1.48726   1.10082    0.008
 4770.00    1.23878   1.09723    0.008
 4771.00    0.97499   1.09498    0.008
 4772.00    0.85362   1.09436    0.008
 4773.00    0.74131   1.09530    0.008
 4774.00    0.89141   1.09755    0.008
 4775.00    1.03647   1.10058    0.008
 4776.00    1.10870   1.10304    0.008
 4777.00    1.16736   1.10335    0.008
 4778.00    1.09843   1.10176    0.008
 4779.00    1.00425   1.10051    0.008
 4780.00    0.73715   1.10121    0.008
 4781.00    0.55758   1.10315    0.008
 4782.00    0.84171   1.10465    0.008
 4783.00    1.05534   1.10491    0.008
 4784.00    0.96870   1.10390    0.008
 4785.00    0.90459   1.10182    0.008
 4786.00    0.91960   1.09959    0.008
 4787.00    0.91126   1.09821    0.008
 4788.00    0.83389   1.09760    0.008
 4789.00    0.80305   1.09685    0.008
 4790.00    0.88940   1.09597    0.008
 4791.00    0.90715   1.09546    0.008
 4792.00    0.77614   1.09501    0.008
 4793.00    0.79721   1.09427    0.008
 4794.00    1.10452   1.09374    0.008
 4795.00    1.28325   1.09373    0.008
 4796.00    1.25069   1.09417    0.008
 4797.00    1.23513   1.09502    0.008
 4798.00    1.24406   1.09630    0.008
 4799.00    1.20802   1.09838    0.008
 4800.00    1.11499   1.10151    0.008
 4801.00    1.02556   1.10465    0.008
 4802.00    0.94015   1.10619    0.008
 4803.00    1.01350   1.10543    0.008
 4804.00    1.24325   1.10276    0.008
 4805.00    1.32576   1.09918    0.008
 4806.00    1.28036   1.09624    0.008
 4807.00    1.22126   1.09538    0.008
 4808.00    1.15167   1.09641    0.008
 4809.00    1.14435   1.09748    0.008
 4810.00    1.17893   1.09722    0.008
 4811.00    1.21580   1.09575    0.008
 4812.00    1.25403   1.09408    0.008
 4813.00    1.21517   1.09316    0.008
 4814.00    1.13670   1.09292    0.008
 4815.00    1.03309   1.09275    0.008
 4816.00    0.91830   1.09256    0.008
 4817.00    0.97503   1.09224    0.008
 4818.00    1.09740   1.09106    0.008
 4819.00    0.98217   1.08897    0.008
 4820.00    0.78971   1.08727    0.008
 4821.00    0.72825   1.08696    0.008
 4822.00    0.70245   1.08813    0.008
 4823.00    0.77635   1.09043    0.008
 4824.00    0.87252   1.09253    0.008
 4825.00    0.77181   1.09240    0.008
 4826.00    0.63602   1.09031    0.008
 4827.00    0.85678   1.08896    0.008
 4828.00    1.12613   1.08880    0.008
 4829.00    1.12509   1.08689    0.008
 4830.00    1.09779   1.08280    0.008
 4831.00    1.05576   1.08029    0.008
 4832.00    1.01284   1.08126    0.008
 4833.00    1.20721   1.08291    0.008
 4834.00    1.40555   1.08194    0.008
 4835.00    1.18459   1.07877    0.008
 4836.00    0.96652   1.07665    0.008
 4837.00    0.82410   1.07684    0.008
 4838.00    0.71637   1.07727    0.008
 4839.00    1.08233   1.07685    0.008
 4840.00    1.40604   1.07684    0.008
 4841.00    1.34780   1.07745    0.008
 4842.00    1.28260   1.07750    0.008
 4843.00    1.17115   1.07640    0.008
 4844.00    1.07706   1.07432    0.008
 4845.00    1.07258   1.07124    0.008
 4846.00    1.05539   1.06736    0.008
 4847.00    0.98531   1.06375    0.008
 4848.00    0.89606   1.06104    0.000
 4849.00    0.74084   1.05854    0.000
 4850.00    0.65385   1.05600    0.000
 4851.00    0.76475   1.05420    0.000
 4852.00    0.86875   1.05246    0.000
 4853.00    0.95564   1.04850    0.000
 4854.00    0.99795   1.04137    0.000
 4855.00    0.94516   1.03285    0.000
 4856.00    0.93664   1.02528    0.000
 4857.00    1.01015   1.01842    0.000
 4858.00    1.01686   1.00990    0.000
 4859.00    0.91543   0.99822    0.000
 4860.00    0.88786   0.98266    0.000
 4861.00    0.96519   0.96212    0.000
 4862.00    1.05088   0.93705    0.000
 4863.00    1.14703   0.90863    0.000
 4864.00    1.04610   0.87407    0.000
 4865.00    0.72815   0.82746    0.000
 4866.00    0.69247   0.76743    0.000
 4867.00    0.93094   0.70577    0.000
 4868.00    1.03331   0.66935    0.000
 4869.00    1.01913   0.68063    0.000
 4870.00    1.01548   0.73256    0.000
 4871.00    1.01979   0.79660    0.000
 4872.00    0.92659   0.85187    0.000
 4873.00    0.76876   0.89390    0.000
 4874.00    0.75891   0.92542    0.000
 4875.00    0.83496   0.94976    0.008
 4876.00    1.14680   0.96819    0.008
 4877.00    1.57790   0.98044    0.008
 4878.00    1.63481   0.98869    0.008
 4879.00    1.52787   0.99748    0.008
 4880.00    1.32036   1.00832    0.008
 4881.00    1.07506   1.01873    0.008
 4882.00    0.90196   1.02700    0.012
 4883.00    0.75190   1.03405    0.071
 4884.00    0.70411   1.04080   -1.000
 4885.00    0.68358   1.04691   -1.000
 4886.00    0.81281   1.05154   -1.000
 4887.00    0.97472   1.05371   -1.000
 4888.00    0.95914   1.05389   -1.000
 4889.00    0.91279   1.05422   -1.000
 4890.00    0.88456   1.05535   -1.000
 4891.00    0.85873   1.05608   -1.000
 4892.00    0.96969   1.05605   -1.000
 4893.00    1.09336   1.05657   -1.000
 4894.00    1.05752   1.05830    0.016
 4895.00    1.01263   1.05982    0.008
 4896.00    1.05637   1.05903    0.008
 4897.00    1.10093   1.05612    0.008
 4898.00    1.01463   1.05488    0.008
 4899.00    0.92925   1.05901    0.008
 4900.00    0.86562   1.06715    0.008
 4901.00    0.81250   1.07529    0.008
 4902.00    0.89513   1.08131    0.008
 4903.00    0.97967   1.08446    0.008
 4904.00    1.08075   1.08469    0.008
 4905.00    1.18832   1.08253    0.008
 4906.00    1.33759   1.07900    0.008
 4907.00    1.45531   1.07607    0.008
 4908.00    1.41443   1.07485    0.008
 4909.00    1.34296   1.07430    0.008
 4910.00    1.14699   1.07377    0.008
 4911.00    1.03370   1.07427    0.008
 4912.00    1.19940   1.07608    0.008
 4913.00    1.26673   1.07761    0.008
 4914.00    1.05401   1.07750    0.008
 4915.00    0.88093   1.07561    0.008
 4916.00    0.80425   1.07281    0.008
 4917.00    0.72084   1.07067    0.008
 4918.00    0.62328   1.07047    0.008
 4919.00    0.69495   1.07207    0.008
 4920.00    1.07538   1.07427    0.008
 4921.00    1.20931   1.07628    0.008
 4922.00    0.95013   1.07730    0.008
 4923.00    0.85281   1.07565    0.008
 4924.00    0.98202   1.06966    0.008
 4925.00    0.95896   1.05828    0.008
 4926.00    0.74836   1.04095    0.008
 4927.00    0.79633   1.01827    0.008
 4928.00    1.12500   0.99651    0.008
 4929.00    1.19693   0.98841    0.008
 4930.00    1.02302   0.99926    0.008
 4931.00    1.04221   1.02026    0.008
 4932.00    1.22447   1.04067    0.008
 4933.00    1.07637   1.05737    0.008
 4934.00    0.68264   1.06976    0.008
 4935.00    0.63826   1.07727    0.008
 4936.00    0.82207   1.08112    0.008
 4937.00    0.97342   1.08248    0.008
 4938.00    1.10620   1.08119    0.008
 4939.00    1.09514   1.07695    0.008
 4940.00    1.01247   1.07149    0.000
 4941.00    1.00005   1.06835    0.000
 4942.00    1.01787   1.06871    0.000
 4943.00    0.95435   1.06923    0.000
 4944.00    0.86081   1.06656    0.000
 4945.00    0.86073   1.06194    0.000
 4946.00    0.88988   1.05919    0.000
 4947.00    0.93357   1.06001    0.000
 4948.00    0.98105   1.06280    0.000
 4949.00    1.06623   1.06553    0.000
 4950.00    1.15944   1.06835    0.000
 4951.00    1.17736   1.07162    0.000
 4952.00    1.18259   1.07418    0.000
 4953.00    1.04091   1.07551    0.000
 4954.00    0.88054   1.07640    0.000
 4955.00    0.91943   1.07741    0.000
 4956.00    0.97599   1.07854    0.000
 4957.00    0.90340   1.07955    0.000
 4958.00    0.82399   1.07953    0.000
 4959.00    0.95655   1.07768    0.000
 4960.00    1.09217   1.07460    0.000
 4961.00    1.15034   1.07117    0.000
 4962.00    1.20374   1.06646    0.000
 4963.00    1.15352   1.05928    0.000
 4964.00    1.09158   1.05182    0.000
 4965.00    0.88572   1.04951    0.000
 4966.00    0.72186   1.05466    0.000
 4967.00    0.90968   1.06251    0.000
 4968.00    1.05522   1.06736    0.000
 4969.00    0.93678   1.06847    0.000
 4970.00    0.86045   1.06753    0.000
 4971.00    0.99052   1.06505    0.000
 4972.00    1.12326   1.06146    0.000
 4973.00    1.26659   1.05839    0.000
 4974.00    1.35288   1.05708    0.000
 4975.00    1.25045   1.05734    0.000
 4976.00    1.12597   1.05873    0.000
 4977.00    0.93982   1.06095    0.000
 4978.00    0.86822   1.06337    0.000
 4979.00    1.07061   1.06548    0.000
 4980.00    1.15117   1.06713    0.000
 4981.00    0.98007   1.06816    0.000
 4982.00    0.88087   1.06815    0.000
 4983.00    0.91081   1.06673    0.000
 4984.00    0.93450   1.06417    0.000
 4985.00    0.94836   1.06124    0.000
 4986.00    0.97425   1.05845    0.000
 4987.00    1.01672   1.05520    0.000
 4988.00    1.02907   1.05019    0.000
 4989.00    1.00484   1.04403    0.000
 4990.00    1.06891   1.03983    0.000
 4991.00    1.22748   1.03990    0.000
 4992.00    1.27356   1.04351    0.000
 4993.00    1.21343   1.04861    0.000
 4994.00    1.15991   1.05349    0.000
 4995.00    1.11190   1.05657    0.000
 4996.00    1.08088   1.05677    0.000
 4997.00    1.06230   1.05459    0.000
 4998.00    1.06628   1.05193    0.000
 4999.00    1.08479   1.05066    0.000
 5000.00    1.17539   1.05094    0.000
 5001.00    1.30659   1.05209    0.000
 5002.00    1.39869   1.05399    0.000
 5003.00    1.47164   1.05608    0.000
 5004.00    1.41277   1.05677    0.000
 5005.00    1.29809   1.05451    0.000
 5006.00    1.59932   1.04876    0.000
 5007.00    2.05136   1.04096    0.000
 5008.00    1.84816   1.03474    0.000
 5009.00    1.44397   1.03309    0.000
 5010.00    1.30175   1.03472    0.000
 5011.00    1.22641   1.03526    0.000
 5012.00    1.09016   1.03293    0.000
 5013.00    0.94124   1.03084    0.000
 5014.00    0.84375   1.03233    0.000
 5015.00    0.75467   1.03667    0.000
 5016.00    0.88131   1.04045    0.000
 5017.00    1.03442   1.04151    0.000
 5018.00    1.10385   1.03979    0.000
 5019.00    1.16620   1.03496    0.000
 5020.00    1.11792   1.02518    0.000
 5021.00    1.06423   1.00990    0.000
 5022.00    0.94168   0.99486    0.000
 5023.00    0.82056   0.99053    0.000
 5024.00    0.85086   1.00000    0.000
 5025.00    0.88526   1.01457    0.000
 5026.00    1.00177   1.02566    0.000
 5027.00    1.10453   1.03214    0.000
 5028.00    1.04668   1.03539    0.000
 5029.00    1.01610   1.03658    0.007
 5030.00    1.20561   1.03784    0.007
 5031.00    1.38070   1.04006    0.008
 5032.00    1.46836   1.04153    0.008
 5033.00    1.46085   1.04080    0.008
 5034.00    0.99819   1.03891    0.008
 5035.00    0.69821   1.03832    0.008
 5036.00    1.03181   1.03999    0.008
 5037.00    1.24709   1.04243    0.008
 5038.00    1.07863   1.04431    0.008
 5039.00    0.94907   1.04603    0.008
 5040.00    0.92627   1.04751    0.008
 5041.00    0.90005   1.04687    0.008
 5042.00    0.86577   1.04316    0.007
 5043.00    0.84980   1.03878    0.007
 5044.00    0.87105   1.03629    0.007
 5045.00    0.93485   1.03403    0.007
 5046.00    1.07396   1.02823    0.007
 5047.00    1.08736   1.01920    0.008
 5048.00    0.90613   1.01319    0.007
 5049.00    0.76414   1.01589    0.007
 5050.00    0.67551   1.02544    0.007
 5051.00    0.75458   1.03480    0.007
 5052.00    1.03440   1.03919    0.007
 5053.00    1.07810   1.03746    0.007
 5054.00    0.87262   1.03112    0.007
 5055.00    0.92471   1.02510    0.007
 5056.00    1.21657   1.02418    0.008
 5057.00    1.18615   1.02760    0.008
 5058.00    0.89125   1.03142    0.007
 5059.00    0.89283   1.03425    0.007
 5060.00    1.10854   1.03626    0.007
 5061.00    1.08038   1.03595    0.007
 5062.00    0.89758   1.03252    0.007
 5063.00    0.85876   1.02953    0.007
 5064.00    0.89975   1.03135    0.007
 5065.00    1.02251   1.03716    0.007
 5066.00    1.18469   1.04254    0.007
 5067.00    1.18543   1.04541    0.007
 5068.00    1.11896   1.04644    0.007
 5069.00    1.07587   1.04557    0.007
 5070.00    1.04109   1.04181    0.007
 5071.00    0.92255   1.03603    0.007
 5072.00    0.77882   1.03144    0.007
 5073.00    0.78152   1.03017    0.007
 5074.00    0.82080   1.03091    0.007
 5075.00    0.88386   1.03151    0.007
 5076.00    0.95174   1.03180    0.007
 5077.00    0.97149   1.03218    0.007
 5078.00    0.98358   1.03197    0.007
 5079.00    0.84940   1.03088    0.007
 5080.00    0.69792   1.03004    0.007
 5081.00    0.78097   1.03012    0.007
 5082.00    0.88288   1.03052    0.007
 5083.00    0.75148   1.03086    0.007
 5084.00    0.60958   1.03084    0.007
 5085.00    0.79922   1.02908    0.007
 5086.00    0.98960   1.02490    0.007
 5087.00    1.02143   1.02061    0.007
 5088.00    1.05066   1.01904    0.007
 5089.00    1.03173   1.02022    0.007
 5090.00    1.00989   1.02254    0.007
 5091.00    0.95567   1.02501    0.007
 5092.00    0.89827   1.02716    0.007
 5093.00    0.81614   1.02858    0.007
 5094.00    0.75659   1.02946    0.007
 5095.00    0.83008   1.03036    0.007
 5096.00    0.86798   1.03124    0.007
 5097.00    0.73978   1.03157    0.007
 5098.00    0.66772   1.03167    0.007
 5099.00    0.80967   1.03247    0.007
 5100.00    0.91220   1.03386    0.007
 5101.00    0.88935   1.03425    0.007
 5102.00    0.82695   1.03240    0.007
 5103.00    0.65794   1.02878    0.007
 5104.00    0.58150   1.02459    0.007
 5105.00    0.71910   1.02061    0.007
 5106.00    0.80750   1.01767    0.007
 5107.00    0.79746   1.01699    0.007
 5108.00    0.81007   1.01867    0.007
 5109.00    0.86216   1.02102    0.007
 5110.00    0.91419   1.02230    0.007
 5111.00    0.96613   1.02241    0.007
 5112.00    0.97470   1.02203    0.007
 5113.00    0.92514   1.02106    0.007
 5114.00    0.95327   1.01934    0.007
 5115.00    1.07310   1.01771    0.007
 5116.00    1.07533   1.01697    0.007
 5117.00    0.95519   1.01729    0.007
 5118.00    0.91938   1.01871    0.007
 5119.00    0.96096   1.02057    0.007
 5120.00    0.94214   1.02182    0.007
 5121.00    0.87447   1.02263    0.007
 5122.00    0.84372   1.02414    0.007
 5123.00    0.83925   1.02670    0.007
 5124.00    0.84955   1.02935    0.007
 5125.00    0.86908   1.03062    0.007
 5126.00    0.92280   1.02966    0.007
 5127.00    0.99520   1.02656    0.007
 5128.00    1.05533   1.02198    0.007
 5129.00    1.10965   1.01680    0.007
 5130.00    1.11854   1.01223    0.007
 5131.00    1.10883   1.00944    0.007
 5132.00    1.03148   1.00847    0.007
 5133.00    0.93049   1.00792    0.007
 5134.00    0.90818   1.00694    0.007
 5135.00    0.90906   1.00640    0.007
 5136.00    1.05914   1.00728    0.007
 5137.00    1.24568   1.00931    0.007
 5138.00    1.12753   1.01133    0.007
 5139.00    0.94920   1.01217    0.007
 5140.00    0.93601   1.01227    0.007
 5141.00    0.94829   1.01360    0.007
 5142.00    0.99879   1.01636    0.007
 5143.00    1.05363   1.01801    0.007
 5144.00    1.05944   1.01658    0.007
 5145.00    1.06150   1.01302    0.007
 5146.00    0.99579   1.00997    0.007
 5147.00    0.92730   1.00916    0.007
 5148.00    0.77092   1.00922    0.007
 5149.00    0.62180   1.00752    0.007
 5150.00    0.80864   1.00445    0.007
 5151.00    0.99296   1.00244    0.007
 5152.00    1.13360   1.00213    0.007
 5153.00    1.23467   1.00277    0.007
 5154.00    0.91467   1.00379    0.007
 5155.00    0.64787   1.00478    0.007
 5156.00    0.78150   1.00532    0.007
 5157.00    0.89158   1.00474    0.007
 5158.00    0.86680   1.00286    0.007
 5159.00    0.86654   1.00072    0.007
 5160.00    0.97799   0.99951    0.007
 5161.00    1.07341   0.99961    0.007
 5162.00    1.10907   1.00134    0.007
 5163.00    1.07664   1.00516    0.007
 5164.00    0.83183   1.01058    0.007
 5165.00    0.69021   1.01552    0.007
 5166.00    0.82188   1.01800    0.007
 5167.00    0.92492   1.01822    0.007
 5168.00    0.96287   1.01746    0.007
 5169.00    0.95152   1.01610    0.007
 5170.00    0.84310   1.01388    0.007
 5171.00    0.84439   1.00983    0.007
 5172.00    1.03396   1.00199    0.007
 5173.00    1.12019   0.98980    0.007
 5174.00    1.05109   0.97651    0.007
 5175.00    0.97800   0.96774    0.007
 5176.00    0.89961   0.96668    0.007
 5177.00    0.85564   0.97020    0.007
 5178.00    0.85170   0.97153    0.007
 5179.00    0.87893   0.96863    0.007
 5180.00    0.93812   0.96714    0.007
 5181.00    0.94043   0.97235    0.007
 5182.00    0.89126   0.98206    0.007
 5183.00    0.91214   0.99061    0.007
 5184.00    0.98888   0.99575    0.007
 5185.00    0.91855   0.99823    0.007
 5186.00    0.74504   0.99836    0.007
 5187.00    0.80206   0.99585    0.007
 5188.00    1.00096   0.99025    0.007
 5189.00    1.00090   0.98113    0.007
 5190.00    0.89390   0.97079    0.000
 5191.00    0.87400   0.96563    0.000
 5192.00    0.89475   0.97032    0.000
 5193.00    1.00172   0.98183    0.000
 5194.00    1.14338   0.99282    0.000
 5195.00    1.14762   0.99922    0.000
 5196.00    1.10471   1.00174    0.000
 5197.00    1.19481   1.00148    0.000
 5198.00    1.32334   0.99792    0.000
 5199.00    1.20697   0.99236    0.000
 5200.00    1.03212   0.98857    0.000
 5201.00    0.90642   0.98855    0.000
 5202.00    0.79019   0.99098    0.000
 5203.00    0.72980   0.99431    0.000
 5204.00    0.67777   0.99782    0.000
 5205.00    0.66304   1.00075    0.000
 5206.00    0.65240   1.00236    0.000
 5207.00    0.74667   1.00214    0.000
 5208.00    0.84852   1.00063    0.000
 5209.00    0.76900   0.99858    0.000
 5210.00    0.68271   0.99562    0.000
 5211.00    0.77900   0.99041    0.007
 5212.00    0.87075   0.98345    0.007
 5213.00    0.76666   0.97739    0.007
 5214.00    0.67875   0.97392    0.007
 5215.00    0.85315   0.97268    0.007
 5216.00    1.00341   0.97349    0.007
 5217.00    0.90800   0.97670    0.007
 5218.00    0.83363   0.98188    0.007
 5219.00    0.91238   0.98814    0.007
 5220.00    0.99593   0.99450    0.007
 5221.00    1.10625   0.99917    0.007
 5222.00    1.15299   1.00039    0.007
 5223.00    0.91692   0.99903    0.007
 5224.00    0.74608   0.99846    0.007
 5225.00    0.81351   1.00068    0.007
 5226.00    0.88362   1.00465    0.007
 5227.00    0.96194   1.00851    0.007
 5228.00    1.04043   1.01098    0.007
 5229.00    1.11938   1.01076    0.007
 5230.00    1.13677   1.00689    0.007
 5231.00    1.01649   0.99971    0.007
 5232.00    0.95910   0.99053    0.007
 5233.00    1.02364   0.98167    0.007
 5234.00    1.06084   0.97694    0.007
 5235.00    1.05183   0.97942    0.007
 5236.00    1.01771   0.98776    0.007
 5237.00    0.94638   0.99673    0.007
 5238.00    0.87242   1.00193    0.007
 5239.00    0.79502   1.00179    0.007
 5240.00    0.82090   0.99765    0.007
 5241.00    0.96523   0.99347    0.007
 5242.00    1.06045   0.99314    0.007
 5243.00    1.10600   0.99713    0.007
 5244.00    1.03259   1.00255    0.007
 5245.00    0.85305   1.00625    0.007
 5246.00    0.80835   1.00738    0.007
 5247.00    0.86965   1.00706    0.007
 5248.00    0.89894   1.00667    0.007
 5249.00    0.90609   1.00658    0.007
 5250.00    0.93423   1.00670    0.007
 5251.00    0.97509   1.00703    0.007
 5252.00    0.98772   1.00645    0.007
 5253.00    0.98541   1.00282    0.007
 5254.00    0.88855   0.99666    0.007
 5255.00    0.74827   0.99184    0.007
 5256.00    0.92707   0.99010    0.007
 5257.00    1.23202   0.98950    0.007
 5258.00    1.21350   0.98911    0.007
 5259.00    1.08602   0.99007    0.007
 5260.00    1.04363   0.99197    0.007
 5261.00    1.02532   0.99307    0.007
 5262.00    1.01141   0.99352    0.007
 5263.00    0.99853   0.99538    0.007
 5264.00    1.05456   0.99953    0.007
 5265.00    1.12351   1.00401    0.007
 5266.00    1.07623   1.00585    0.007
 5267.00    1.01211   1.00369    0.007
 5268.00    0.87966   0.99819    0.008
 5269.00    0.74001   0.99060    0.008
 5270.00    0.90994   0.98183    0.008
 5271.00    1.10097   0.97336    0.008
 5272.00    1.03797   0.96765    0.008
 5273.00    0.96646   0.96657    0.008
 5274.00    1.05979   0.96915    0.008
 5275.00    1.14784   0.97078    0.008
 5276.00    1.06078   0.96747    0.007
 5277.00    0.98263   0.96234    0.007
 5278.00    1.04024   0.96253    0.007
 5279.00    1.09190   0.96927    0.007
 5280.00    1.08557   0.97716    0.007
 5281.00    1.06198   0.98172    0.007
 5282.00    0.91688   0.98309    0.007
 5283.00    0.80515   0.98441    0.007
 5284.00    0.87434   0.98862    0.007
 5285.00    0.93854   0.99501    0.007
 5286.00    0.98107   0.99961    0.007
 5287.00    0.98506   0.99983    0.007
 5288.00    0.85111   0.99642    0.007
 5289.00    0.78561   0.99168    0.007
 5290.00    0.92571   0.98778    0.007
 5291.00    1.00515   0.98673    0.007
 5292.00    0.92951   0.99006    0.007
 5293.00    0.87556   0.99662    0.007
 5294.00    0.86932   1.00248    0.007
 5295.00    0.91719   1.00492    0.007
 5296.00    1.06829   1.00482    0.007
 5297.00    1.13192   1.00439    0.007
 5298.00    1.04991   1.00426    0.007
 5299.00    0.98924   1.00381    0.007
 5300.00    0.95971   1.00290    0.007
 5301.00    0.98330   1.00164    0.007
 5302.00    1.07507   0.99896    0.007
 5303.00    1.11732   0.99338    0.007
 5304.00    1.10356   0.98561    0.007
 5305.00    1.07086   0.97922    0.007
 5306.00    1.01925   0.97748    0.007
 5307.00    0.97981   0.97993    0.007
 5308.00    0.95107   0.98337    0.007
 5309.00    0.97159   0.98632    0.007
 5310.00    1.03029   0.98996    0.007
 5311.00    1.08091   0.99486    0.007
 5312.00    1.12601   0.99920    0.007
 5313.00    1.02770   1.00072    0.007
 5314.00    0.84375   0.99944    0.007
 5315.00    0.85254   0.99772    0.007
 5316.00    0.96174   0.99762    0.007
 5317.00    0.88481   0.99884    0.007
 5318.00    0.72380   0.99961    0.007
 5319.00    0.70700   0.99900    0.007
 5320.00    0.74622   0.99742    0.007
 5321.00    0.83656   0.99540    0.007
 5322.00    0.94379   0.99276    0.007
 5323.00    0.99599   0.98957    0.007
 5324.00    1.03294   0.98731    0.007
 5325.00    1.01179   0.98737    0.007
 5326.00    0.97739   0.98885    0.007
 5327.00    1.09612   0.98961    0.007
 5328.00    1.24281   0.98907    0.007
 5329.00    1.04579   0.98791    0.007
 5330.00    0.80057   0.98617    0.007
 5331.00    0.80887   0.98377    0.007
 5332.00    0.84274   0.98130    0.007
 5333.00    0.87815   0.97804    0.007
 5334.00    0.91366   0.97151    0.007
 5335.00    0.95835   0.96233    0.007
 5336.00    1.00292   0.95681    0.007
 5337.00    0.88558   0.96057    0.007
 5338.00    0.77380   0.97120    0.007
 5339.00    0.82116   0.98077    0.007
 5340.00    0.86572   0.98489    0.007
 5341.00    0.87020   0.98591    0.007
 5342.00    0.88385   0.98710    0.007
 5343.00    0.98327   0.98827    0.007
 5344.00    1.06054   0.98803    0.007
 5345.00    0.98685   0.98604    0.007
 5346.00    0.93661   0.98231    0.007
 5347.00    1.01020   0.97735    0.007
 5348.00    1.07577   0.97344    0.007
 5349.00    1.10730   0.97317    0.007
 5350.00    1.10565   0.97595    0.007
 5351.00    0.98771   0.97838    0.007
 5352.00    0.87191   0.97819    0.007
 5353.00    0.76241   0.97657    0.007
 5354.00    0.69718   0.97600    0.007
 5355.00    0.74322   0.97684    0.007
 5356.00    0.85888   0.97795    0.007
 5357.00    1.12522   0.97957    0.007
 5358.00    1.24823   0.98273    0.007
 5359.00    1.10200   0.98686    0.007
 5360.00    0.95764   0.99041    0.007
 5361.00    0.81631   0.99303    0.007
 5362.00    0.79758   0.99522    0.007
 5363.00    0.95517   0.99692    0.007
 5364.00    1.05457   0.99789    0.007
 5365.00    1.08034   0.99823    0.007
 5366.00    1.07016   0.99785    0.007
 5367.00    1.01991   0.99609    0.007
 5368.00    0.93538   0.99259   -2.000
 5369.00    0.81715   0.98824   -2.000
 5370.00    0.87559   0.98476   -2.000
 5371.00    1.08723   0.98284   -2.000
 5372.00    1.45609   0.98168   -2.000
 5373.00    1.94503   0.98054   -2.000
 5374.00    1.97636   0.97929   -2.000
 5375.00    1.70044   0.97751   -2.000
 5376.00    1.45893   0.97410   -2.000
 5377.00    1.23768   0.96867   -2.000
 5378.00    1.05538   0.96328   -2.000
 5379.00    0.89307   0.96181   -2.000
 5380.00    0.90453   0.96634   -2.000
 5381.00    0.99321   0.97459   -2.000
 5382.00    1.00157   0.98203   -2.000
 5383.00    0.97927   0.98585    0.007
 5384.00    0.95404   0.98658    0.007
 5385.00    0.92786   0.98642    0.007
 5386.00    1.02698   0.98639    0.007
 5387.00    1.16013   0.98574    0.007
 5388.00    1.01509   0.98392    0.007
 5389.00    0.80809   0.98155    0.007
 5390.00    0.84475   0.97959    0.007
 5391.00    0.92469   0.97866    0.007
 5392.00    0.90101   0.97888    0.007
 5393.00    0.86327   0.97961    0.007
 5394.00    0.90574   0.97989    0.007
 5395.00    0.95595   0.97918    0.007
 5396.00    0.86365   0.97738    0.007
 5397.00    0.76276   0.97479    0.007
 5398.00    0.83388   0.97228    0.007
 5399.00    0.90970   0.97068    0.007
 5400.00    1.02167   0.96983    0.007
 5401.00    1.12706   0.96884    0.007
 5402.00    1.06297   0.96671    0.007
 5403.00    1.00383   0.96301    0.007
 5404.00    1.01199   0.95914    0.007
 5405.00    1.01025   0.95810    0.007
 5406.00    0.91946   0.96096    0.007
 5407.00    0.85522   0.96500    0.007
 5408.00    0.96642   0.96726    0.007
 5409.00    1.05025   0.96734    0.007
 5410.00    0.99333   0.96537    0.007
 5411.00    0.96732   0.96066    0.007
 5412.00    1.06962   0.95394    0.007
 5413.00    1.13159   0.94830    0.007
 5414.00    1.05503   0.94611    0.006
 5415.00    1.00381   0.94548    0.006
 5416.00    1.02593   0.94183    0.006
 5417.00    1.00457   0.93365    0.006
 5418.00    0.87586   0.92545    0.006
 5419.00    0.78058   0.92390    0.006
 5420.00    0.75648   0.93111    0.006
 5421.00    0.80239   0.94314    0.006
 5422.00    0.97778   0.95476    0.006
 5423.00    1.09126   0.96373    0.007
 5424.00    1.10471   0.97000    0.007
 5425.00    1.06435   0.97349    0.007
 5426.00    0.94772   0.97423    0.006
 5427.00    0.90594   0.97329    0.006
 5428.00    0.95752   0.97225    0.006
 5429.00    0.98204   0.97183    0.007
 5430.00    0.97681   0.97125    0.007
 5431.00    0.92129   0.96983    0.007
 5432.00    0.81701   0.96878    0.007
 5433.00    0.84015   0.96958    0.007
 5434.00    0.97221   0.97099    0.007
 5435.00    1.00112   0.96948    0.007
 5436.00    0.95236   0.96374    0.007
 5437.00    0.94580   0.95729    0.007
 5438.00    0.96715   0.95426    0.007
 5439.00    0.93580   0.95412    0.007
 5440.00    0.87390   0.95368    0.007
 5441.00    0.97542   0.95214    0.007
 5442.00    1.15943   0.95125    0.007
 5443.00    1.28157   0.95254    0.007
 5444.00    1.37668   0.95623    0.007
 5445.00    1.23971   0.96167    0.007
 5446.00    1.01570   0.96754    0.007
 5447.00    0.90928   0.97240    0.007
 5448.00    0.84026   0.97546    0.007
 5449.00    0.81004   0.97682    0.007
 5450.00    0.79014   0.97667    0.007
 5451.00    1.00924   0.97435    0.007
 5452.00    1.28032   0.96868    0.007
 5453.00    1.08560   0.96012    0.007
 5454.00    0.81042   0.95221    0.007
 5455.00    0.83126   0.94915    0.007
 5456.00    0.89091   0.95159    0.007
 5457.00    0.81213   0.95618    0.007
 5458.00    0.72057   0.95929    0.006
 5459.00    0.80176   0.95950    0.006
 5460.00    0.89266   0.95682    0.006
 5461.00    0.92435   0.95189    0.006
 5462.00    0.95474   0.94639    0.006
 5463.00    0.98774   0.94328    0.006
 5464.00    1.01866   0.94486    0.006
 5465.00    1.00069   0.95017    0.006
 5466.00    0.98067   0.95564    0.006
 5467.00    0.93434   0.95827    0.006
 5468.00    0.88945   0.95763    0.006
 5469.00    0.85710   0.95522    0.006
 5470.00    0.83760   0.95281    0.006
 5471.00    0.90056   0.95174    0.006
 5472.00    0.96099   0.95229    0.006
 5473.00    1.00879   0.95351    0.006
 5474.00    1.02436   0.95461    0.006
 5475.00    0.90909   0.95573    0.006
 5476.00    0.85436   0.95663    0.006
 5477.00    1.00337   0.95645    0.006
 5478.00    1.12848   0.95507   -2.000
 5479.00    1.18569   0.95299   -2.000
 5480.00    1.17556   0.95038   -2.000
 5481.00    1.00195   0.94758   -2.000
 5482.00    0.89096   0.94504   -2.000
 5483.00    0.91111   0.94245   -2.000
 5484.00    1.15934   0.94020   -2.000
 5485.00    1.82291   0.94037   -2.000
 5486.00    2.43306   0.94349   -2.000
 5487.00    2.95817   0.94665   -2.000
 5488.00    3.44564   0.94712   -2.000
 5489.00    3.88051   0.94590   -2.000
 5490.00    3.73153   0.94609   -2.000
 5491.00    2.86479   0.94888   -2.000
 5492.00    2.12585   0.95255   -2.000
 5493.00    1.52540   0.95446   -2.000
 5494.00    1.11469   0.95360   -2.000
 5495.00    0.88533   0.95193   -2.000
 5496.00    0.81917   0.95226   -2.000
 5497.00    0.89055   0.95455   -2.000
 5498.00    0.83631   0.95616   -2.000
 5499.00    0.68882   0.95580   -2.000
 5500.00    0.76394   0.95438   -2.000
 5501.00    0.98417   0.95293   -2.000
 5502.00    0.98167   0.95183    0.006
 5503.00    0.85209   0.95071    0.006
 5504.00    0.85798   0.94919    0.006
 5505.00    0.93117   0.94821    0.006
 5506.00    0.99586   0.94896    0.006
 5507.00    1.05690   0.95024    0.006
 5508.00    1.11717   0.94971    0.006
 5509.00    1.17716   0.94735    0.006
 5510.00    1.08706   0.94531    0.006
 5511.00    0.95012   0.94461    0.006
 5512.00    0.93003   0.94389    0.006
 5513.00    0.94034   0.94183    0.006
 5514.00    1.04215   0.93954    0.006
 5515.00    1.16339   0.93927    0.006
 5516.00    1.07448   0.94100    0.006
 5517.00    0.95028   0.94246    0.006
 5518.00    0.88469   0.94203    0.006
 5519.00    0.82651   0.93991    0.006
 5520.00    0.94338   0.93731    0.006
 5521.00    1.07569   0.93562    0.006
 5522.00    0.99164   0.93572    0.006
 5523.00    0.89627   0.93770    0.006
 5524.00    0.93738   0.94110    0.006
 5525.00    0.97915   0.94528    0.006
 5526.00    0.87743   0.94926    0.006
 5527.00    0.78348   0.95179    0.006
 5528.00    0.85675   0.95249    0.006
 5529.00    0.92146   0.95217    0.006
 5530.00    0.88180   0.95164    0.006
 5531.00    0.84524   0.95084    0.006
 5532.00    0.83452   0.94914    0.006
 5533.00    0.83303   0.94613    0.006
 5534.00    0.88899   0.94207    0.006
 5535.00    0.94703   0.93815    0.006
 5536.00    1.01515   0.93635    0.006
 5537.00    1.05292   0.93780    0.006
 5538.00    0.97017   0.94114    0.006
 5539.00    0.90368   0.94381    0.006
 5540.00    0.89080   0.94445    0.006
 5541.00    0.93167   0.94336    0.006
 5542.00    1.12246   0.94163    0.006
 5543.00    1.24757   0.94051    0.006
 5544.00    1.21591   0.94072    0.006
 5545.00    1.20498   0.94205    0.006
 5546.00    1.23677   0.94404    0.006
 5547.00    1.17043   0.94640    0.006
 5548.00    0.92810   0.94834    0.006
 5549.00    0.86350   0.94871    0.006
 5550.00    1.07762   0.94723    0.006
 5551.00    1.15219   0.94490    0.006
 5552.00    1.03462   0.94304    0.006
 5553.00    0.97353   0.94233    0.006
 5554.00    0.98092   0.94292    0.006
 5555.00    0.97958   0.94463    0.006
 5556.00    0.96893   0.94680    0.006
 5557.00    0.95177   0.94859    0.006
 5558.00    0.92846   0.94943    0.006
 5559.00    0.90338   0.94898    0.006
 5560.00    0.87683   0.94725    0.006
 5561.00    0.88188   0.94486    0.006
 5562.00    0.91006   0.94277    0.006
 5563.00    0.94122   0.94147    0.006
 5564.00    0.97431   0.94075    0.006
 5565.00    1.06633   0.94035    0.006
 5566.00    1.19147   0.94035    0.006
 5567.00    1.21332   0.94056    0.006
 5568.00    1.18468   0.94038    0.006
 5569.00    1.11874   0.93936    0.006
 5570.00    1.03703   0.93767    0.006
 5571.00    0.91007   0.93585    0.006
 5572.00    0.76675   0.93433    0.006
 5573.00    0.74621   0.93316    0.006
 5574.00    0.76324   0.93243    0.006
 5575.00    0.84810   0.93216    0.006
 5576.00    0.95024   0.93209    0.006
 5577.00    0.98449   0.93223    0.006
 5578.00    1.00469   0.93285    0.006
 5579.00    1.03181   0.93333    0.006
 5580.00    1.06005   0.93284    0.006
 5581.00    1.10896   0.93221    0.006
 5582.00    1.16040   0.93264    0.006
 5583.00    1.14727   0.93375    0.006
 5584.00    1.12873   0.93452    0.006
 5585.00    0.99170   0.93486    0.006
 5586.00    0.84893   0.93521    0.006
 5587.00    0.94912   0.93581    0.006
 5588.00    1.04906   0.93629    0.006
 5589.00    0.91779   0.93595    0.006
 5590.00    0.79418   0.93491    0.006
 5591.00    0.82281   0.93363    0.006
 5592.00    0.85167   0.93168    0.006
 5593.00    0.88314   0.92811    0.006
 5594.00    0.92620   0.92297    0.006
 5595.00    1.06244   0.91780    0.006
 5596.00    1.17577   0.91447    0.006
 5597.00    1.15064   0.91354    0.006
 5598.00    1.12520   0.91386    0.006
 5599.00    1.09827   0.91400    0.006
 5600.00    1.06390   0.91416    0.006
 5601.00    1.00061   0.91597    0.006
 5602.00    0.95131   0.92010    0.007
 5603.00    0.94726   0.92505    0.016
 5604.00    0.94381   0.92808   -1.000
 5605.00    0.94203   0.92741   -1.000
 5606.00    0.95286   0.92398   -1.000
 5607.00    0.99331   0.92044   -1.000
 5608.00    1.04116   0.91819   -1.000
 5609.00    1.10403   0.91700   -1.000
 5610.00    1.14588   0.91686   -1.000
 5611.00    1.15059   0.91847   -1.000
 5612.00    1.13403   0.92196   -1.000
 5613.00    1.08461   0.92639   -1.000
 5614.00    1.02081   0.93052    0.027
 5615.00    0.93749   0.93348    0.008
 5616.00    0.86572   0.93491    0.006
 5617.00    0.80778   0.93510    0.006
 5618.00    0.85333   0.93485    0.006
 5619.00    1.00790   0.93473    0.006
 5620.00    1.07422   0.93413    0.006
 5621.00    1.05852   0.93133    0.006
 5622.00    1.02961   0.92555    0.006
 5623.00    0.98988   0.91903    0.006
 5624.00    0.96556   0.91549    0.006
 5625.00    0.95237   0.91594    0.006
 5626.00    1.01236   0.91798    0.006
 5627.00    1.11864   0.91947    0.006
 5628.00    1.20945   0.92065    0.006
 5629.00    1.29170   0.92207    0.006
 5630.00    1.29213   0.92263    0.006
 5631.00    1.25319   0.92096    0.006
 5632.00    1.22154   0.91794    0.006
 5633.00    1.19292   0.91615    0.006
 5634.00    1.11241   0.91694    0.006
 5635.00    1.01347   0.91932    0.006
 5636.00    0.93024   0.92181    0.006
 5637.00    0.85173   0.92380    0.006
 5638.00    0.96425   0.92520    0.006
 5639.00    1.12434   0.92598    0.006
 5640.00    1.11070   0.92622    0.006
 5641.00    1.06197   0.92590    0.006
 5642.00    1.01085   0.92487    0.006
 5643.00    0.95935   0.92294    0.006
 5644.00    0.94590   0.92041    0.006
 5645.00    0.93693   0.91795    0.006
 5646.00    0.92332   0.91576    0.006
 5647.00    0.90934   0.91363    0.006
 5648.00    0.93959   0.91188    0.006
 5649.00    0.97180   0.91154    0.006
 5650.00    0.99230   0.91286    0.006
 5651.00    1.01115   0.91461    0.006
 5652.00    0.95599   0.91544    0.006
 5653.00    0.89802   0.91523    0.006
 5654.00    0.78810   0.91476    0.006
 5655.00    0.68813   0.91476    0.005
 5656.00    0.69824   0.91550    0.006
 5657.00    0.70613   0.91684    0.006
 5658.00    0.69687   0.91865    0.006
 5659.00    0.70989   0.92075    0.006
 5660.00    0.85370   0.92252    0.006
 5661.00    0.97110   0.92305    0.006
 5662.00    0.96566   0.92206    0.006
 5663.00    0.94219   0.92003    0.006
 5664.00    0.85023   0.91694    0.006
 5665.00    0.80469   0.91225    0.006
 5666.00    0.90645   0.90719    0.006
 5667.00    0.98315   0.90464    0.006
 5668.00    0.99243   0.90522    0.006
 5669.00    1.00761   0.90647    0.006
 5670.00    1.03641   0.90673    0.006
 5671.00    1.05260   0.90709    0.006
 5672.00    1.04362   0.90857    0.006
 5673.00    1.03827   0.91019    0.006
 5674.00    1.03920   0.91063    0.006
 5675.00    1.10248   0.91019    0.006
 5676.00    1.26068   0.91008    0.006
 5677.00    1.28201   0.91075    0.006
 5678.00    1.12027   0.91190    0.006
 5679.00    0.99610   0.91348    0.006
 5680.00    0.91619   0.91555    0.006
 5681.00    0.90474   0.91741    0.006
 5682.00    0.96439   0.91807    0.006
 5683.00    1.00559   0.91758    0.006
 5684.00    1.02987   0.91685    0.006
 5685.00    0.99777   0.91602    0.006
 5686.00    0.92016   0.91444    0.006
 5687.00    0.86283   0.91233    0.006
 5688.00    0.81991   0.91085    0.006
 5689.00    0.83079   0.91040    0.006
 5690.00    0.87522   0.91034    0.005
 5691.00    0.92520   0.91036    0.005
 5692.00    0.97821   0.91050    0.006
 5693.00    0.98903   0.91006    0.006
 5694.00    0.97988   0.90855    0.006
 5695.00    0.92795   0.90683    0.006
 5696.00    0.85856   0.90642    0.006
 5697.00    0.85852   0.90796    0.006
 5698.00    0.88266   0.91088    0.006
 5699.00    0.87520   0.91399    0.006
 5700.00    0.85844   0.91618    0.006
 5701.00    0.86408   0.91663    0.006
 5702.00    0.87519   0.91501    0.006
 5703.00    0.95025   0.91197    0.006
 5704.00    1.03792   0.90891    0.006
 5705.00    1.06855   0.90686    0.006
 5706.00    1.09042   0.90583    0.006
 5707.00    0.98869   0.90518    0.006
 5708.00    0.87295   0.90415    0.006
 5709.00    0.83600   0.90274    0.006
 5710.00    0.80501   0.90198    0.006
 5711.00    0.83052   0.90263    0.006
 5712.00    0.85832   0.90390    0.006
 5713.00    0.92712   0.90411    0.006
 5714.00    0.99426   0.90235    0.006
 5715.00    0.97996   0.89918    0.006
 5716.00    0.96784   0.89582    0.006
 5717.00    0.99331   0.89335    0.006
 5718.00    1.01206   0.89238    0.006
 5719.00    0.95977   0.89303    0.006
 5720.00    0.91162   0.89539    0.005
 5721.00    0.89456   0.89936    0.005
 5722.00    0.88374   0.90373    0.005
 5723.00    0.90846   0.90692    0.005
 5724.00    0.94008   0.90843    0.005
 5725.00    1.00303   0.90893    0.005
 5726.00    1.03984   0.90926    0.006
 5727.00    0.97935   0.90985    0.005
 5728.00    0.94684   0.91062    0.005
 5729.00    1.00138   0.91127    0.005
 5730.00    1.04659   0.91162    0.005
 5731.00    1.06713   0.91160    0.005
 5732.00    1.06059   0.91107    0.005
 5733.00    0.99260   0.90969    0.005
 5734.00    0.95833   0.90740    0.005
 5735.00    0.99029   0.90520    0.006
 5736.00    1.00007   0.90440    0.006
 5737.00    0.97185   0.90489    0.006
 5738.00    0.96738   0.90524    0.006
 5739.00    0.99853   0.90494    0.006
 5740.00    1.01653   0.90510    0.000
 5741.00    1.01720   0.90651    0.000
 5742.00    1.02018   0.90840    0.000
 5743.00    1.02586   0.90950    0.000
 5744.00    1.03128   0.90916    0.000
 5745.00    1.03642   0.90749    0.000
 5746.00    1.02410   0.90493    0.000
 5747.00    0.99602   0.90248    0.000
 5748.00    1.01615   0.90135    0.000
 5749.00    1.07468   0.90195    0.000
 5750.00    1.04586   0.90346    0.000
 5751.00    0.95588   0.90492    0.000
 5752.00    0.91396   0.90628    0.000
 5753.00    0.90157   0.90743    0.000
 5754.00    0.86639   0.90747    0.000
 5755.00    0.81899   0.90599    0.000
 5756.00    0.86330   0.90432    0.000
 5757.00    0.95033   0.90421    0.000
 5758.00    0.97129   0.90544    0.000
 5759.00    0.96573   0.90587    0.000
 5760.00    0.95535   0.90402    0.000
 5761.00    0.94333   0.90077    0.000
 5762.00    0.98741   0.89861    0.000
 5763.00    1.04766   0.89933    0.000
 5764.00    1.03709   0.90244    0.000
 5765.00    1.00966   0.90574    0.000
 5766.00    1.00874   0.90726    0.000
 5767.00    1.01290   0.90620    0.000
 5768.00    1.01659   0.90297    0.000
 5769.00    1.02021   0.89887    0.000
 5770.00    0.88219   0.89574    0.000
 5771.00    0.72875   0.89521    0.000
 5772.00    0.76113   0.89738    0.000
 5773.00    0.80683   0.90065    0.000
 5774.00    0.75214   0.90318    0.000
 5775.00    0.69374   0.90433    0.000
 5776.00    0.74520   0.90443    0.000
 5777.00    0.79649   0.90403    0.000
 5778.00    0.82562   0.90349    0.000
 5779.00    0.84938   0.90287    0.000
 5780.00    0.78694   0.90211    0.000
 5781.00    0.73857   0.90121    0.000
 5782.00    0.83273   0.90032    0.000
 5783.00    0.91216   0.89962    0.000
 5784.00    0.88479   0.89931    0.000
 5785.00    0.86712   0.89920    0.000
 5786.00    0.90327   0.89854    0.000
 5787.00    0.93962   0.89623    0.000
 5788.00    0.97683   0.89189    0.000
 5789.00    1.00538   0.88676    0.000
 5790.00    1.00239   0.88297    0.000
 5791.00    1.01512   0.88134   -2.000
 5792.00    1.07584   0.88099   -2.000
 5793.00    1.13238   0.88140   -2.000
 5794.00    1.17804   0.88317   -2.000
 5795.00    1.19641   0.88633   -2.000
 5796.00    1.15387   0.88955   -2.000
 5797.00    1.09845   0.89139   -2.000
 5798.00    1.01811   0.89156   -2.000
 5799.00    0.96336   0.89119   -2.000
 5800.00    0.95180   0.89188   -2.000
 5801.00    0.91282   0.89415   -2.000
 5802.00    0.83328   0.89690   -2.000
 5803.00    0.78544   0.89847   -2.000
 5804.00    0.77880   0.89786   -2.000
 5805.00    0.79599   0.89559   -2.000
 5806.00    0.84047   0.89361   -2.000
 5807.00    0.85825   0.89347   -2.000
 5808.00    0.84906   0.89483   -2.000
 5809.00    0.90145   0.89646   -2.000
 5810.00    1.00869   0.89778   -2.000
 5811.00    1.07964   0.89846    0.000
 5812.00    1.12211   0.89809    0.000
 5813.00    1.08300   0.89704    0.000
 5814.00    0.98760   0.89632    0.000
 5815.00    0.93169   0.89640    0.000
 5816.00    0.89967   0.89693    0.000
 5817.00    0.88632   0.89728    0.000
 5818.00    0.88282   0.89697    0.000
 5819.00    0.90829   0.89580    0.000
 5820.00    0.94704   0.89417    0.000
 5821.00    1.00854   0.89272    0.000
 5822.00    1.07902   0.89173    0.000
 5823.00    1.06537   0.89098    0.000
 5824.00    1.02345   0.89060    0.000
 5825.00    1.00365   0.89126    0.000
 5826.00    0.99010   0.89307    0.000
 5827.00    0.97679   0.89521    0.000
 5828.00    0.96353   0.89674    0.000
 5829.00    0.87650   0.89720    0.000
 5830.00    0.77568   0.89658    0.000
 5831.00    0.79628   0.89536    0.000
 5832.00    0.83441   0.89441    0.000
 5833.00    0.88321   0.89440    0.000
 5834.00    0.93312   0.89515    0.000
 5835.00    0.97879   0.89604    0.000
 5836.00    1.02418   0.89659    0.000
 5837.00    1.11659   0.89668    0.000
 5838.00    1.21055   0.89639    0.000
 5839.00    1.23592   0.89591    0.000
 5840.00    1.25897   0.89529    0.000
 5841.00    1.21001   0.89437    0.000
 5842.00    1.16383   0.89319    0.000
 5843.00    1.15973   0.89226    0.000
 5844.00    1.15394   0.89193    0.000
 5845.00    1.13184   0.89175    0.000
 5846.00    1.09986   0.89130    0.000
 5847.00    0.99852   0.89115    0.000
 5848.00    0.91645   0.89207    0.000
 5849.00    0.93845   0.89372    0.000
 5850.00    0.96374   0.89489    0.000
 5851.00    1.00326   0.89478    0.000
 5852.00    1.02971   0.89345    0.000
 5853.00    1.00949   0.89135    0.000
 5854.00    0.98730   0.88904    0.000
 5855.00    0.95917   0.88712    0.000
 5856.00    0.96099   0.88608    0.000
 5857.00    1.03923   0.88566    0.000
 5858.00    1.09424   0.88498    0.000
 5859.00    1.09825   0.88328    0.000
 5860.00    1.06627   0.88061    0.000
 5861.00    0.96579   0.87803    0.000
 5862.00    0.90695   0.87665    0.000
 5863.00    0.91732   0.87621    0.000
 5864.00    0.93947   0.87522    0.000
 5865.00    0.97877   0.87302    0.000
 5866.00    0.99030   0.87106    0.000
 5867.00    0.96625   0.87119    0.000
 5868.00    0.99287   0.87341    0.000
 5869.00    1.07667   0.87591    0.000
 5870.00    1.09990   0.87723    0.000
 5871.00    1.06282   0.87743    0.000
 5872.00    0.99882   0.87722    0.000
 5873.00    0.91118   0.87666    0.000
 5874.00    0.87444   0.87562    0.000
 5875.00    0.87705   0.87488    0.000
 5876.00    0.87742   0.87557    0.000
 5877.00    0.87625   0.87757    0.000
 5878.00    0.87797   0.87931    0.000
 5879.00    0.88142   0.87893    0.000
 5880.00    0.87739   0.87450    0.000
 5881.00    0.86947   0.86314    0.000
 5882.00    0.82786   0.84304    0.000
 5883.00    0.77105   0.81963    0.000
 5884.00    0.76358   0.80607    0.000
 5885.00    0.77523   0.81160    0.000
 5886.00    0.78141   0.83101    0.000
 5887.00    0.78579   0.85022    0.000
 5888.00    0.77941   0.86094    0.000
 5889.00    0.77006   0.86492    0.000
 5890.00    0.77572   0.86646    0.000
 5891.00    0.78480   0.86711    0.000
 5892.00    0.78953   0.86680    0.000
 5893.00    0.79347   0.86550    0.000
 5894.00    0.81404   0.86245    0.000
 5895.00    0.83692   0.85520    0.000
 5896.00    0.82970   0.84141    0.000
 5897.00    0.81945   0.82302    0.000
 5898.00    0.83038   0.80783    0.000
 5899.00    0.84266   0.80383    0.000
 5900.00    0.86108   0.81097    0.000
 5901.00    0.87942   0.82099    0.005
 5902.00    0.80946   0.82538    0.005
 5903.00    0.74172   0.82232    0.005
 5904.00    0.73668   0.81743    0.005
 5905.00    0.73410   0.81792    0.005
 5906.00    0.76667   0.82535    0.005
 5907.00    0.79991   0.83541    0.005
 5908.00    0.83943   0.84411    0.005
 5909.00    0.88027   0.85065    0.005
 5910.00    0.93007   0.85552    0.005
 5911.00    0.97262   0.85894    0.005
 5912.00    0.97704   0.86114    0.005
 5913.00    0.95548   0.86237    0.005
 5914.00    0.82395   0.86305    0.005
 5915.00    0.72186   0.86377    0.005
 5916.00    0.72266   0.86473    0.005
 5917.00    0.71374   0.86559    0.005
 5918.00    0.67628   0.86615    0.005
 5919.00    0.67345   0.86627    0.005
 5920.00    0.75742   0.86535    0.005
 5921.00    0.83915   0.86287    0.005
 5922.00    0.91608   0.85962    0.005
 5923.00    0.94729   0.85738    0.005
 5924.00    0.89280   0.85711    0.005
 5925.00    0.84445   0.85825    0.005
 5926.00    0.80616   0.85963    0.005
 5927.00    0.77214   0.86052    0.005
 5928.00    0.74426   0.86091    0.005
 5929.00    0.77272   0.86097    0.005
 5930.00    0.87233   0.86086    0.005
 5931.00    0.96897   0.86101    0.005
 5932.00    1.06231   0.86162    0.005
 5933.00    1.06622   0.86239    0.005
 5934.00    0.98236   0.86288    0.005
 5935.00    0.93846   0.86274    0.005
 5936.00    0.92914   0.86179    0.005
 5937.00    0.91072   0.86035    0.005
 5938.00    0.88533   0.85931    0.005
 5939.00    0.83196   0.85946    0.005
 5940.00    0.75984   0.86046    0.005
 5941.00    0.73409   0.86097    0.005
 5942.00    0.73557   0.86029    0.005
 5943.00    0.77088   0.85937    0.005
 5944.00    0.82350   0.85957    0.005
 5945.00    0.84134   0.86090    0.005
 5946.00    0.84374   0.86215    0.005
 5947.00    0.83103   0.86207    0.005
 5948.00    0.81254   0.86013    0.005
 5949.00    0.79925   0.85713    0.005
 5950.00    0.78763   0.85506    0.005
 5951.00    0.81105   0.85511    0.005
 5952.00    0.84395   0.85671    0.005
 5953.00    0.82851   0.85873    0.005
 5954.00    0.80233   0.86037    0.005
 5955.00    0.84150   0.86080    0.005
 5956.00    0.89224   0.85966    0.005
 5957.00    0.93939   0.85782    0.005
 5958.00    0.98605   0.85659    0.005
 5959.00    0.97066   0.85609    0.005
 5960.00    0.94931   0.85543    0.005
 5961.00    0.94439   0.85450    0.005
 5962.00    0.94046   0.85398    0.005
 5963.00    0.91753   0.85358    0.005
 5964.00    0.89463   0.85240    0.005
 5965.00    0.95326   0.85090    0.005
 5966.00    1.01165   0.85073    0.005
 5967.00    1.06407   0.85268    0.005
 5968.00    1.10842   0.85585    0.005
 5969.00    1.04411   0.85876    0.005
 5970.00    0.98301   0.86054    0.005
 5971.00    0.95061   0.86106    0.005
 5972.00    0.91060   0.86050    0.005
 5973.00    0.82042   0.85932    0.005
 5974.00    0.74152   0.85829    0.005
 5975.00    0.72043   0.85816    0.005
 5976.00    0.71010   0.85893    0.005
 5977.00    0.74435   0.86009    0.005
 5978.00    0.75556   0.86119    0.005
 5979.00    0.68784   0.86195    0.005
 5980.00    0.65469   0.86216    0.005
 5981.00    0.72130   0.86164    0.005
 5982.00    0.79655   0.86019    0.005
 5983.00    0.89306   0.85778    0.005
 5984.00    0.94880   0.85464    0.005
 5985.00    0.91787   0.85123    0.005
 5986.00    0.88981   0.84842    0.005
 5987.00    0.86702   0.84742    0.005
 5988.00    0.87202   0.84865    0.005
 5989.00    0.92180   0.85083    0.005
 5990.00    0.96190   0.85183    0.005
 5991.00    0.98830   0.85065    0.005
 5992.00    0.98432   0.84842    0.005
 5993.00    0.94251   0.84729    0.005
 5994.00    0.89153   0.84814    0.005
 5995.00    0.83046   0.84996    0.005
 5996.00    0.80103   0.85147    0.005
 5997.00    0.80220   0.85241    0.005
 5998.00    0.81478   0.85300    0.005
 5999.00    0.83710   0.85344    0.005
 6000.00    0.83867   0.85416    0.005
 6001.00    0.82465   0.85560    0.005
 6002.00    0.83950   0.85734    0.005
 6003.00    0.87341   0.85812    0.005
 6004.00    0.88717   0.85711    0.005
 6005.00    0.88928   0.85478    0.005
 6006.00    0.89906   0.85245    0.005
 6007.00    0.91271   0.85112    0.005
 6008.00    0.93220   0.85080    0.005
 6009.00    0.95422   0.85070    0.005
 6010.00    0.96676   0.85022    0.005
 6011.00    0.97574   0.84962    0.005
 6012.00    0.93023   0.84950    0.005
 6013.00    0.86742   0.84958    0.005
 6014.00    0.82696   0.84887    0.009
 6015.00    0.79242   0.84707    0.057
 6016.00    0.82559   0.84532   -1.000
 6017.00    0.87344   0.84521   -1.000
 6018.00    0.89668   0.84693   -1.000
 6019.00    0.91567   0.84889   -1.000
 6020.00    0.90937   0.84938   -1.000
 6021.00    0.89976   0.84844   -1.000
 6022.00    0.86499   0.84742   -1.000
 6023.00    0.82790   0.84698   -1.000
 6024.00    0.84320   0.84658   -1.000
 6025.00    0.86141   0.84586   -1.000
 6026.00    0.90169   0.84524    0.010
 6027.00    0.94177   0.84502    0.005
 6028.00    0.91411   0.84492    0.005
 6029.00    0.88462   0.84480    0.005
 6030.00    0.81270   0.84484    0.005
 6031.00    0.74760   0.84519    0.005
 6032.00    0.76931   0.84590    0.005
 6033.00    0.79500   0.84696    0.005
 6034.00    0.85497   0.84818    0.005
 6035.00    0.90281   0.84928    0.005
 6036.00    0.87324   0.85029    0.005
 6037.00    0.84891   0.85130    0.005
 6038.00    0.85078   0.85198    0.005
 6039.00    0.86611   0.85205    0.005
 6040.00    0.93589   0.85194    0.005
 6041.00    0.99400   0.85228    0.005
 6042.00    1.01291   0.85311    0.005
 6043.00    1.00196   0.85383    0.005
 6044.00    0.90643   0.85398    0.005
 6045.00    0.82765   0.85353    0.005
 6046.00    0.78948   0.85266    0.005
 6047.00    0.75190   0.85155    0.005
 6048.00    0.71560   0.85050    0.005
 6049.00    0.69576   0.84997    0.005
 6050.00    0.70587   0.85025    0.005
 6051.00    0.74054   0.85123    0.005
 6052.00    0.81425   0.85253    0.005
 6053.00    0.87168   0.85374    0.005
 6054.00    0.90643   0.85450    0.005
 6055.00    0.90451   0.85465    0.005
 6056.00    0.85761   0.85430    0.005
 6057.00    0.82366   0.85384    0.005
 6058.00    0.80372   0.85366    0.005
 6059.00    0.80509   0.85364    0.005
 6060.00    0.82679   0.85318    0.005
 6061.00    0.83468   0.85190    0.005
 6062.00    0.83096   0.85010    0.005
 6063.00    0.84967   0.84825    0.005
 6064.00    0.88500   0.84662    0.005
 6065.00    0.90641   0.84544    0.005
 6066.00    0.91877   0.84514    0.005
 6067.00    0.92964   0.84592    0.005
 6068.00    0.93968   0.84725    0.005
 6069.00    0.90247   0.84810    0.005
 6070.00    0.84183   0.84764    0.005
 6071.00    0.81891   0.84564    0.005
 6072.00    0.81217   0.84258    0.005
 6073.00    0.83292   0.83969    0.005
 6074.00    0.86377   0.83876    0.005
 6075.00    0.86213   0.84070    0.005
 6076.00    0.85038   0.84442    0.005
 6077.00    0.78868   0.84789    0.005
 6078.00    0.71401   0.85005    0.005
 6079.00    0.67980   0.85119    0.005
 6080.00    0.65415   0.85189    0.005
 6081.00    0.68979   0.85228    0.005
 6082.00    0.73568   0.85226    0.005
 6083.00    0.71033   0.85174    0.005
 6084.00    0.67599   0.85058    0.005
 6085.00    0.67468   0.84870    0.005
 6086.00    0.67627   0.84639    0.005
 6087.00    0.68825   0.84426    0.005
 6088.00    0.70076   0.84252    0.005
 6089.00    0.65264   0.84084    0.005
 6090.00    0.60485   0.83918    0.005
 6091.00    0.66217   0.83826    0.005
 6092.00    0.72153   0.83853    0.005
 6093.00    0.82411   0.83946    0.005
 6094.00    0.92041   0.84042    0.005
 6095.00    0.94049   0.84126    0.005
 6096.00    0.95603   0.84169    0.005
 6097.00    0.93394   0.84104    0.005
 6098.00    0.90382   0.83919    0.005
 6099.00    0.82399   0.83710    0.005
 6100.00    0.74697   0.83603    0.005
 6101.00    0.68360   0.83651    0.005
 6102.00    0.63997   0.83827    0.005
 6103.00    0.67454   0.84045    0.005
 6104.00    0.72578   0.84196    0.005
 6105.00    0.83187   0.84231    0.005
 6106.00    0.90417   0.84213    0.005
 6107.00    0.88242   0.84215    0.005
 6108.00    0.86344   0.84172    0.005
 6109.00    0.85107   0.83919    0.005
 6110.00    0.86475   0.83412    0.005
 6111.00    0.93207   0.82890    0.005
 6112.00    0.95425   0.82696    0.005
 6113.00    0.89568   0.82914    0.005
 6114.00    0.85752   0.83297    0.005
 6115.00    0.85132   0.83578    0.005
 6116.00    0.83862   0.83713    0.005
 6117.00    0.81699   0.83792    0.005
 6118.00    0.79749   0.83852    0.005
 6119.00    0.78057   0.83861    0.005
 6120.00    0.78945   0.83846    0.005
 6121.00    0.82583   0.83890    0.005
 6122.00    0.85628   0.84004    0.005
 6123.00    0.88116   0.84092    0.005
 6124.00    0.88435   0.84072    0.005
 6125.00    0.86957   0.83973    0.005
 6126.00    0.86680   0.83846    0.005
 6127.00    0.87282   0.83649    0.005
 6128.00    0.85300   0.83295    0.005
 6129.00    0.81662   0.82811    0.005
 6130.00    0.79576   0.82389    0.005
 6131.00    0.78362   0.82251    0.005
 6132.00    0.84911   0.82434    0.005
 6133.00    0.95249   0.82738    0.005
 6134.00    0.97482   0.82929    0.005
 6135.00    0.96299   0.82958    0.005
 6136.00    0.92243   0.82947    0.008
 6137.00    0.87150   0.83037    0.043
 6138.00    0.81612   0.83278   -1.000
 6139.00    0.75940   0.83582   -1.000
 6140.00    0.76363   0.83790   -1.000
 6141.00    0.78334   0.83773   -1.000
 6142.00    0.84493   0.83464   -1.000
 6143.00    0.91516   0.82857   -1.000
 6144.00    0.95190   0.82067   -1.000
 6145.00    0.98320   0.81397   -1.000
 6146.00    0.98310   0.81201   -1.000
 6147.00    0.97918   0.81568   -1.000
 6148.00    0.98598   0.82165    0.010
 6149.00    0.99367   0.82565    0.005
 6150.00    0.95441   0.82682    0.005
 6151.00    0.91291   0.82771    0.005
 6152.00    0.90432   0.83023    0.005
 6153.00    0.89681   0.83350    0.005
 6154.00    0.92367   0.83546    0.005
 6155.00    0.94995   0.83509    0.005
 6156.00    0.96501   0.83269    0.005
 6157.00    0.97235   0.82911    0.005
 6158.00    0.89051   0.82560    0.005
 6159.00    0.81487   0.82363    0.005
 6160.00    0.78885   0.82398    0.005
 6161.00    0.77028   0.82579    0.005
 6162.00    0.79654   0.82719    0.005
 6163.00    0.82331   0.82702    0.005
 6164.00    0.85245   0.82558    0.005
 6165.00    0.87703   0.82376    0.005
 6166.00    0.88393   0.82182    0.005
 6167.00    0.88979   0.81910    0.005
 6168.00    0.89227   0.81446    0.005
 6169.00    0.88973   0.80741    0.005
 6170.00    0.87347   0.79944    0.005
 6171.00    0.85994   0.79374    0.005
 6172.00    0.85281   0.79265    0.005
 6173.00    0.83756   0.79565    0.005
 6174.00    0.80586   0.80023    0.005
 6175.00    0.76210   0.80383    0.005
 6176.00    0.69710   0.80480    0.005
 6177.00    0.66264   0.80296    0.005
 6178.00    0.67526   0.80020    0.005
 6179.00    0.71200   0.79949    0.005
 6180.00    0.78141   0.80192    0.005
 6181.00    0.83521   0.80562    0.005
 6182.00    0.87039   0.80833    0.005
 6183.00    0.89347   0.80967    0.005
 6184.00    0.90386   0.81045    0.005
 6185.00    0.90920   0.81129    0.005
 6186.00    0.90986   0.81234    0.005
 6187.00    0.91991   0.81344    0.005
 6188.00    0.93763   0.81435    0.005
 6189.00    0.93985   0.81505    0.005
 6190.00    0.93091   0.81572    0.005
 6191.00    0.89244   0.81623    0.005
 6192.00    0.83532   0.81608    0.005
 6193.00    0.96993   0.81489    0.005
 6194.00    1.21043   0.81263    0.005
 6195.00    1.69764   0.80968    0.005
 6196.00    2.30331   0.80665   -2.000
 6197.00    2.68157   0.80385   -2.000
 6198.00    2.96556   0.80094   -2.000
 6199.00    2.63569   0.79786   -2.000
 6200.00    2.08826   0.79598   -2.000
 6201.00    1.51230   0.79703   -2.000
 6202.00    0.92781   0.80093   -2.000
 6203.00    0.67061   0.80550   -2.000
 6204.00    0.49471   0.80874   -2.000
 6205.00    0.45900   0.81003   -2.000
 6206.00    0.45152   0.80934   -2.000
 6207.00    0.49195   0.80702   -2.000
 6208.00    0.53993   0.80441    0.005
 6209.00    0.58782   0.80344    0.005
 6210.00    0.63570   0.80493    0.005
 6211.00    0.64518   0.80771    0.005
 6212.00    0.65161   0.81000    0.005
 6213.00    0.69000   0.81111    0.005
 6214.00    0.72979   0.81153    0.005
 6215.00    0.72346   0.81188    0.005
 6216.00    0.71700   0.81215    0.005
 6217.00    0.72791   0.81185    0.005
 6218.00    0.74030   0.81057    0.005
 6219.00    0.77971   0.80824    0.005
 6220.00    0.81193   0.80492    0.005
 6221.00    0.76499   0.80061    0.005
 6222.00    0.72917   0.79571    0.005
 6223.00    0.77921   0.79155    0.005
 6224.00    0.82709   0.78968    0.005
 6225.00    0.86243   0.79034    0.005
 6226.00    0.89289   0.79216    0.005
 6227.00    0.90073   0.79332    0.005
 6228.00    0.89961   0.79305    0.005
 6229.00    0.86445   0.79219    0.005
 6230.00    0.82501   0.79194    0.005
 6231.00    0.77200   0.79238    0.005
 6232.00    0.72621   0.79287    0.005
 6233.00    0.69980   0.79318    0.005
 6234.00    0.69066   0.79359    0.005
 6235.00    0.72132   0.79405    0.005
 6236.00    0.74646   0.79371    0.005
 6237.00    0.76060   0.79162    0.005
 6238.00    0.77194   0.78774    0.005
 6239.00    0.77843   0.78356    0.005
 6240.00    0.78397   0.78144    0.005
 6241.00    0.78810   0.78265    0.005
 6242.00    0.78610   0.78647    0.005
 6243.00    0.77592   0.79113    0.005
 6244.00    0.74660   0.79476    0.005
 6245.00    0.69477   0.79589    0.005
 6246.00    0.67385   0.79418    0.005
 6247.00    0.68498   0.79052    0.005
 6248.00    0.68335   0.78659    0.005
 6249.00    0.67007   0.78392    0.005
 6250.00    0.66081   0.78280    0.005
 6251.00    0.65479   0.78222    0.005
 6252.00    0.65647   0.78166    0.005
 6253.00    0.66360   0.78185    0.005
 6254.00    0.68305   0.78320    0.005
 6255.00    0.71017   0.78543    0.005
 6256.00    0.76989   0.78827    0.005
 6257.00    0.84734   0.79097    0.005
 6258.00    0.99836   0.79224    0.005
 6259.00    1.18414   0.79137    0.005
 6260.00    1.30578   0.78865    0.005
 6261.00    1.40127   0.78533    0.006
 6262.00    1.23451   0.78291    0.006
 6263.00    0.97648   0.78165    0.006
 6264.00    0.77200   0.78033    0.006
 6265.00    0.58321   0.77789    0.006
 6266.00    0.62505   0.77494    0.005
 6267.00    0.72292   0.77340    0.005
 6268.00    0.78310   0.77480    0.005
 6269.00    0.83587   0.77870    0.005
 6270.00    0.84104   0.78335    0.005
 6271.00    0.83892   0.78758    0.005
 6272.00    0.81524   0.79047    0.005
 6273.00    0.78914   0.79125    0.005
 6274.00    0.77648   0.79050    0.005
 6275.00    0.76484   0.78975    0.005
 6276.00    0.78896   0.78961    0.005
 6277.00    0.81451   0.78966    0.005
 6278.00    0.81893   0.78980    0.005
 6279.00    0.82376   0.79053    0.005
 6280.00    0.85177   0.79182    0.000
 6281.00    0.87878   0.79297    0.000
 6282.00    0.88862   0.79334    0.000
 6283.00    0.89320   0.79300    0.000
 6284.00    0.84237   0.79252    0.000
 6285.00    0.79684   0.79222    0.000
 6286.00    0.79089   0.79189    0.000
 6287.00    0.77774   0.79101    0.000
 6288.00    0.72358   0.78946    0.000
 6289.00    0.68110   0.78798    0.000
 6290.00    0.69148   0.78760    0.000
 6291.00    0.70496   0.78856    0.000
 6292.00    0.72994   0.79019    0.000
 6293.00    0.74988   0.79161    0.000
 6294.00    0.75420   0.79281    0.000
 6295.00    0.77699   0.79458    0.000
 6296.00    0.84845   0.79694    0.000
 6297.00    0.89678   0.79880    0.000
 6298.00    0.89271   0.79916    0.000
 6299.00    0.88613   0.79781    0.000
 6300.00    0.87464   0.79555    0.000
 6301.00    0.85216   0.79347    0.000
 6302.00    0.81091   0.79212    0.000
 6303.00    0.76257   0.79108    0.000
 6304.00    0.70359   0.78937    0.000
 6305.00    0.66253   0.78710    0.000
 6306.00    0.64504   0.78568    0.000
 6307.00    0.65775   0.78590    0.000
 6308.00    0.70546   0.78691    0.000
 6309.00    0.74477   0.78724    0.000
 6310.00    0.77548   0.78671    0.000
 6311.00    0.79010   0.78635    0.000
 6312.00    0.79022   0.78674    0.000
 6313.00    0.79211   0.78751    0.000
 6314.00    0.79540   0.78851    0.000
 6315.00    0.79827   0.79030    0.000
 6316.00    0.80084   0.79292    0.000
 6317.00    0.77971   0.79503    0.000
 6318.00    0.74406   0.79534    0.000
 6319.00    0.72090   0.79393    0.000
 6320.00    0.70442   0.79199    0.000
 6321.00    0.69636   0.79062    0.004
 6322.00    0.69220   0.78986    0.004
 6323.00    0.65502   0.78909    0.004
 6324.00    0.60462   0.78822    0.004
 6325.00    0.61289   0.78746    0.004
 6326.00    0.64119   0.78658    0.005
 6327.00    0.62630   0.78591    0.005
 6328.00    0.59900   0.78647    0.005
 6329.00    0.59894   0.78841    0.005
 6330.00    0.60536   0.79070    0.005
 6331.00    0.64289   0.79249    0.005
 6332.00    0.68638   0.79373    0.005
 6333.00    0.71350   0.79458    0.005
 6334.00    0.73820   0.79502    0.005
 6335.00    0.73199   0.79521    0.005
 6336.00    0.72242   0.79553    0.005
 6337.00    0.70329   0.79613    0.005
 6338.00    0.68348   0.79658    0.005
 6339.00    0.70678   0.79674    0.005
 6340.00    0.73164   0.79709    0.005
 6341.00    0.69275   0.79751    0.005
 6342.00    0.65453   0.79676    0.005
 6343.00    0.64864   0.79383    0.004
 6344.00    0.64246   0.78966    0.004
 6345.00    0.63164   0.78675    0.004
 6346.00    0.62529   0.78659    0.004
 6347.00    0.66390   0.78851    0.004
 6348.00    0.70144   0.79113    0.004
 6349.00    0.73123   0.79336    0.005
 6350.00    0.75397   0.79428    0.005
 6351.00    0.73774   0.79317    0.005
 6352.00    0.72159   0.79017    0.005
 6353.00    0.70578   0.78636    0.005
 6354.00    0.69686   0.78286    0.005
 6355.00    0.71301   0.78070    0.005
 6356.00    0.72129   0.78082    0.005
 6357.00    0.70562   0.78362    0.005
 6358.00    0.69285   0.78797    0.005
 6359.00    0.68758   0.79192    0.005
 6360.00    0.67938   0.79409    0.005
 6361.00    0.66468   0.79409    0.005
 6362.00    0.65667   0.79221    0.005
 6363.00    0.66156   0.78944    0.005
 6364.00    0.68869   0.78697    0.005
 6365.00    0.75324   0.78501    0.005
 6366.00    0.80949   0.78280    0.005
 6367.00    0.85348   0.78010    0.005
 6368.00    0.86995   0.77763    0.005
 6369.00    0.85073   0.77589    0.005
 6370.00    0.82220   0.77476    0.005
 6371.00    0.78303   0.77429    0.005
 6372.00    0.76825   0.77494    0.005
 6373.00    0.77807   0.77692    0.005
 6374.00    0.79147   0.77988    0.005
 6375.00    0.80805   0.78332    0.005
 6376.00    0.79231   0.78659    0.005
 6377.00    0.75124   0.78865    0.005
 6378.00    0.72108   0.78861    0.005
 6379.00    0.69844   0.78718    0.005
 6380.00    0.68518   0.78635    0.005
 6381.00    0.67758   0.78754    0.005
 6382.00    0.63951   0.79026    0.005
 6383.00    0.58538   0.79278    0.005
 6384.00    0.56187   0.79398    0.005
 6385.00    0.55237   0.79362    0.005
 6386.00    0.59571   0.79182    0.005
 6387.00    0.65985   0.78901    0.005
 6388.00    0.67560   0.78626    0.005
 6389.00    0.67512   0.78473    0.005
 6390.00    0.68275   0.78478    0.005
 6391.00    0.69265   0.78573    0.005
 6392.00    0.70428   0.78661    0.005
 6393.00    0.71631   0.78707    0.005
 6394.00    0.69958   0.78734    0.005
 6395.00    0.67749   0.78767    0.005
 6396.00    0.69411   0.78798    0.005
 6397.00    0.71630   0.78807    0.005
 6398.00    0.71824   0.78786    0.005
 6399.00    0.71808   0.78706    0.005
 6400.00    0.70012   0.78507    0.005
 6401.00    0.68096   0.78186    0.005
 6402.00    0.72766   0.77894    0.005
 6403.00    0.77651   0.77832    0.005
 6404.00    0.84740   0.78051    0.005
 6405.00    0.91435   0.78392    0.005
 6406.00    0.85842   0.78599    0.005
 6407.00    0.80104   0.78499    0.005
 6408.00    0.72188   0.78155    0.005
 6409.00    0.64968   0.77853    0.005
 6410.00    0.64470   0.77855    0.005
 6411.00    0.63712   0.78160    0.005
 6412.00    0.61130   0.78551    0.005
 6413.00    0.58699   0.78807    0.005
 6414.00    0.57084   0.78841    0.005
 6415.00    0.56459   0.78698    0.005
 6416.00    0.60108   0.78508    0.005
 6417.00    0.62448   0.78406    0.005
 6418.00    0.60126   0.78405    0.005
 6419.00    0.58360   0.78387    0.005
 6420.00    0.58261   0.78276    0.005
 6421.00    0.59457   0.78142    0.005
 6422.00    0.63951   0.78116    0.005
 6423.00    0.66793   0.78236    0.004
 6424.00    0.66013   0.78421    0.004
 6425.00    0.64250   0.78557    0.004
 6426.00    0.60616   0.78564    0.005
 6427.00    0.58661   0.78421    0.005
 6428.00    0.59489   0.78171    0.005
 6429.00    0.60256   0.77940    0.005
 6430.00    0.60934   0.77896    0.005
 6431.00    0.64439   0.78098    0.005
 6432.00    0.71557   0.78432    0.005
 6433.00    0.78768   0.78717    0.005
 6434.00    0.86083   0.78879    0.005
 6435.00    0.91829   0.78955    0.005
 6436.00    0.96017   0.78967    0.005
 6437.00    0.95206   0.78840    0.005
 6438.00    0.90015   0.78507    0.005
 6439.00    0.83378   0.78062    0.005
 6440.00    0.75626   0.77742    0.005
 6441.00    0.72742   0.77720    0.005
 6442.00    0.73163   0.77958    0.005
 6443.00    0.74839   0.78273    0.005
 6444.00    0.77262   0.78499    0.005
 6445.00    0.80091   0.78545    0.005
 6446.00    0.83129   0.78385    0.005
 6447.00    0.79686   0.78110    0.005
 6448.00    0.73328   0.77933    0.005
 6449.00    0.66658   0.78022    0.005
 6450.00    0.59869   0.78347    0.005
 6451.00    0.60578   0.78717    0.005
 6452.00    0.63753   0.78980    0.005
 6453.00    0.66697   0.79113    0.005
 6454.00    0.69578   0.79155    0.004
 6455.00    0.66407   0.79082    0.005
 6456.00    0.61863   0.78786    0.005
 6457.00    0.58407   0.78203    0.005
 6458.00    0.55148   0.77478    0.005
 6459.00    0.60836   0.76953    0.005
 6460.00    0.67768   0.76893    0.005
 6461.00    0.67454   0.77251    0.005
 6462.00    0.66416   0.77704    0.005
 6463.00    0.58406   0.77958    0.005
 6464.00    0.49955   0.77981    0.005
 6465.00    0.48538   0.77959    0.005
 6466.00    0.47345   0.78075    0.005
 6467.00    0.52764   0.78336    0.005
 6468.00    0.58356   0.78564    0.005
 6469.00    0.68751   0.78530    0.005
 6470.00    0.78779   0.78160    0.005
 6471.00    0.83620   0.77636    0.005
 6472.00    0.87296   0.77285    0.005
 6473.00    0.80179   0.77312    0.005
 6474.00    0.73740   0.77652    0.005
 6475.00    0.71887   0.78066    0.005
 6476.00    0.70112   0.78361    0.005
 6477.00    0.68741   0.78475    0.005
 6478.00    0.66615   0.78420    0.005
 6479.00    0.61302   0.78256    0.005
 6480.00    0.57552   0.78072    0.005
 6481.00    0.59254   0.77928    0.005
 6482.00    0.60710   0.77818    0.005
 6483.00    0.61443   0.77720    0.005
 6484.00    0.64294   0.77665    0.005
 6485.00    0.72441   0.77711    0.005
 6486.00    0.79622   0.77853    0.005
 6487.00    0.84717   0.77979    0.005
 6488.00    0.87656   0.77945    0.005
 6489.00    0.86562   0.77687    0.005
 6490.00    0.82902   0.77269    0.005
 6491.00    0.75051   0.76870    0.005
 6492.00    0.68273   0.76689    0.005
 6493.00    0.63032   0.76801    0.005
 6494.00    0.58935   0.77092    0.005
 6495.00    0.56279   0.77373    0.004
 6496.00    0.55952   0.77530    0.004
 6497.00    0.58210   0.77539    0.004
 6498.00    0.60790   0.77418    0.004
 6499.00    0.63686   0.77191    0.004
 6500.00    0.64054   0.76868    0.005
 6501.00    0.62238   0.76404    0.005
 6502.00    0.61008   0.75758    0.005
 6503.00    0.60222   0.75001    0.004
 6504.00    0.60344   0.74352    0.005
 6505.00    0.61073   0.74038    0.005
 6506.00    0.61993   0.74114    0.005
 6507.00    0.63024   0.74459    0.005
 6508.00    0.62240   0.74926    0.005
 6509.00    0.60529   0.75414    0.005
 6510.00    0.59192   0.75870    0.005
 6511.00    0.58021   0.76261    0.005
 6512.00    0.55853   0.76563    0.005
 6513.00    0.53305   0.76777    0.005
 6514.00    0.50941   0.76910    0.005
 6515.00    0.48636   0.76955    0.005
 6516.00    0.49187   0.76915    0.005
 6517.00    0.50510   0.76835    0.005
 6518.00    0.59173   0.76799    0.005
 6519.00    0.69461   0.76852    0.005
 6520.00    0.71713   0.76959    0.005
 6521.00    0.72547   0.77038    0.005
 6522.00    0.70192   0.77029    0.005
 6523.00    0.67408   0.76917    0.004
 6524.00    0.66209   0.76724    0.004
 6525.00    0.65161   0.76499    0.004
 6526.00    0.64101   0.76312    0.004
 6527.00    0.63041   0.76223    0.004
 6528.00    0.65381   0.76261    0.000
 6529.00    0.67806   0.76414    0.000
 6530.00    0.69998   0.76610    0.000
 6531.00    0.72078   0.76752    0.000
 6532.00    0.71326   0.76793    0.000
 6533.00    0.70543   0.76749    0.000
 6534.00    0.69352   0.76646    0.000
 6535.00    0.67837   0.76506    0.000
 6536.00    0.63438   0.76380    0.000
 6537.00    0.59356   0.76339    0.000
 6538.00    0.57352   0.76386    0.000
 6539.00    0.56204   0.76426    0.000
 6540.00    0.59428   0.76368    0.000
 6541.00    0.63424   0.76236    0.000
 6542.00    0.70609   0.76140    0.000
 6543.00    0.77351   0.76156    0.000
 6544.00    0.82578   0.76246    0.000
 6545.00    0.88149   0.76318    0.000
 6546.00    0.94713   0.76332    0.000
 6547.00    0.98446   0.76319    0.000
 6548.00    0.95218   0.76317    0.000
 6549.00    0.89262   0.76293    0.000
 6550.00    0.77524   0.76167    0.000
 6551.00    0.67362   0.75893    0.000
 6552.00    0.60103   0.75497    0.000
 6553.00    0.57158   0.75032    0.000
 6554.00    0.61158   0.74556    0.000
 6555.00    0.70088   0.74141    0.000
 6556.00    0.85980   0.73873    0.000
 6557.00    1.05151   0.73758    0.000
 6558.00    1.28395   0.73664    0.000
 6559.00    1.44797   0.73432    0.000
 6560.00    1.53705   0.73012    0.000
 6561.00    1.53794   0.72446    0.000
 6562.00    1.45364   0.71771    0.000
 6563.00    1.28885   0.70986    0.000
 6564.00    1.05550   0.70096    0.000
 6565.00    0.88100   0.69117    0.000
 6566.00    0.75065   0.68012    0.000
 6567.00    0.64851   0.66638    0.000
 6568.00    0.56496   0.64745    0.000
 6569.00    0.52060   0.62089    0.000
 6570.00    0.49886   0.58744    0.000
 6571.00    0.49556   0.55463    0.000
 6572.00    0.50154   0.53606    0.000
 6573.00    0.53918   0.54242    0.000
 6574.00    0.59060   0.57108    0.000
 6575.00    0.63658   0.60794    0.000
 6576.00    0.68054   0.64027    0.000
 6577.00    0.70847   0.66382    0.000
 6578.00    0.73132   0.67994    0.000
 6579.00    0.83190   0.69125    0.000
 6580.00    0.95303   0.69947    0.000
 6581.00    0.98024   0.70511    0.000
 6582.00    0.98715   0.70877    0.000
 6583.00    0.90569   0.71191    0.000
 6584.00    0.80906   0.71579    0.000
 6585.00    0.73089   0.72046    0.000
 6586.00    0.65512   0.72504    0.000
 6587.00    0.64443   0.72882    0.000
 6588.00    0.63968   0.73171    0.000
 6589.00    0.66844   0.73376    0.000
 6590.00    0.69906   0.73515    0.000
 6591.00    0.69022   0.73640    0.000
 6592.00    0.68076   0.73836    0.000
 6593.00    0.69247   0.74136    0.000
 6594.00    0.70114   0.74466    0.000
 6595.00    0.63995   0.74775    0.000
 6596.00    0.57644   0.75038    0.000
 6597.00    0.48362   0.75273    0.000
 6598.00    0.40581   0.75428    0.000
 6599.00    0.45677   0.75406    0.000
 6600.00    0.51428   0.75151    0.000
 6601.00    0.61345   0.74711    0.000
 6602.00    0.69654   0.74294    0.000
 6603.00    0.69957   0.74156    0.000
 6604.00    0.68849   0.74359    0.000
 6605.00    0.62044   0.74704    0.000
 6606.00    0.56616   0.74949    0.000
 6607.00    0.55801   0.75034    0.000
 6608.00    0.55029   0.75079    0.000
 6609.00    0.54377   0.75218    0.005
 6610.00    0.55316   0.75447    0.005
 6611.00    0.60103   0.75633    0.005
 6612.00    0.63545   0.75671    0.005
 6613.00    0.64179   0.75557    0.005
 6614.00    0.64630   0.75354    0.005
 6615.00    0.64751   0.75130    0.005
 6616.00    0.65808   0.74922    0.004
 6617.00    0.68352   0.74760    0.004
 6618.00    0.70537   0.74705    0.004
 6619.00    0.72224   0.74823    0.004
 6620.00    0.73285   0.75089    0.004
 6621.00    0.73582   0.75346    0.004
 6622.00    0.72700   0.75470    0.004
 6623.00    0.70545   0.75503    0.004
 6624.00    0.67094   0.75552    0.005
 6625.00    0.62410   0.75640    0.005
 6626.00    0.62557   0.75712    0.005
 6627.00    0.66762   0.75750    0.005
 6628.00    0.70229   0.75781    0.005
 6629.00    0.73150   0.75807    0.005
 6630.00    0.71324   0.75788    0.005
 6631.00    0.66414   0.75663    0.005
 6632.00    0.66001   0.75412    0.005
 6633.00    0.68144   0.75096    0.005
 6634.00    0.78607   0.74851    0.005
 6635.00    0.93187   0.74782    0.005
 6636.00    0.98735   0.74871    0.005
 6637.00    1.00419   0.74994    0.005
 6638.00    0.95190   0.75053    0.005
 6639.00    0.87427   0.75022    0.005
 6640.00    0.81258   0.74920    0.005
 6641.00    0.75584   0.74767    0.005
 6642.00    0.70982   0.74605    0.005
 6643.00    0.66659   0.74523    0.004
 6644.00    0.67930   0.74596    0.004
 6645.00    0.70381   0.74787    0.005
 6646.00    0.68251   0.74982    0.005
 6647.00    0.65357   0.75091    0.005
 6648.00    0.59983   0.75101    0.005
 6649.00    0.54297   0.75058    0.005
 6650.00    0.50653   0.75004    0.005
 6651.00    0.47188   0.74913    0.005
 6652.00    0.53261   0.74764    0.005
 6653.00    0.59824   0.74643    0.005
 6654.00    0.64236   0.74641    0.005
 6655.00    0.68447   0.74732    0.005
 6656.00    0.61109   0.74824    0.005
 6657.00    0.54248   0.74876    0.005
 6658.00    0.57432   0.74898    0.005
 6659.00    0.60698   0.74886    0.005
 6660.00    0.64949   0.74826    0.005
 6661.00    0.67962   0.74738    0.005
 6662.00    0.60753   0.74670    0.005
 6663.00    0.53908   0.74649    0.005
 6664.00    0.49307   0.74660    0.005
 6665.00    0.46135   0.74663    0.004
 6666.00    0.49903   0.74644    0.005
 6667.00    0.53751   0.74613    0.005
 6668.00    0.57916   0.74559    0.005
 6669.00    0.60265   0.74457    0.005
 6670.00    0.56654   0.74295    0.005
 6671.00    0.53543   0.74083    0.005
 6672.00    0.51824   0.73865    0.005
 6673.00    0.50074   0.73729    0.005
 6674.00    0.48255   0.73704    0.005
 6675.00    0.46142   0.73738    0.005
 6676.00    0.43425   0.73805    0.005
 6677.00    0.42769   0.73925    0.005
 6678.00    0.45793   0.74123    0.005
 6679.00    0.47336   0.74360    0.005
 6680.00    0.46564   0.74557    0.005
 6681.00    0.47434   0.74654    0.005
 6682.00    0.50556   0.74631    0.005
 6683.00    0.53523   0.74450    0.005
 6684.00    0.56303   0.74010    0.005
 6685.00    0.60028   0.73165    0.005
 6686.00    0.64758   0.71973    0.005
 6687.00    0.68569   0.70938    0.005
 6688.00    0.71517   0.70599    0.005
 6689.00    0.73030   0.71074    0.005
 6690.00    0.73355   0.71951    0.005
 6691.00    0.70835   0.72728    0.005
 6692.00    0.66240   0.73234    0.005
 6693.00    0.60830   0.73516    0.005
 6694.00    0.54898   0.73670    0.005
 6695.00    0.51271   0.73751    0.005
 6696.00    0.48934   0.73789    0.000
 6697.00    0.48619   0.73826    0.000
 6698.00    0.49289   0.73894    0.000
 6699.00    0.48883   0.73975    0.000
 6700.00    0.48023   0.74033    0.000
 6701.00    0.48089   0.74049    0.000
 6702.00    0.48489   0.74023    0.000
 6703.00    0.51409   0.73952    0.000
 6704.00    0.55095   0.73831    0.000
 6705.00    0.61492   0.73686    0.000
 6706.00    0.68575   0.73591    0.000
 6707.00    0.71431   0.73604    0.000
 6708.00    0.73417   0.73720    0.000
 6709.00    0.74859   0.73876    0.000
 6710.00    0.76213   0.73981    0.000
 6711.00    0.77348   0.73988    0.000
 6712.00    0.78456   0.73910    0.000
 6713.00    0.70240   0.73812    0.000
 6714.00    0.61250   0.73765    0.000
 6715.00    0.55127   0.73784    0.000
 6716.00    0.49140   0.73833    0.000
 6717.00    0.46150   0.73864    0.000
 6718.00    0.43286   0.73842    0.000
 6719.00    0.45127   0.73771    0.000
 6720.00    0.47251   0.73692    0.000
 6721.00    0.54904   0.73620    0.000
 6722.00    0.61852   0.73513    0.000
 6723.00    0.60696   0.73323    0.000
 6724.00    0.60203   0.73035    0.000
 6725.00    0.64985   0.72694    0.000
 6726.00    0.68617   0.72402    0.000
 6727.00    0.65350   0.72283    0.000
 6728.00    0.63959   0.72370    0.000
 6729.00    0.71454   0.72558    0.000
 6730.00    0.78633   0.72728    0.000
 6731.00    0.84591   0.72849    0.000
 6732.00    0.88969   0.72949    0.000
 6733.00    0.88263   0.73035    0.000
 6734.00    0.83937   0.73084    0.000
 6735.00    0.69744   0.73092    0.000
 6736.00    0.59958   0.73092    0.000
 6737.00    0.60469   0.73123    0.000
 6738.00    0.60928   0.73194    0.000
 6739.00    0.61282   0.73277    0.000
 6740.00    0.62733   0.73331    0.000
 6741.00    0.66117   0.73332    0.000
 6742.00    0.66499   0.73292    0.000
 6743.00    0.62260   0.73249    0.000
 6744.00    0.59483   0.73228    0.000
 6745.00    0.58682   0.73221    0.000
 6746.00    0.59682   0.73180    0.000
 6747.00    0.62828   0.73080    0.000
 6748.00    0.65720   0.72960    0.000
 6749.00    0.68347   0.72879    0.000
 6750.00    0.68585   0.72839    0.000
 6751.00    0.66611   0.72792    0.000
 6752.00    0.69824   0.72727    0.000
 6753.00    0.77270   0.72686    0.005
 6754.00    0.75099   0.72685    0.005
 6755.00    0.66019   0.72690    0.006
 6756.00    0.58504   0.72665    0.006
 6757.00    0.51976   0.72603    0.006
 6758.00    0.51684   0.72534    0.006
 6759.00    0.54829   0.72484    0.006
 6760.00    0.60527   0.72449    0.006
 6761.00    0.67447   0.72403    0.006
 6762.00    0.73386   0.72369    0.006
 6763.00    0.78919   0.72409    0.006
 6764.00    0.77432   0.72548    0.006
 6765.00    0.73462   0.72760    0.006
 6766.00    0.70141   0.72983    0.006
 6767.00    0.67015   0.73166    0.006
 6768.00    0.70607   0.73284    0.006
 6769.00    0.75863   0.73327    0.006
 6770.00    0.75127   0.73298    0.005
 6771.00    0.73190   0.73224    0.005
 6772.00    0.71289   0.73148    0.005
 6773.00    0.69394   0.73076    0.005
 6774.00    0.70753   0.72971    0.005
 6775.00    0.72491   0.72807    0.005
 6776.00    0.70420   0.72630    0.005
 6777.00    0.68048   0.72520    0.005
 6778.00    0.62045   0.72506    0.005
 6779.00    0.55883   0.72547    0.005
 6780.00    0.67369   0.72604    0.005
 6781.00    0.78649   0.72696    0.005
 6782.00    0.71672   0.72846    0.005
 6783.00    0.65055   0.73039    0.005
 6784.00    0.64944   0.73218    0.005
 6785.00    0.64825   0.73336    0.005
 6786.00    0.64606   0.73388    0.005
 6787.00    0.65427   0.73390    0.005
 6788.00    0.74241   0.73344    0.005
 6789.00    0.81083   0.73232    0.005
 6790.00    0.76437   0.73030    0.005
 6791.00    0.72088   0.72725    0.006
 6792.00    0.69112   0.72352    0.005
 6793.00    0.66215   0.72004    0.005
 6794.00    0.63616   0.71786    0.005
 6795.00    0.63475   0.71760    0.005
 6796.00    0.71093   0.71900    0.005
 6797.00    0.77227   0.72104    0.005
 6798.00    0.79388   0.72268    0.005
 6799.00    0.82303   0.72347    0.005
 6800.00    0.86950   0.72353    0.005
 6801.00    0.84808   0.72319    0.005
 6802.00    0.69162   0.72272    0.005
 6803.00    0.62495   0.72244    0.005
 6804.00    0.71383   0.72254    0.005
 6805.00    0.72823   0.72308    0.005
 6806.00    0.62963   0.72377    0.005
 6807.00    0.61136   0.72433    0.005
 6808.00    0.70014   0.72484    0.005
 6809.00    0.72523   0.72548    0.005
 6810.00    0.67556   0.72624    0.005
 6811.00    0.64042   0.72689    0.005
 6812.00    0.62030   0.72718    0.005
 6813.00    0.59444   0.72711    0.006
 6814.00    0.56333   0.72678    0.006
 6815.00    0.56547   0.72630    0.006
 6816.00    0.59436   0.72591    0.006
 6817.00    0.63030   0.72571    0.006
 6818.00    0.67121   0.72567    0.005
 6819.00    0.61605   0.72576    0.005
 6820.00    0.50121   0.72575    0.005
 6821.00    0.50378   0.72552    0.005
 6822.00    0.57008   0.72497    0.005
 6823.00    0.60614   0.72400    0.005
 6824.00    0.62795   0.72304    0.005
 6825.00    0.61734   0.72266    0.005
 6826.00    0.59354   0.72307    0.005
 6827.00    0.66387   0.72378    0.005
 6828.00    0.76689   0.72417    0.006
 6829.00    0.76196   0.72418    0.005
 6830.00    0.72545   0.72441    0.005
 6831.00    0.74725   0.72522    0.005
 6832.00    0.78319   0.72639    0.006
 6833.00    0.74845   0.72731    0.005
 6834.00    0.69990   0.72755    0.005
 6835.00    0.77835   0.72697    0.005
 6836.00    0.87617   0.72565    0.006
 6837.00    0.84069   0.72397    0.006
 6838.00    0.79025   0.72261    0.006
 6839.00    0.79915   0.72216    0.006
 6840.00    0.81249   0.72246    0.006
 6841.00    0.72042   0.72283    0.006
 6842.00    0.62416   0.72301    0.006
 6843.00    0.65655   0.72320    0.006
 6844.00    0.69035   0.72372    0.006
 6845.00    0.74481   0.72436    0.005
 6846.00    0.79346   0.72434    0.005
 6847.00    0.74411   0.72326    0.005
 6848.00    0.70029   0.72129    0.005
 6849.00    0.71443   0.71879    0.005
 6850.00    0.72352   0.71643    0.005
 6851.00    0.69498   0.71509    0.005
 6852.00    0.66352   0.71541    0.005
 6853.00    0.61544   0.71730    0.005
 6854.00    0.59641   0.71972    0.005
 6855.00    0.70850   0.72149    0.005
 6856.00    0.76357   0.72215    0.005
 6857.00    0.60754   0.72205    0.005
 6858.00    0.49072   0.72181    0.005
 6859.00    0.49537   0.72167    0.006
 6860.00    0.50861   0.72152    0.006
 6861.00    0.54443   0.72126    0.006
 6862.00    0.57593   0.72059    0.006
 6863.00    0.59766   0.71930    0.006
 6864.00    0.65116   0.71766    0.006
 6865.00    0.76683   0.71626    0.006
 6866.00    0.82929   0.71573    0.007
 6867.00    0.80093   0.71599    0.007
 6868.00    0.77432   0.71616    0.007
 6869.00    0.75033   0.71556    0.007
 6870.00    0.68032   0.71447    0.007
 6871.00    0.54988   0.71394    0.006
 6872.00    0.51508   0.71489    0.006
 6873.00    0.59096   0.71705    0.006
 6874.00    0.61844   0.71896    0.005
 6875.00    0.59652   0.71939    0.005
 6876.00    0.54217   0.71835    0.005
 6877.00    0.45864   0.71693    0.005
 6878.00    0.42401   0.71603    0.005
 6879.00    0.42816   0.71571    0.005
 6880.00    0.46664   0.71544    0.005
 6881.00    0.52908   0.71488    0.005
 6882.00    0.52473   0.71443    0.005
 6883.00    0.47952   0.71476    0.005
 6884.00    0.49518   0.71598    0.005
 6885.00    0.54336   0.71775    0.005
 6886.00    0.61386   0.71973    0.005
 6887.00    0.69472   0.72154    0.006
 6888.00    0.62948   0.72259    0.006
 6889.00    0.50583   0.72222    0.006
 6890.00    0.48177   0.72027    0.006
 6891.00    0.49165   0.71746    0.006
 6892.00    0.51895   0.71499    0.006
 6893.00    0.55124   0.71390    0.005
 6894.00    0.51129   0.71426    0.005
 6895.00    0.45423   0.71533    0.005
 6896.00    0.54132   0.71636    0.005
 6897.00    0.65590   0.71724    0.006
 6898.00    0.76948   0.71821    0.006
 6899.00    0.88291   0.71921    0.006
 6900.00    0.86359   0.72001    0.006
 6901.00    0.82994   0.72047    0.006
 6902.00    0.77205   0.72050    0.006
 6903.00    0.71244   0.72027    0.006
 6904.00    0.69440   0.72007    0.006
 6905.00    0.67785   0.72006    0.006
 6906.00    0.65829   0.72032    0.005
 6907.00    0.64127   0.72075    0.005
 6908.00    0.71252   0.72096    0.005
 6909.00    0.77152   0.72075    0.006
 6910.00    0.63664   0.72039    0.006
 6911.00    0.50469   0.72042    0.005
 6912.00    0.40222   0.72094    0.005
 6913.00    0.31870   0.72146    0.005
 6914.00    0.37145   0.72174    0.006
 6915.00    0.43339   0.72210    0.006
 6916.00    0.54601   0.72288    0.006
 6917.00    0.62515   0.72395    0.006
 6918.00    0.55667   0.72473    0.005
 6919.00    0.52380   0.72474    0.005
 6920.00    0.61997   0.72387    0.006
 6921.00    0.67071   0.72225    0.006
 6922.00    0.58336   0.72031    0.006
 6923.00    0.53242   0.71859    0.006
 6924.00    0.57561   0.71753    0.006
 6925.00    0.61986   0.71741    0.006
 6926.00    0.66647   0.71806    0.006
 6927.00    0.72259   0.71902    0.006
 6928.00    0.79703   0.72007    0.006
 6929.00    0.81760   0.72095    0.006
 6930.00    0.74766   0.72143    0.006
 6931.00    0.67958   0.72132    0.006
 6932.00    0.61425   0.72036    0.006
 6933.00    0.58692   0.71858    0.006
 6934.00    0.60879   0.71656    0.006
 6935.00    0.55692   0.71539    0.006
 6936.00    0.42091   0.71575    0.006
 6937.00    0.45326   0.71738    0.006
 6938.00    0.65501   0.71924    0.006
 6939.00    0.68047   0.72038    0.006
 6940.00    0.54949   0.72054    0.006
 6941.00    0.52143   0.71990    0.006
 6942.00    0.57383   0.71902    0.006
 6943.00    0.58940   0.71850    0.006
 6944.00    0.57965   0.71875    0.006
 6945.00    0.51706   0.71937    0.006
 6946.00    0.42263   0.71972    0.006
 6947.00    0.41796   0.71985    0.006
 6948.00    0.46052   0.72019    0.006
 6949.00    0.50958   0.72090    0.006
 6950.00    0.56159   0.72157    0.006
 6951.00    0.53247   0.72157    0.006
 6952.00    0.47147   0.72049    0.006
 6953.00    0.42933   0.71859    0.006
 6954.00    0.39348   0.71671    0.006
 6955.00    0.47442   0.71590    0.006
 6956.00    0.58817   0.71682    0.006
 6957.00    0.47305   0.71890    0.006
 6958.00    0.30495   0.72083    0.006
 6959.00    0.45615   0.72164    0.006
 6960.00    0.66662   0.72107    0.006
 6961.00    0.64518   0.71953    0.006
 6962.00    0.59055   0.71793    0.006
 6963.00    0.54421   0.71686    0.006
 6964.00    0.49872   0.71658    0.006
 6965.00    0.59821   0.71725    0.006
 6966.00    0.70737   0.71857    0.006
 6967.00    0.64988   0.71986    0.006
 6968.00    0.58705   0.72069    0.006
 6969.00    0.61490   0.72118    0.006
 6970.00    0.63686   0.72160    0.006
 6971.00    0.47838   0.72204    0.006
 6972.00    0.33533   0.72240    0.006
 6973.00    0.42209   0.72257    0.006
 6974.00    0.50473   0.72245    0.006
 6975.00    0.54790   0.72213    0.006
 6976.00    0.57696   0.72201    0.006
 6977.00    0.50783   0.72235    0.006
 6978.00    0.44974   0.72282    0.006
 6979.00    0.45100   0.72284    0.006
 6980.00    0.44311   0.72234    0.006
 6981.00    0.39587   0.72178    0.006
 6982.00    0.37657   0.72151    0.006
 6983.00    0.45649   0.72111    0.006
 6984.00    0.54358   0.71982    0.006
 6985.00    0.65203   0.71727    0.006
 6986.00    0.72087   0.71358    0.006
 6987.00    0.68908   0.70943    0.006
 6988.00    0.63508   0.70621    0.006
 6989.00    0.53252   0.70565    0.006
 6990.00    0.44477   0.70826    0.006
 6991.00    0.38511   0.71260    0.006
 6992.00    0.35421   0.71695    0.006
 6993.00    0.37094   0.72032    0.006
 6994.00    0.42864   0.72235    0.006
 6995.00    0.54583   0.72311    0.006
 6996.00    0.62883   0.72280    0.006
 6997.00    0.66817   0.72153    0.006
 6998.00    0.64628   0.71967    0.006
 6999.00    0.55549   0.71803    0.006
 7000.00    0.50039   0.71754    0.006
 7001.00    0.48069   0.71831    0.006
 7002.00    0.47540   0.71947    0.006
 7003.00    0.48270   0.72007    0.006
 7004.00    0.54628   0.71999    0.006
 7005.00    0.65325   0.71970    0.006
 7006.00    0.62637   0.71945    0.006
 7007.00    0.50879   0.71892    0.006
 7008.00    0.41058   0.71782    0.006
 7009.00    0.32388   0.71639    0.006
 7010.00    0.26845   0.71549    0.006
 7011.00    0.22921   0.71558    0.006
 7012.00    0.23803   0.71611    0.006
 7013.00    0.26841   0.71615    0.006
 7014.00    0.43024   0.71543    0.006
 7015.00    0.64279   0.71470    0.006
 7016.00    0.64450   0.71466    0.006
 7017.00    0.57702   0.71541    0.006
 7018.00    0.61405   0.71650    0.006
 7019.00    0.67984   0.71745    0.006
 7020.00    0.60323   0.71793    0.006
 7021.00    0.49442   0.71799    0.006
 7022.00    0.50804   0.71769    0.006
 7023.00    0.54379   0.71659    0.006
 7024.00    0.52678   0.71417    0.006
 7025.00    0.50245   0.71093    0.006
 7026.00    0.58578   0.70863    0.006
 7027.00    0.67979   0.70914    0.006
 7028.00    0.62236   0.71228    0.006
 7029.00    0.55544   0.71607    0.006
 7030.00    0.57475   0.71867    0.006
 7031.00    0.59646   0.71926    0.006
 7032.00    0.60801   0.71813    0.006
 7033.00    0.61478   0.71622    0.006
 7034.00    0.49035   0.71470    0.006
 7035.00    0.38421   0.71431    0.006
 7036.00    0.53469   0.71483    0.006
 7037.00    0.66856   0.71575    0.006
 7038.00    0.64928   0.71691    0.006
 7039.00    0.63618   0.71823    0.006
 7040.00    0.66472   0.71938    0.006
 7041.00    0.68402   0.71995    0.006
 7042.00    0.65504   0.71987    0.006
 7043.00    0.63491   0.71958    0.006
 7044.00    0.65198   0.71945    0.006
 7045.00    0.61945   0.71929    0.006
 7046.00    0.41433   0.71841    0.006
 7047.00    0.26874   0.71670    0.006
 7048.00    0.29739   0.71544    0.006
 7049.00    0.37122   0.71656    0.006
 7050.00    0.55785   0.72042   -2.000
 7051.00    0.62035   0.72522   -2.000
 7052.00    0.41587   0.72870   -2.000
 7053.00    0.33499   0.72975   -2.000
 7054.00    0.48490   0.72903   -2.000
 7055.00    0.59544   0.72810   -2.000
 7056.00    0.64179   0.72786   -2.000
 7057.00    0.64845   0.72803   -2.000
 7058.00    0.59835   0.72760   -2.000
 7059.00    0.58598   0.72591   -2.000
 7060.00    0.62107   0.72336   -2.000
 7061.00    0.55325   0.72023   -2.000
 7062.00    0.37132   0.71646   -2.000
 7063.00    0.26672   0.71239   -2.000
 7064.00    0.23778   0.70895   -2.000
 7065.00    0.34258   0.70710   -2.000
 7066.00    0.56274   0.70700   -2.000
 7067.00    0.60774   0.70751   -2.000
 7068.00    0.51966   0.70731   -2.000
 7069.00    0.44829   0.70599   -2.000
 7070.00    0.38806   0.70424   -2.000
 7071.00    0.36329   0.70306   -2.000
 7072.00    0.35925   0.70281   -2.000
 7073.00    0.35469   0.70306   -2.000
 7074.00    0.34986   0.70293   -2.000
 7075.00    0.29747   0.70183   -2.000
 7076.00    0.22408   0.70014   -2.000
 7077.00    0.41064   0.69868   -2.000
 7078.00    0.69577   0.69841   -2.000
 7079.00    0.68363   0.69985   -2.000
 7080.00    0.57575   0.70262   -2.000
 7081.00    0.50183   0.70579   -2.000
 7082.00    0.43707   0.70841   -2.000
 7083.00    0.37741   0.71002   -2.000
 7084.00    0.31889   0.71068   -2.000
 7085.00    0.42254   0.71073   -2.000
 7086.00    0.55470   0.71051   -2.000
 7087.00    0.57294   0.71041   -2.000
 7088.00    0.57591   0.71058   -2.000
 7089.00    0.35067   0.71087   -2.000
 7090.00    0.10374   0.71078   -2.000
 7091.00    0.21378   0.70959   -2.000
 7092.00    0.34476   0.70679   -2.000
 7093.00    0.42459   0.70263   -2.000
 7094.00    0.50138   0.69809   -2.000
 7095.00    0.33588   0.69430   -2.000
 7096.00    0.19354   0.69136   -2.000
 7097.00    0.62699   0.68872   -2.000
 7098.00    1.01103   0.68623   -2.000
 7099.00    0.73888   0.68421   -2.000
 7100.00    0.48183   0.68319   -2.000
 7101.00    0.35851   0.68318   -2.000
 7102.00    0.27801   0.68353   -2.000
 7103.00    0.47722   0.68380   -2.000
 7104.00    0.63441   0.68386   -2.000
 7105.00    0.57756   0.68391   -2.000
 7106.00    0.52029   0.68429   -2.000
 7107.00    0.46125   0.68530   -2.000
 7108.00    0.43833   0.68720   -2.000
 7109.00    0.53857   0.68947   -2.000
 7110.00    0.57310   0.69117   -2.000
 7111.00    0.41886   0.69167   -2.000
 7112.00    0.33841   0.69120   -2.000
 7113.00    0.43901   0.69083   -2.000
 7114.00    0.49747   0.69125   -2.000
 7115.00    0.46678   0.69218   -2.000
 7116.00    0.45347   0.69293   -2.000
 7117.00    0.47210   0.69318   -2.000
 7118.00    0.47953   0.69289   -2.000
 7119.00    0.46896   0.69208   -2.000
 7120.00    0.61408   0.69085   -2.000
 7121.00    0.97869   0.68980   -2.000
 7122.00    1.14482   0.68967   -2.000
 7123.00    1.06477   0.69071   -2.000
 7124.00    0.83065   0.69247   -2.000
 7125.00    0.42810   0.69427   -2.000
 7126.00    0.34204   0.69570   -2.000
 7127.00    0.56118   0.69664   -2.000
 7128.00   -0.79303   0.69709   -2.000
 7129.00   -3.48517   0.69709   -2.000
 7130.00   -3.00606   0.69674   -2.000
 7131.00   -0.15203   0.69611   -2.000
 7132.00    0.81587   0.69531   -2.000
 7133.00    0.54277   0.69405   -2.000
 7134.00    0.63916   0.69174   -2.000
 7135.00    0.94838   0.68834   -2.000
 7136.00    0.77950   0.68467   -2.000
 7137.00    0.37072   0.68179   -2.000
 7138.00    0.24048   0.67999   -2.000
 7139.00    0.23119   0.67869   -2.000
 7140.00    0.26397   0.67753   -2.000
 7141.00    0.31243   0.67704   -2.000
 7142.00    0.36963   0.67779   -2.000
 7143.00    0.42958   0.67976   -2.000
 7144.00    0.40781   0.68213   -2.000
 7145.00    0.36448   0.68402   -2.000
 7146.00    0.32109   0.68507   -2.000
 7147.00    0.27768   0.68518   -2.000
 7148.00    0.20630   0.68472   -2.000
 7149.00    0.13014   0.68437   -2.000
 7150.00    0.14401   0.68469   -2.000
 7151.00    0.16953   0.68572   -2.000
 7152.00    0.24911   0.68692   -2.000
 7153.00    0.33359   0.68769   -2.000
 7154.00    0.33089   0.68778   -2.000
 7155.00    0.32342   0.68721   -2.000
 7156.00    0.37219   0.68586   -2.000
 7157.00    0.42574   0.68387   -2.000
 7158.00    0.80949   0.68210   -2.000
 7159.00    1.15135   0.68154   -2.000
 7160.00    0.54218   0.68269   -2.000
 7161.00   -0.03348   0.68525   -2.000
 7162.00   -0.18713   0.68817   -2.000
 7163.00   -0.27169   0.69050   -2.000
 7164.00    0.23312   0.69186   -2.000
 7165.00    0.70459   0.69261   -2.000
 7166.00    0.96469   0.69324   -2.000
 7167.00    1.11542   0.69362   -2.000
 7168.00    0.72313   0.69331   -2.000
 7169.00    0.40027   0.69225   -2.000
 7170.00    0.35690   0.69113   -2.000
 7171.00    0.31978   0.69051   -2.000
 7172.00    0.30349   0.68989   -2.000
 7173.00    0.31516   0.68858   -2.000
 7174.00    0.40568   0.68665   -2.000
 7175.00    0.42485   0.68540   -2.000
 7176.00    0.27192   0.68577   -2.000
 7177.00    0.21649   0.68748   -2.000
 7178.00    0.36408   0.68935   -2.000
 7179.00    0.45402   0.69066   -2.000
 7180.00    0.43956   0.69165   -2.000
 7181.00    0.49906   0.69278   -2.000
 7182.00    0.67561   0.69402   -2.000
 7183.00    0.69594   0.69484   -2.000
 7184.00    0.49922   0.69477   -2.000
 7185.00    0.33001   0.69394   -2.000
 7186.00    0.19442   0.69304   -2.000
 7187.00    0.15193   0.69250   -2.000
 7188.00    0.20979   0.69193   -2.000
 7189.00    0.24021   0.69070   -2.000
 7190.00    0.24454   0.68889   -2.000
 7191.00    0.23301   0.68773   -2.000
 7192.00    0.20818   0.68842   -2.000
 7193.00    0.32600   0.69061   -2.000
 7194.00    0.54910   0.69275   -2.000
 7195.00    0.80186   0.69309   -2.000
 7196.00    1.07385   0.69104   -2.000
 7197.00    1.12929   0.68751   -2.000
 7198.00    1.06189   0.68415   -2.000
 7199.00    0.65160   0.68259   -2.000
 7200.00    0.07196   0.68337   -2.000
 7201.00    0.10042   0.68552   -2.000
 7202.00    0.38855   0.68784   -2.000
 7203.00    0.45960   0.68957   -2.000
 7204.00    0.45123   0.69073   -2.000
 7205.00    0.69942   0.69129   -2.000
 7206.00    1.02708   0.69105   -2.000
 7207.00    0.83534   0.69019   -2.000
 7208.00    0.50954   0.68935   -2.000
 7209.00    0.49048   0.68913   -2.000
 7210.00    0.53596   0.68920   -2.000
 7211.00    0.44307   0.68919   -2.000
 7212.00    0.32721   0.68927   -2.000
 7213.00   -0.01094   0.68984   -2.000
 7214.00   -0.37686   0.69058   -2.000
 7215.00   -0.18747   0.69029   -2.000
 7216.00    0.05001   0.68819   -2.000
 7217.00    0.11415   0.68510   -2.000
 7218.00    0.16948   0.68286   -2.000
