###################################################################
## OUTPUT of StarlightChains_v04.for    [Cid@UFSC - 01/Apr/2007] ##
###################################################################

## Some input info
KUG0210-078._32_33.txt                   [arq_obs]
Base.CB07.vall.4m                        [arq_base]
Masks.EmLines.NEW.gm                     [arq_masks]
StCv04.C11.config                        [arq_config]
   66                                    [N_base]
    0                                    [N_YAV_components = # of components with extra extinction!]
    0                                    [i_FitPowerLaw (1/0 = Yes/No)]
-9.99                                    [alpha_PowerLaw]
CCM                                      [red_law_option]
 1.458241                                [q_norm = A(l_norm)/A(V)]

## (Re)Sampling Parameters
 3741.00                                 [l_ini (A)]
 7218.00                                 [l_fin (A)]
    1.00                                 [dl    (A)]     (OBS: dl_cushion =    50.00 A)

## Normalization info
 4020.00                                 [l_norm (A) - for base]
 4010.00                                 [llow_norm (A) - window for f_obs]
 4060.00                                 [lupp_norm (A) - window for f_obs]
9.405637E-17                             [fobs_norm (in input units)]

## S/N
 3691.00                                 [llow_SN (A) - window for S/N]
 7268.00                                 [lupp_SN (A) - window for S/N]
   4.185                                 [S/N in S/N window]
   2.781                                 [S/N in norm. window]
   0.321                                 [S/N_err in S/N window]
   0.213                                 [S/N_err in norm. window]
  1.0000                                 [fscale_chi2]

## etc...
    -2007481                             [idum_orig]
  2432                                   [NOl_eff]
  2234                                   [Nl_eff]
   198    NSIGMA                         [Ntot_cliped & clip_method]
 15853110                                [Nglobal_steps]
   7                                     [N_chains]
  24                                     [NEX0s_base = N_base in EX0s-fits]
 0   0   1      198   2.0   5.818E+04    [Clip-Bug, RC-Crash & Burn-In warning-flags, n_censored_weights, wei_nsig_threshold & wei_limit]
   105    103.896    102.858      1.038  [idt_all, wdt_TotTime, wdt_UsrTime & wdt_SysTime (sec)]

## Synthesis Results - Best model ##

 4.62751E-04                             [chi2/Nl_eff]
     5.71522                             [adev (%)]

   117.26299                             [sum-of-x (%)]
 1.56312E-16                             [Flux_tot (units of input spectrum!)]
 6.05281E-12                             [Mini_tot (???)]
 3.20027E-12                             [Mcor_tot (???)]

-120.04                                  [v0_min  (km/s)]
 227.46                                  [vd_min  (km/s)]
 0.2596                                  [AV_min  (mag)]
 0.0000                                  [YAV_min (mag)]

# j     x_j(%)      Mini_j(%)     Mcor_j(%)     age_j(yr)     Z_j      (L/M)_j    YAV?  Mstars   component_j        a/Fe...       SSP_chi2r SSP_adev(%)   SSP_AV   SSP_x(%)
  1      0.0000     0.0000E+00    0.0000E+00    1.000000E+06  0.00400  1.094E-02    0   1.0000   age020_m42            0.0000     1.6372E-03    12.2528   3.9054   103.1496
  2      0.0000     0.0000E+00    0.0000E+00    3.160000E+06  0.00400  4.007E-02    0   0.9999   age045_m42            0.0000     1.2496E-03    10.5091   3.1964   109.2044
  3      0.0000     0.0000E+00    0.0000E+00    5.010000E+06  0.00400  2.539E-02    0   0.9488   age055_m42            0.0000     1.4138E-03    11.3070   3.5026   107.2816
  4      0.0000     0.0000E+00    0.0000E+00    6.610000E+06  0.00400  2.620E-02    0   0.9220   age061_m42            0.0000     1.2376E-03    10.3539   3.1190   109.5805
  5      0.0000     0.0000E+00    0.0000E+00    1.000000E+07  0.00400  1.322E-02    0   0.8862   age070_m42            0.0000     1.3581E-03    10.7234   2.8315   111.7113
  6      0.0000     0.0000E+00    0.0000E+00    1.445000E+07  0.00400  7.883E-03    0   0.8571   age078_m42            0.0000     1.4376E-03    11.1523   3.1438   109.7530
  7      0.0000     0.0000E+00    0.0000E+00    2.512000E+07  0.00400  5.251E-03    0   0.8174   age090_m42            0.0000     1.3650E-03    10.7581   2.6986   112.4543
  8      0.0000     0.0000E+00    0.0000E+00    4.000000E+07  0.00400  3.649E-03    0   0.7851   age104_m42            0.0000     1.2770E-03    10.3421   2.4744   113.2579
  9      0.0000     0.0000E+00    0.0000E+00    5.500000E+07  0.00400  3.098E-03    0   0.7629   age110_m42            0.0000     1.1698E-03     9.7516   2.6333   113.1111
 10      0.0000     0.0000E+00    0.0000E+00    1.015200E+08  0.00400  2.228E-03    0   0.7207   age116_m42            0.0000     1.1095E-03     9.3596   2.6621   112.9608
 11      0.0000     0.0000E+00    0.0000E+00    2.861200E+08  0.00400  1.093E-03    0   0.6648   age125_m42            0.0000     1.1233E-03     9.1657   2.0998   115.4428
 12      0.0000     0.0000E+00    0.0000E+00    5.088000E+08  0.00400  6.597E-04    0   0.6365   age130_m42            0.0000     9.8477E-04     8.3866   2.0984   116.2338
 13      0.0000     0.0000E+00    0.0000E+00    1.434000E+09  0.00400  2.132E-04    0   0.5798   age139_m42            0.0000     7.0517E-04     6.9573   1.1410   118.1885
 14      0.0000     0.0000E+00    0.0000E+00    4.250000E+09  0.00400  5.895E-05    0   0.5377   age158_m42            0.0000     6.1222E-04     7.0505   0.6879   114.7786
 15      0.0037     2.3526E-03    2.3192E-03    7.500000E+09  0.00400  3.510E-05    0   0.5212   age171_m42            0.0000     5.7672E-04     6.8013   0.4979   114.1865
 16      0.7069     7.7648E-01    7.3929E-01    1.300000E+10  0.00400  2.005E-05    0   0.5034   age193_m42            0.0000     5.6986E-04     6.6457   0.3348   113.4771
 17      0.0000     0.0000E+00    0.0000E+00    1.800000E+10  0.00400  1.525E-05    0   0.4967   age213_m42            0.0000     5.8004E-04     6.7445   0.3107   113.0567
 18      0.0000     0.0000E+00    0.0000E+00    1.000000E+06  0.00800  1.238E-02    0   1.0000   age020_m52            0.0000     1.6352E-03    12.2436   3.9032   103.2856
 19      0.0000     0.0000E+00    0.0000E+00    3.160000E+06  0.00800  3.074E-02    0   0.9966   age045_m52            0.0000     1.6041E-03    12.1458   3.8255   104.2968
 20      0.0000     0.0000E+00    0.0000E+00    5.010000E+06  0.00800  2.668E-02    0   0.9443   age055_m52            0.0000     1.4626E-03    11.4951   3.5816   106.5367
 21      0.0000     0.0000E+00    0.0000E+00    6.610000E+06  0.00800  2.136E-02    0   0.9177   age061_m52            0.0000     1.2696E-03    10.4607   2.3437   112.5388
 22      0.0000     0.0000E+00    0.0000E+00    1.000000E+07  0.00800  1.215E-02    0   0.8827   age070_m52            0.0000     1.4626E-03    11.1583   3.0013   111.8047
 23      0.0000     0.0000E+00    0.0000E+00    1.445000E+07  0.00800  8.717E-03    0   0.8552   age078_m52            0.0000     1.3977E-03    10.9232   3.1149   110.9712
 24      0.0000     0.0000E+00    0.0000E+00    2.512000E+07  0.00800  5.592E-03    0   0.8162   age090_m52            0.0000     1.3480E-03    10.6013   2.7612   113.7647
 25      0.0000     0.0000E+00    0.0000E+00    4.000000E+07  0.00800  3.896E-03    0   0.7841   age104_m52            0.0000     1.2436E-03    10.1049   2.6740   114.6445
 26      0.0000     0.0000E+00    0.0000E+00    1.015200E+08  0.00800  2.148E-03    0   0.7226   age116_m52            0.0000     1.1187E-03     9.4395   2.6223   114.1376
 27      0.0000     0.0000E+00    0.0000E+00    2.861200E+08  0.00800  9.925E-04    0   0.6683   age125_m52            0.0000     9.7553E-04     8.2571   2.1664   117.1005
 28      0.0000     0.0000E+00    0.0000E+00    9.047900E+08  0.00800  3.141E-04    0   0.6138   age135_m52            0.0000     6.4385E-04     6.4058   1.3830   121.4471
 29      0.0000     0.0000E+00    0.0000E+00    1.434000E+09  0.00800  1.719E-04    0   0.5853   age139_m52            0.0000     5.9525E-04     6.4349   0.7961   119.4889
 30      0.0000     0.0000E+00    0.0000E+00    2.500000E+09  0.00800  7.872E-05    0   0.5600   age150_m52            0.0000     5.1182E-04     6.1877   0.5309   116.6100
 31      0.0000     0.0000E+00    0.0000E+00    4.250000E+09  0.00800  4.336E-05    0   0.5426   age158_m52            0.0000     5.1380E-04     6.2810   0.5087   115.9469
 32      4.7093     3.2831E+00    3.3028E+00    6.250000E+09  0.00800  3.159E-05    0   0.5319   age166_m52            0.0000     4.8663E-04     5.9956   0.3084   115.9939
 33      0.0000     0.0000E+00    0.0000E+00    1.300000E+10  0.00800  1.361E-05    0   0.5073   age193_m52            0.0000     4.8675E-04     5.7291  -0.1461   114.7031
 34      0.0000     0.0000E+00    0.0000E+00    1.800000E+10  0.00800  9.886E-06    0   0.4990   age213_m52            0.0000     5.1484E-04     5.7520  -0.2514   114.1446
 35      0.0000     0.0000E+00    0.0000E+00    1.000000E+06  0.02000  1.544E-02    0   1.0000   age020_m62            0.0000     1.6457E-03    12.2759   3.9009   103.4482
 36      0.0000     0.0000E+00    0.0000E+00    3.160000E+06  0.02000  3.762E-02    0   0.9858   age045_m62            0.0000     1.6420E-03    12.2692   3.8374   104.5035
 37      1.1940     7.9781E-04    1.4096E-03    5.010000E+06  0.02000  3.296E-02    0   0.9342   age055_m62            0.0000     1.3367E-03    10.9033   3.4701   108.2561
 38      0.0000     0.0000E+00    0.0000E+00    8.710000E+06  0.02000  1.154E-02    0   0.8861   age067_m62            0.0000     2.1869E-03    14.4340   2.4405   114.5462
 39      0.0000     0.0000E+00    0.0000E+00    1.445000E+07  0.02000  7.663E-03    0   0.8472   age078_m62            0.0000     1.5970E-03    11.7801   2.6424   114.2392
 40      0.0000     0.0000E+00    0.0000E+00    2.512000E+07  0.02000  4.532E-03    0   0.8099   age090_m62            0.0000     1.6263E-03    11.9088   2.6283   114.1703
 41      0.0000     0.0000E+00    0.0000E+00    5.500000E+07  0.02000  2.733E-03    0   0.7595   age110_m62            0.0000     1.2631E-03    10.1542   2.6607   113.6374
 42      0.0000     0.0000E+00    0.0000E+00    1.609000E+08  0.02000  1.369E-03    0   0.6985   age120_m62            0.0000     1.0787E-03     8.9404   2.5232   115.5523
 43      0.0000     0.0000E+00    0.0000E+00    2.861200E+08  0.02000  9.013E-04    0   0.6714   age125_m62            0.0000     9.6347E-04     8.1255   2.2861   118.2253
 44      0.0000     0.0000E+00    0.0000E+00    5.088000E+08  0.02000  5.028E-04    0   0.6449   age130_m62            0.0000     7.4613E-04     6.9762   1.9202   121.0146
 45      0.0000     0.0000E+00    0.0000E+00    9.047900E+08  0.02000  2.428E-04    0   0.6179   age135_m62            0.0000     5.4121E-04     6.1056   1.3296   120.8109
 46      0.0000     0.0000E+00    0.0000E+00    1.434000E+09  0.02000  1.263E-04    0   0.5908   age139_m62            0.0000     4.8831E-04     5.9673   0.8824   119.3979
 47     60.8685     2.2398E+01    2.4032E+01    2.500000E+09  0.02000  5.985E-05    0   0.5673   age150_m62            0.0000     4.7669E-04     5.9621   0.5253   117.5502
 48      0.0000     0.0000E+00    0.0000E+00    4.250000E+09  0.02000  3.271E-05    0   0.5468   age158_m62            0.0000     4.8273E-04     5.8224   0.2248   116.5917
 49     23.4700     3.8006E+01    3.7141E+01    1.000000E+10  0.02000  1.360E-05    0   0.5167   age181_m62            0.0000     5.2426E-04     5.7612  -0.1162   115.9242
 50      5.0953     1.5751E+01    1.4934E+01    1.800000E+10  0.02000  7.124E-06    0   0.5013   age213_m62            0.0000     6.1144E-04     6.3162  -0.3160   114.6056
 51      0.0000     0.0000E+00    0.0000E+00    1.000000E+06  0.05000  2.592E-02    0   0.9998   age020_m72            0.0000     1.6822E-03    12.3932   3.8936   103.4241
 52      0.0000     0.0000E+00    0.0000E+00    3.160000E+06  0.05000  4.845E-02    0   0.9577   age045_m72            0.0000     1.5270E-03    11.8222   3.7191   105.9710
 53      0.0000     0.0000E+00    0.0000E+00    5.010000E+06  0.05000  3.072E-02    0   0.9147   age055_m72            0.0000     1.6062E-03    11.7922   3.2203   110.5538
 54      0.0000     0.0000E+00    0.0000E+00    6.610000E+06  0.05000  1.455E-02    0   0.8877   age061_m72            0.0000     3.0692E-03    17.6432   2.4538   115.9862
 55      0.0000     0.0000E+00    0.0000E+00    1.000000E+07  0.05000  9.074E-03    0   0.8524   age070_m72            0.0000     1.8295E-03    12.8193   3.3829   110.7758
 56      0.0000     0.0000E+00    0.0000E+00    2.512000E+07  0.05000  4.250E-03    0   0.7902   age090_m72            0.0000     1.5536E-03    11.5814   3.0941   112.4894
 57      0.0000     0.0000E+00    0.0000E+00    4.000000E+07  0.05000  3.087E-03    0   0.7618   age104_m72            0.0000     1.5343E-03    11.4212   2.8750   113.7799
 58      0.0000     0.0000E+00    0.0000E+00    1.015200E+08  0.05000  1.700E-03    0   0.7096   age116_m72            0.0000     1.1824E-03     9.4154   2.6548   115.4431
 59      0.0000     0.0000E+00    0.0000E+00    2.861200E+08  0.05000  7.384E-04    0   0.6633   age125_m72            0.0000     8.3069E-04     7.4172   2.1619   119.5416
 60      0.0000     0.0000E+00    0.0000E+00    5.088000E+08  0.05000  3.819E-04    0   0.6372   age130_m72            0.0000     5.9760E-04     6.4102   1.6808   121.3109
 61      0.0000     0.0000E+00    0.0000E+00    9.047900E+08  0.05000  1.676E-04    0   0.6110   age135_m72            0.0000     4.6974E-04     6.0051   0.9829   119.8541
 62      0.0000     0.0000E+00    0.0000E+00    1.434000E+09  0.05000  8.837E-05    0   0.5874   age139_m72            0.0000     4.4683E-04     5.7283   0.5194   119.6055
 63     18.1587     9.4474E+00    1.0003E+01    2.500000E+09  0.05000  4.233E-05    0   0.5598   age150_m72            0.0000     4.8113E-04     5.7625   0.2257   117.5738
 64      0.0000     0.0000E+00    0.0000E+00    6.250000E+09  0.05000  1.435E-05    0   0.5249   age166_m72            0.0000     5.5727E-04     5.8787  -0.2081   115.2636
 65      3.0565     1.0335E+01    9.8439E+00    1.300000E+10  0.05000  6.513E-06    0   0.5036   age193_m72            0.0000     6.9544E-04     6.7999  -0.4721   115.6330
 66      0.0000     0.0000E+00    0.0000E+00    1.800000E+10  0.05000  4.527E-06    0   0.4945   age213_m72            0.0000     8.0391E-04     7.5130  -0.6254   115.0539


## Synthesis Results - Average & Chains ##

# j      x_j: min, <> & last-chain-values for 1 ...  7 chains
  1      0.0000      2.9089      2.7655      3.1918      0.0000      2.6778      1.9549      2.9250      3.0531
  2      0.0000      0.3121      0.0000      0.0620      1.2627      0.0105      0.9432      0.0000      0.0000
  3      0.0000      0.7552      1.4136      0.5511      0.0000      0.3413      0.0000      0.0000      0.5347
  4      0.0000      0.3773      0.0000      0.1047      0.0000      0.0183      0.7732      0.0438      0.0645
  5      0.0000      0.3613      0.3099      0.0345      1.8803      0.0260      0.0000      0.0000      0.1371
  6      0.0000      0.3640      0.0069      0.0743      0.6655      0.0294      0.5214      0.0480      0.0453
  7      0.0000      0.4255      0.0000      0.2206      0.0000      0.0214      0.7741      0.0000      0.0000
  8      0.0000      0.5089      0.0000      0.2146      0.1906      0.0398      0.3912      0.4837      0.0884
  9      0.0000      0.3784      0.0028      0.2641      1.1994      0.0125      0.2709      0.0711      0.1229
 10      0.0000      0.3309      0.0022      0.1454      0.0000      0.0000      0.0000      0.0920      0.0000
 11      0.0000      0.3788      0.0067      0.0000      0.6693      0.0000      0.1323      0.0908      0.0391
 12      0.0000      0.3666      0.0024      0.0000      0.3095      0.0618      0.0000      0.2239      0.0191
 13      0.0000      0.4251      0.0132      0.2997      5.4442      0.0446      0.1409      0.0000      0.0662
 14      0.0000      0.3498      0.0049      0.2966      1.7371      0.0652      0.0739      0.0910      0.2564
 15      0.0037      3.7913      0.5045      4.1255      2.3894      0.1834      4.7499     11.1953      3.9625
 16      0.7069      2.4296      5.7135      2.8514      0.7370      0.2481      2.8725      1.7436      2.0494
 17      0.0000      5.5302      6.8996      5.5792      6.1452     18.0170      5.7432      5.6161      5.7114
 18      0.0000      5.5389      5.7299      6.5967      0.5680      5.6901      6.8270      5.1315      6.7599
 19      0.0000      2.4305      3.8024      2.8473      3.2304      2.3877      1.5555      2.0129      2.8083
 20      0.0000      0.7973      1.0011      0.6878      1.4830      0.5892      0.2878      0.5444      0.6888
 21      0.0000      1.5972      0.0489      1.3622      0.0000      0.0000      2.4735      0.8824      1.6461
 22      0.0000      0.3497      0.0189      0.1310      0.0000      0.0665      0.0000      0.1014      0.0000
 23      0.0000      0.3489      0.0063      0.0000      0.9368      0.0000      0.0000      0.0672      0.0000
 24      0.0000      0.3291      0.0042      0.0998      0.0000      0.0554      0.3631      0.2679      0.0000
 25      0.0000      0.4112      0.0148      0.1700      2.8624      0.1726      0.6014      0.3025      0.0864
 26      0.0000      0.2980      0.0095      0.1558      0.9108      0.0175      0.0000      0.2655      0.1031
 27      0.0000      0.3538      0.0000      0.0000      1.9168      0.0286      0.7989      0.0000      0.1668
 28      0.0000      0.3677      0.0000      0.0793      1.3374      0.0741      1.3424      0.3735      0.0715
 29      0.0000      0.4602      0.0102      0.1619      0.1085      0.0283      1.0620      0.0000      0.1783
 30      0.0000      0.3561      0.0059      0.3354      2.2232      0.0000      0.3592      0.0520      0.0115
 31      0.0000      0.4058      0.0315      0.0223      1.2346      0.0464      0.1981      0.0208      0.0000
 32      4.7093      1.3182      0.1840      1.7042      1.0343      0.2191      2.1812      1.2027      2.0434
 33      0.0000      0.9367      2.6212      0.9899      2.2699      0.1081      0.9240      0.6825      0.5740
 34      0.0000      1.7596      6.0228      1.7657      0.0000      0.0782      1.6848      1.8740      1.6705
 35      0.0000      3.3005      6.6235      3.3500      0.6453      2.9908      3.3632      2.8211      3.4563
 36      0.0000      4.1650      3.5667      4.9991      2.7620      4.6555      4.2674      4.4067      5.2348
 37      1.1940      0.4970      0.1134      0.0000      0.0000      0.5928      0.0000      0.0000      0.2763
 38      0.0000      0.9172      1.4971      0.5254      0.0351      0.5891      0.0000      0.9634      0.6705
 39      0.0000      0.3139      0.0000      0.0000      0.0000      0.1011      0.6781      0.3927      0.0000
 40      0.0000      0.4093      0.0000      0.0000      1.9147      0.0188      0.0494      0.0152      0.2068
 41      0.0000      1.3242      0.0000      1.0926      2.4654      0.1261      0.5861      4.2235      1.2950
 42      0.0000      0.3165      0.0000      0.0760      0.8032      0.0149      0.3710      0.0685      0.0580
 43      0.0000      0.3714      0.0000      0.0003      4.5647      0.0000      0.1633      0.0000      0.1074
 44      0.0000      0.3954      0.0216      0.0000      0.5752      0.0000      0.2666      0.0120      0.0991
 45      0.0000      0.3221      0.0000      0.1137      0.2012      0.0000      0.3999      0.2287      0.0333
 46      0.0000      0.4286      0.0079      0.1507      2.1367      0.1019      0.5643      0.0292      0.0161
 47     60.8685      5.9920      0.0676      8.1838      5.0580      3.8451      4.3254      6.9252      9.7114
 48      0.0000      2.3462      0.0150      2.9492      2.0503      1.2088      1.6650      3.7164      2.6751
 49     23.4700      4.2699      3.0082      4.7814      2.9513      8.4634      3.9774      5.1579      4.7148
 50      5.0953      4.3092      4.5027      4.6377      2.2717      6.4329      4.9364      4.2536      4.7471
 51      0.0000      2.5988      3.5194      2.6722      1.8724      2.0915      0.4452      2.6553      2.8170
 52      0.0000      1.9613      2.1844      2.1553      1.6948      1.8316      2.4082      1.9619      2.0945
 53      0.0000      1.1186      0.8971      0.8347      1.0551      3.2250      0.4189      0.7950      0.8042
 54      0.0000      0.2787      0.0090      0.1251      0.0000      0.0596      0.0611      0.0901      0.0000
 55      0.0000      0.3931      0.0050      0.3052      0.5913      0.0209      0.3949      0.1254      0.3111
 56      0.0000      0.7687      0.0245      0.8852      0.1567      0.1102      0.0000      0.2592      1.0398
 57      0.0000      0.4100      0.0673      0.0843      0.0000      0.0841      1.7069      0.0910      0.1253
 58      0.0000      0.3220      0.0000      0.0753      0.9402      0.1029      0.0940      0.2305      0.1910
 59      0.0000      0.3522      0.0000      0.0000      0.3410      0.0589      1.1590      0.1787      0.0897
 60      0.0000      0.3796      0.0119      0.0000      2.5140      0.0633      0.0088      0.0793      0.2740
 61      0.0000      0.3981      0.0057      0.0000      0.4107      0.0634      1.5111      0.0193      0.1683
 62      0.0000      0.5037      0.0089      0.1590      0.9599      0.0519      0.0000      0.4141      0.0196
 63     18.1587      8.5399      4.9720      9.0564      7.3419     16.0387     10.1008      9.0229      9.3168
 64      0.0000     11.0134     27.8725     13.3503      7.2514      9.5789     12.3940     11.7770     12.2962
 65      3.0565      3.0668      3.0543      3.5815      1.9480      3.7667      3.5702      2.4859      3.3370
 66      0.0000      6.0747      6.4265      6.6464      8.9223      8.6106      6.3247      6.1251      6.8909

# j      m_j: min, <> & last-chain-values for 1 ...  7 chains
  1  0.0000E+00  1.0857E-02  7.8059E-03  1.0700E-02  0.0000E+00  7.5615E-03  6.7854E-03  1.0375E-02  1.0422E-02
  2  0.0000E+00  3.1805E-04  0.0000E+00  5.6708E-05  1.3724E-03  8.1275E-06  8.9373E-04  0.0000E+00  0.0000E+00
  3  0.0000E+00  1.1524E-03  1.6311E-03  7.5524E-04  0.0000E+00  3.9395E-04  0.0000E+00  0.0000E+00  7.4622E-04
  4  0.0000E+00  5.4214E-04  0.0000E+00  1.3508E-04  0.0000E+00  1.9888E-05  1.0333E-03  5.9808E-05  8.4741E-05
  5  0.0000E+00  9.8894E-04  6.4139E-04  8.4916E-05  5.4904E-03  5.3803E-05  0.0000E+00  0.0000E+00  3.4312E-04
  6  0.0000E+00  1.6159E-03  2.3010E-05  2.9631E-04  3.1517E-03  9.8673E-05  2.1526E-03  2.0245E-04  1.8400E-04
  7  0.0000E+00  2.7043E-03  0.0000E+00  1.2594E-03  0.0000E+00  1.0280E-04  4.5754E-03  0.0000E+00  0.0000E+00
  8  0.0000E+00  4.4709E-03  0.0000E+00  1.6932E-03  1.7861E-03  2.6422E-04  3.1962E-03  4.0385E-03  7.1030E-04
  9  0.0000E+00  3.8050E-03  2.1666E-05  2.3848E-03  1.2865E-02  9.5168E-05  2.5327E-03  6.7910E-04  1.1306E-03
 10  0.0000E+00  4.3705E-03  2.1837E-05  1.7245E-03  0.0000E+00  0.0000E+00  0.0000E+00  1.1544E-03  0.0000E+00
 11  0.0000E+00  9.4069E-03  1.2616E-04  0.0000E+00  1.7733E-02  0.0000E+00  3.0561E-03  2.1435E-03  8.8765E-04
 12  0.0000E+00  1.4442E-02  7.0021E-05  0.0000E+00  1.3009E-02  1.8434E-03  0.0000E+00  8.3839E-03  6.8911E-04
 13  0.0000E+00  4.7208E-02  1.1096E-03  2.9890E-02  6.4491E-01  3.7438E-03  1.4550E-02  0.0000E+00  6.7248E-03
 14  0.0000E+00  1.3027E-01  1.3688E-03  9.9235E-02  6.9016E-01  1.8360E-02  2.5606E-02  3.2193E-02  8.7345E-02
 15  2.3192E-03  2.2987E+00  2.3134E-01  2.2467E+00  1.5455E+00  8.4110E-02  2.6782E+00  6.4506E+00  2.1973E+00
 16  7.3929E-01  2.4908E+00  4.4295E+00  2.6256E+00  8.0600E-01  1.9241E-01  2.7386E+00  1.6987E+00  1.9216E+00
 17  0.0000E+00  7.3547E+00  6.9392E+00  6.6645E+00  8.7184E+00  1.8128E+01  7.1031E+00  7.0978E+00  6.9469E+00
 18  0.0000E+00  1.8269E-02  1.4292E-02  1.9543E-02  1.9985E-03  1.4199E-02  2.0940E-02  1.6084E-02  2.0391E-02
 19  0.0000E+00  3.2175E-03  3.8066E-03  3.3855E-03  4.5619E-03  2.3914E-03  1.9150E-03  2.5322E-03  3.4001E-03
 20  0.0000E+00  1.1522E-03  1.0942E-03  8.9280E-04  2.2863E-03  6.4424E-04  3.8679E-04  7.4770E-04  9.1036E-04
 21  0.0000E+00  2.8019E-03  6.4837E-05  2.1464E-03  0.0000E+00  0.0000E+00  4.0354E-03  1.4710E-03  2.6412E-03
 22  0.0000E+00  1.0374E-03  4.2494E-05  3.4907E-04  0.0000E+00  1.4916E-04  0.0000E+00  2.8577E-04  0.0000E+00
 23  0.0000E+00  1.3976E-03  1.9006E-05  0.0000E+00  4.0031E-03  0.0000E+00  0.0000E+00  2.5591E-04  0.0000E+00
 24  0.0000E+00  1.9616E-03  1.9095E-05  5.3444E-04  0.0000E+00  2.4990E-04  2.0122E-03  1.5173E-03  0.0000E+00
 25  0.0000E+00  3.3792E-03  9.2103E-05  1.2552E-03  2.5093E-02  1.0733E-03  4.5961E-03  2.3622E-03  6.4914E-04
 26  0.0000E+00  4.0940E-03  9.9053E-05  1.9226E-03  1.3346E-02  1.8213E-04  0.0000E+00  3.4651E-03  1.2951E-03
 27  0.0000E+00  9.7268E-03  0.0000E+00  0.0000E+00  5.6220E-02  5.9479E-04  2.0427E-02  0.0000E+00  4.1948E-03
 28  0.0000E+00  2.9337E-02  2.0592E-06  5.6856E-03  1.1384E-01  4.4749E-03  9.9610E-02  2.8323E-02  5.2189E-03
 29  0.0000E+00  6.3983E-02  1.0726E-03  2.0222E-02  1.6097E-02  2.9763E-03  1.3731E-01  0.0000E+00  2.2668E-02
 30  0.0000E+00  1.0344E-01  1.2892E-03  8.7509E-02  6.8888E-01  0.0000E+00  9.7029E-02  1.4362E-02  3.0555E-03
 31  0.0000E+00  2.0734E-01  1.2155E-02  1.0257E-02  6.7294E-01  1.7949E-02  9.4112E-02  1.0084E-02  0.0000E+00
 32  3.3028E+00  9.0626E-01  9.5676E-02  1.0524E+00  7.5859E-01  1.1394E-01  1.3946E+00  7.8579E-01  1.2849E+00
 33  0.0000E+00  1.4256E+00  3.0169E+00  1.3533E+00  3.6854E+00  1.2447E-01  1.3078E+00  9.8715E-01  7.9905E-01
 34  0.0000E+00  3.6266E+00  9.3873E+00  3.2686E+00  0.0000E+00  1.2193E-01  3.2292E+00  3.6704E+00  3.1488E+00
 35  0.0000E+00  8.7285E-03  1.3246E-02  7.9573E-03  1.8204E-03  5.9840E-03  8.2713E-03  7.0898E-03  8.3597E-03
 36  0.0000E+00  4.4564E-03  2.8860E-03  4.8043E-03  3.1526E-03  3.7686E-03  4.2461E-03  4.4807E-03  5.1227E-03
 37  1.4096E-03  5.7514E-04  9.9240E-05  0.0000E+00  0.0000E+00  5.1901E-04  0.0000E+00  0.0000E+00  2.9245E-04
 38  0.0000E+00  2.8758E-03  3.5498E-03  1.4795E-03  1.1747E-04  1.3973E-03  0.0000E+00  2.8706E-03  1.9226E-03
 39  0.0000E+00  1.4171E-03  0.0000E+00  0.0000E+00  0.0000E+00  3.4546E-04  2.8467E-03  1.6845E-03  0.0000E+00
 40  0.0000E+00  2.9863E-03  0.0000E+00  0.0000E+00  1.4904E-02  1.0365E-04  3.3489E-04  1.0526E-04  1.3800E-03
 41  0.0000E+00  1.5026E-02  0.0000E+00  1.1136E-02  2.9844E-02  1.0824E-03  6.1843E-03  4.5544E-02  1.3439E-02
 42  0.0000E+00  6.5933E-03  0.0000E+00  1.4216E-03  1.7852E-02  2.3489E-04  7.1870E-03  1.3570E-03  1.1059E-03
 43  0.0000E+00  1.1296E-02  0.0000E+00  8.1529E-06  1.4811E-01  0.0000E+00  4.6204E-03  0.0000E+00  2.9878E-03
 44  0.0000E+00  2.0707E-02  8.5663E-04  0.0000E+00  3.2137E-02  0.0000E+00  1.2982E-02  5.9765E-04  4.7460E-03
 45  0.0000E+00  3.3468E-02  0.0000E+00  1.0613E-02  2.2300E-02  0.0000E+00  3.8648E-02  2.2585E-02  3.1692E-03
 46  0.0000E+00  8.1865E-02  1.1350E-03  2.5852E-02  4.3536E-01  1.4731E-02  1.0023E-01  5.2977E-03  2.8210E-03
 47  2.4032E+01  2.3191E+00  1.9780E-02  2.8449E+00  2.0883E+00  1.1259E+00  1.5568E+00  2.5471E+00  3.4376E+00
 48  0.0000E+00  1.6015E+00  7.7423E-03  1.8081E+00  1.4929E+00  6.2426E-01  1.0569E+00  2.4107E+00  1.6700E+00
 49  3.7141E+01  6.6240E+00  3.5290E+00  6.6623E+00  4.8841E+00  9.9332E+00  5.7381E+00  7.6040E+00  6.6895E+00
 50  1.4934E+01  1.2381E+01  9.7838E+00  1.1969E+01  6.9629E+00  1.3984E+01  1.3190E+01  1.1614E+01  1.2475E+01
 51  0.0000E+00  4.0932E-03  4.1918E-03  3.7803E-03  3.1459E-03  2.4922E-03  6.5214E-04  3.9743E-03  4.0578E-03
 52  0.0000E+00  1.5831E-03  1.3333E-03  1.5625E-03  1.4593E-03  1.1184E-03  1.8076E-03  1.5048E-03  1.5461E-03
 53  0.0000E+00  1.3600E-03  8.2479E-04  9.1153E-04  1.3684E-03  2.9664E-03  4.7367E-04  9.1853E-04  8.9427E-04
 54  0.0000E+00  6.9421E-04  1.6865E-05  2.8003E-04  0.0000E+00  1.1233E-04  1.4148E-04  2.1320E-04  0.0000E+00
 55  0.0000E+00  1.5080E-03  1.4363E-05  1.0513E-03  2.4196E-03  6.0721E-05  1.4085E-03  4.5722E-04  1.0915E-03
 56  0.0000E+00  5.8360E-03  1.4085E-04  6.0365E-03  1.2691E-03  6.3325E-04  0.0000E+00  1.8700E-03  7.2200E-03
 57  0.0000E+00  4.1310E-03  5.1287E-04  7.6329E-04  0.0000E+00  6.4147E-04  1.5995E-02  8.7150E-04  1.1551E-03
 58  0.0000E+00  5.4886E-03  0.0000E+00  1.1532E-03  1.7094E-02  1.3264E-03  1.4899E-03  3.7335E-03  2.9774E-03
 59  0.0000E+00  1.2917E-02  0.0000E+00  0.0000E+00  1.3342E-02  1.6347E-03  3.9534E-02  6.2286E-03  3.0106E-03
 60  0.0000E+00  2.5860E-02  6.1202E-04  0.0000E+00  1.8271E-01  3.2619E-03  5.5725E-04  5.1371E-03  1.7070E-02
 61  0.0000E+00  5.9258E-02  6.4039E-04  0.0000E+00  6.5222E-02  7.1430E-03  2.0918E-01  2.7334E-03  2.2914E-02
 62  0.0000E+00  1.3670E-01  1.8241E-03  3.8767E-02  2.7793E-01  1.0649E-02  0.0000E+00  1.0680E-01  4.8673E-03
 63  1.0003E+01  4.6115E+00  2.0304E+00  4.3925E+00  4.2293E+00  6.5524E+00  5.0723E+00  4.6302E+00  4.6013E+00
 64  0.0000E+00  1.6449E+01  3.1482E+01  1.7910E+01  1.1554E+01  1.0824E+01  1.7215E+01  1.6716E+01  1.6797E+01
 65  9.8439E+00  9.6828E+00  7.2925E+00  1.0156E+01  6.5611E+00  8.9973E+00  1.0482E+01  7.4586E+00  9.6358E+00
 66  0.0000E+00  2.7095E+01  2.1676E+01  2.6627E+01  4.2453E+01  2.9056E+01  2.6234E+01  2.5962E+01  2.8110E+01

# AV, chi2 & Mass for <> & i_chain = 1 ...  7 solutions
AV       0.2596      0.8298      0.6343      0.7702      0.9318      0.6366      0.7959      0.7776      0.7976
chi2 4.6275E-04  1.1283E-03  9.5015E-04  9.6662E-04  9.3724E-04  8.7823E-04  9.4185E-04  9.4447E-04  9.7594E-04
Mass 3.2003E-12  7.0207E-12  7.1406E-12  7.2157E-12  7.5475E-12  7.1588E-12  7.2141E-12  6.8878E-12  7.3517E-12
-120.04                                  [v0_min (km/s) before EX0s...]
 227.46                                  [vd_min (km/s) before EX0s...]


## Synthetic spectrum (Best Model) ##l_obs f_obs f_syn wei
 3478    [Nl_obs]
 3741.00    0.40241   0.55646    0.000
 3742.00    0.38640   0.53701    0.000
 3743.00    0.36263   0.51137    0.000
 3744.00    0.34845   0.48529    0.000
 3745.00    0.33986   0.46507    0.273
 3746.00    0.37893   0.45553    0.273
 3747.00    0.44222   0.45913    0.272
 3748.00    0.48512   0.47642    0.287
 3749.00    0.51906   0.50588    0.313
 3750.00    0.54520   0.54269    0.312
 3751.00    0.56841   0.57959    0.300
 3752.00    0.53412   0.60948    0.292
 3753.00    0.48141   0.62748    0.284
 3754.00    0.53010   0.63230    0.290
 3755.00    0.60596   0.62625    0.299
 3756.00    0.61577   0.61410    0.291
 3757.00    0.61107   0.60082    0.279
 3758.00    0.57713   0.59021    0.271
 3759.00    0.53808   0.58481    0.265
 3760.00    0.53196   0.58480    0.288
 3761.00    0.53020   0.58775    0.321
 3762.00    0.52451   0.59078    0.297
 3763.00    0.51845   0.59248    0.273
 3764.00    0.50159   0.59284    0.269
 3765.00    0.48412   0.59311    0.266
 3766.00    0.50976   0.59579    0.258
 3767.00    0.53644   0.60271    0.250
 3768.00    0.56470   0.61371    0.249
 3769.00    0.59174   0.62825    0.248
 3770.00    0.58903   0.64573    0.250
 3771.00    0.58773   0.66442    0.252
 3772.00    0.60497   0.68250    0.262
 3773.00    0.62243   0.69963    0.273
 3774.00    0.64181   0.71623    0.275
 3775.00    0.65735   0.73209    0.277
 3776.00    0.64806   0.74687    0.269
 3777.00    0.64275   0.76085    0.265
 3778.00    0.65756   0.77376    0.275
 3779.00    0.66654   0.78358    0.282
 3780.00    0.65163   0.78691    0.277
 3781.00    0.64676   0.78163    0.277
 3782.00    0.67591   0.76789    0.295
 3783.00    0.69608   0.74664    0.312
 3784.00    0.69057   0.72031    0.320
 3785.00    0.67182   0.69297    0.320
 3786.00    0.62071   0.66808    0.303
 3787.00    0.57333   0.64681    0.287
 3788.00    0.53380   0.62942    0.275
 3789.00    0.49837   0.61575    0.263
 3790.00    0.47044   0.60389    0.254
 3791.00    0.45781   0.59140    0.250
 3792.00    0.46967   0.57699    0.253
 3793.00    0.46632   0.56172    0.252
 3794.00    0.44162   0.54873    0.246
 3795.00    0.43698   0.54199    0.242
 3796.00    0.45712   0.54450    0.242
 3797.00    0.46969   0.55754    0.245
 3798.00    0.47401   0.58031    0.250
 3799.00    0.48773   0.60943    0.255
 3800.00    0.51050   0.64069    0.259
 3801.00    0.52380   0.66970    0.262
 3802.00    0.52906   0.69307    0.264
 3803.00    0.53739   0.70999    0.264
 3804.00    0.54802   0.72152    0.263
 3805.00    0.57680   0.72910    0.263
 3806.00    0.61748   0.73334    0.263
 3807.00    0.62892   0.73366    0.259
 3808.00    0.62358   0.72901    0.255
 3809.00    0.60856   0.71896    0.248
 3810.00    0.58869   0.70338    0.241
 3811.00    0.56928   0.68328    0.250
 3812.00    0.55007   0.66147    0.268
 3813.00    0.52304   0.64021    0.260
 3814.00    0.49310   0.62029    0.243
 3815.00    0.44550   0.60269    0.234
 3816.00    0.39235   0.58920    0.227
 3817.00    0.40524   0.57984    0.231
 3818.00    0.43545   0.57191    0.238
 3819.00    0.45791   0.56255    0.240
 3820.00    0.47871   0.55054    0.242
 3821.00    0.44216   0.53679    0.237
 3822.00    0.39587   0.52319    0.231
 3823.00    0.40854   0.51093    0.242
 3824.00    0.42878   0.49976    0.258
 3825.00    0.38592   0.48913    0.249
 3826.00    0.33741   0.47908    0.238
 3827.00    0.35667   0.46965    0.238
 3828.00    0.37958   0.46040    0.237
 3829.00    0.37716   0.45061    0.240
 3830.00    0.37413   0.44059    0.243
 3831.00    0.36271   0.43167    0.244
 3832.00    0.35192   0.42479    0.245
 3833.00    0.35518   0.42055    0.234
 3834.00    0.35709   0.42044    0.224
 3835.00    0.34213   0.42609    0.224
 3836.00    0.33041   0.43822    0.225
 3837.00    0.34602   0.45705    0.224
 3838.00    0.36474   0.48143    0.224
 3839.00    0.40300   0.50942    0.224
 3840.00    0.43569   0.53934    0.225
 3841.00    0.44084   0.56955    0.232
 3842.00    0.44906   0.59810    0.238
 3843.00    0.46957   0.62274    0.242
 3844.00    0.48504   0.64094    0.243
 3845.00    0.48379   0.65199    0.236
 3846.00    0.48498   0.65845    0.233
 3847.00    0.49305   0.66262    0.000
 3848.00    0.49912   0.66472    0.000
 3849.00    0.50042   0.66454    0.000
 3850.00    0.49862   0.66156    0.000
 3851.00    0.49040   0.65573    0.000
 3852.00    0.49281   0.64830    0.000
 3853.00    0.51440   0.63917    0.000
 3854.00    0.52307   0.62714    0.000
 3855.00    0.51135   0.61425    0.000
 3856.00    0.50428   0.60534    0.000
 3857.00    0.50367   0.60350    0.000
 3858.00    0.50547   0.60890    0.000
 3859.00    0.51023   0.61981    0.000
 3860.00    0.52773   0.63332    0.000
 3861.00    0.55893   0.64748    0.000
 3862.00    0.59084   0.66071    0.000
 3863.00    0.62343   0.67026    0.000
 3864.00    0.63265   0.67350    0.000
 3865.00    0.62234   0.66967    0.000
 3866.00    0.61612   0.66028    0.000
 3867.00    0.61293   0.64820    0.000
 3868.00    0.60133   0.63688    0.000
 3869.00    0.58429   0.62939    0.000
 3870.00    0.56735   0.62694    0.000
 3871.00    0.55047   0.62835    0.000
 3872.00    0.53437   0.63119    0.000
 3873.00    0.51865   0.63354    0.000
 3874.00    0.50184   0.63511    0.000
 3875.00    0.48457   0.63634    0.000
 3876.00    0.47507   0.63530    0.000
 3877.00    0.46841   0.62991    0.000
 3878.00    0.48852   0.62212    0.000
 3879.00    0.51689   0.61516    0.000
 3880.00    0.51895   0.60892    0.000
 3881.00    0.51426   0.60129    0.228
 3882.00    0.53991   0.59109    0.229
 3883.00    0.57190   0.57950    0.229
 3884.00    0.57383   0.56975    0.232
 3885.00    0.57080   0.56551    0.235
 3886.00    0.57660   0.56873    0.243
 3887.00    0.58349   0.57951    0.253
 3888.00    0.60501   0.59796    0.250
 3889.00    0.62778   0.62229    0.247
 3890.00    0.63142   0.64819    0.247
 3891.00    0.63411   0.67267    0.248
 3892.00    0.63549   0.69499    0.244
 3893.00    0.63730   0.71300    0.239
 3894.00    0.66883   0.72488    0.255
 3895.00    0.70061   0.73228    0.272
 3896.00    0.73758   0.73827    0.265
 3897.00    0.76816   0.74370    0.259
 3898.00    0.72320   0.74715    0.244
 3899.00    0.67976   0.74772    0.231
 3900.00    0.64872   0.74580    0.226
 3901.00    0.62544   0.74278    0.222
 3902.00    0.64953   0.74178    0.226
 3903.00    0.66902   0.74533    0.229
 3904.00    0.66640   0.75313    0.225
 3905.00    0.66190   0.76527    0.223
 3906.00    0.65005   0.78171    0.224
 3907.00    0.64563   0.80026    0.224
 3908.00    0.66541   0.81859    0.225
 3909.00    0.69157   0.83376    0.227
 3910.00    0.73530   0.84279    0.232
 3911.00    0.75848   0.84458    0.235
 3912.00    0.73309   0.83953    0.233
 3913.00    0.71338   0.82936    0.232
 3914.00    0.70524   0.81470    0.236
 3915.00    0.69921   0.79571    0.239
 3916.00    0.69691   0.77435    0.242
 3917.00    0.68621   0.75311    0.243
 3918.00    0.66247   0.73337    0.241
 3919.00    0.63958   0.71579    0.239
 3920.00    0.61786   0.69902    0.236
 3921.00    0.61203   0.68014    0.236
 3922.00    0.62531   0.65728    0.238
 3923.00    0.62673   0.62897    0.239
 3924.00    0.61561   0.59335    0.238
 3925.00    0.56890   0.55008    0.234
 3926.00    0.48892   0.50070    0.226
 3927.00    0.44992   0.44808    0.221
 3928.00    0.44467   0.39685    0.220
 3929.00    0.42050   0.35177    0.218
 3930.00    0.38263   0.31715    0.215
 3931.00    0.34866   0.29675    0.216
 3932.00    0.31716   0.29238    0.217
 3933.00    0.31810   0.30396    0.216
 3934.00    0.33708   0.33008    0.213
 3935.00    0.35562   0.36788    0.213
 3936.00    0.37393   0.41270    0.215
 3937.00    0.41277   0.45938    0.219
 3938.00    0.46019   0.50404    0.226
 3939.00    0.50489   0.54384    0.229
 3940.00    0.54862   0.57891    0.232
 3941.00    0.54501   0.61205    0.230
 3942.00    0.52709   0.64352    0.227
 3943.00    0.56560   0.67148    0.230
 3944.00    0.61829   0.69699    0.236
 3945.00    0.65969   0.72242    0.242
 3946.00    0.69879   0.74813    0.250
 3947.00    0.70742   0.77127    0.246
 3948.00    0.71118   0.78807    0.242
 3949.00    0.77135   0.79989    0.248
 3950.00    0.83826   0.81034    0.256
 3951.00    0.80823   0.81732    0.256
 3952.00    0.77030   0.81771    0.256
 3953.00    0.75956   0.81288    0.252
 3954.00    0.75007   0.80501    0.247
 3955.00    0.72799   0.79358    0.246
 3956.00    0.70600   0.77401    0.245
 3957.00    0.69715   0.74268    0.242
 3958.00    0.68781   0.70328    0.239
 3959.00    0.66928   0.66022    0.239
 3960.00    0.64757   0.61262    0.000
 3961.00    0.59021   0.55937    0.000
 3962.00    0.53383   0.50260    0.000
 3963.00    0.48524   0.44768    0.000
 3964.00    0.44038   0.40052    0.000
 3965.00    0.41761   0.36470    0.000
 3966.00    0.39449   0.34253    0.000
 3967.00    0.36968   0.33646    0.000
 3968.00    0.35660   0.34773    0.000
 3969.00    0.38849   0.37567    0.000
 3970.00    0.42293   0.41834    0.000
 3971.00    0.46552   0.47228    0.000
 3972.00    0.51086   0.53215    0.000
 3973.00    0.56365   0.59363    0.000
 3974.00    0.60959   0.65412    0.000
 3975.00    0.63963   0.71132    0.000
 3976.00    0.66963   0.76269    0.000
 3977.00    0.69958   0.80520    0.000
 3978.00    0.73858   0.83813    0.000
 3979.00    0.79344   0.86379    0.000
 3980.00    0.84743   0.88412    0.000
 3981.00    0.90009   0.90027    0.248
 3982.00    0.91400   0.91297    0.248
 3983.00    0.87578   0.92445    0.247
 3984.00    0.85519   0.93749    0.247
 3985.00    0.85547   0.95061    0.248
 3986.00    0.87389   0.96231    0.249
 3987.00    0.91126   0.97356    0.249
 3988.00    0.91862   0.98383    0.245
 3989.00    0.89836   0.99207    0.238
 3990.00    0.91742   0.99681    0.233
 3991.00    0.96841   0.99751    0.231
 3992.00    0.99013   0.99607    0.231
 3993.00    0.99093   0.99425    0.233
 3994.00    0.97123   0.99403    0.234
 3995.00    0.93867   0.99797    0.235
 3996.00    0.93152   1.00534    0.235
 3997.00    0.93829   1.01387    0.236
 3998.00    0.95277   1.02314    0.237
 3999.00    0.97092   1.03195    0.237
 4000.00    0.97349   1.03584    0.237
 4001.00    0.96965   1.03176    0.237
 4002.00    0.98808   1.02380    0.238
 4003.00    1.01432   1.01860    0.239
 4004.00    1.03202   1.01831    0.241
 4005.00    1.04717   1.02131    0.244
 4006.00    1.02862   1.02740    0.243
 4007.00    1.00179   1.03865    0.240
 4008.00    1.02691   1.05481    0.242
 4009.00    1.06235   1.07171    0.246
 4010.00    1.07122   1.08556    0.439
 4011.00    1.07597   1.09669    4.696
 4012.00    1.06408   1.10558   -1.000
 4013.00    1.05029   1.11121   -1.000
 4014.00    1.01519   1.11547   -1.000
 4015.00    0.97844   1.12063   -1.000
 4016.00    1.00954   1.12485   -1.000
 4017.00    1.04350   1.12621   -1.000
 4018.00    1.07065   1.12525   -1.000
 4019.00    1.09702   1.12364   -1.000
 4020.00    1.09155   1.12195   -1.000
 4021.00    1.08586   1.11974   -1.000
 4022.00    1.07613   1.11781   -1.000
 4023.00    1.06700   1.11670   -1.000
 4024.00    1.06436   1.11464   -1.000
 4025.00    1.05978   1.10767   -1.000
 4026.00    1.04041   1.09265   -1.000
 4027.00    1.01784   1.07216   -1.000
 4028.00    0.97679   1.05077   -1.000
 4029.00    0.93761   1.03065   -1.000
 4030.00    0.90701   1.01516   -1.000
 4031.00    0.87957   1.00860   -1.000
 4032.00    0.86396   1.01470   -1.000
 4033.00    0.86662   1.03403   -1.000
 4034.00    0.92658   1.06047   -1.000
 4035.00    0.98694   1.08588   -1.000
 4036.00    1.04837   1.10508   -1.000
 4037.00    1.08458   1.11600   -1.000
 4038.00    1.06322   1.11854   -1.000
 4039.00    1.04180   1.11043   -1.000
 4040.00    1.02031   1.08909   -1.000
 4041.00    0.99901   1.05873   -1.000
 4042.00    0.97806   1.03102   -1.000
 4043.00    0.95116   1.01659   -1.000
 4044.00    0.91528   1.01526   -1.000
 4045.00    0.89673   1.02095   -1.000
 4046.00    0.90115   1.03271   -1.000
 4047.00    0.93777   1.05125   -1.000
 4048.00    1.01196   1.07173   -1.000
 4049.00    1.03931   1.08611   -1.000
 4050.00    1.01843   1.08956   -1.000
 4051.00    0.99313   1.08416   -1.000
 4052.00    0.96383   1.07440   -1.000
 4053.00    0.96728   1.06147   -1.000
 4054.00    0.99694   1.04690   -1.000
 4055.00    1.00000   1.03540   -1.000
 4056.00    0.98433   1.02950   -1.000
 4057.00    0.97388   1.02621   -1.000
 4058.00    0.96667   1.01966   -1.000
 4059.00    0.94659   1.00809   -1.000
 4060.00    0.91957   0.99811   -1.000
 4061.00    0.90360   0.99569   -1.000
 4062.00    0.89280   0.99717   -1.000
 4063.00    0.89693   0.99797   -1.000
 4064.00    0.90709   1.00214   -1.000
 4065.00    0.91282   1.01475   -1.000
 4066.00    0.91702   1.03082   -1.000
 4067.00    0.93620   1.03972   -1.000
 4068.00    0.95973   1.04038   -1.000
 4069.00    0.95373   1.04115   -1.000
 4070.00    0.94063   1.04300   -1.000
 4071.00    0.94205   1.03878   -1.000
 4072.00    0.94629   1.02673   -1.000
 4073.00    0.97734   1.01390   -1.000
 4074.00    1.01242   1.00835   -1.000
 4075.00    0.95176   1.01135   -1.000
 4076.00    0.88052   1.02005   -1.000
 4077.00    0.89827   1.03356   -1.000
 4078.00    0.92255   1.05092   -1.000
 4079.00    0.96951   1.06990   -1.000
 4080.00    1.01735   1.08886   -1.000
 4081.00    1.00802   1.10623   -1.000
 4082.00    1.00008   1.12118   -1.000
 4083.00    1.05613   1.13437   -1.000
 4084.00    1.10791   1.14696   -1.000
 4085.00    1.08923   1.15919   -1.000
 4086.00    1.07165   1.16952   -1.000
 4087.00    1.06543   1.17600   -1.000
 4088.00    1.06071   1.17732   -1.000
 4089.00    1.06704   1.17284   -1.000
 4090.00    1.07465   1.16197   -1.000
 4091.00    1.08950   1.14290   -1.000
 4092.00    1.09495   1.11558    0.000
 4093.00    1.05830   1.08406    0.000
 4094.00    1.02411   1.05206    0.000
 4095.00    0.99895   1.01981    0.000
 4096.00    0.96394   0.98562    0.000
 4097.00    0.89866   0.95132    0.000
 4098.00    0.85711   0.92451    0.000
 4099.00    0.87757   0.91182    0.000
 4100.00    0.88074   0.91282    0.000
 4101.00    0.84507   0.92384    0.000
 4102.00    0.84194   0.94348    0.000
 4103.00    0.90213   0.97066    0.000
 4104.00    0.94898   1.00102    0.000
 4105.00    0.97320   1.02861    0.000
 4106.00    0.98337   1.05011    0.000
 4107.00    0.97265   1.06631    0.000
 4108.00    0.97259   1.07916    0.000
 4109.00    0.98645   1.09042    0.000
 4110.00    0.99723   1.10127    0.000
 4111.00    1.00447   1.11153    0.000
 4112.00    1.02059   1.12121    0.000
 4113.00    1.04573   1.12933   -1.000
 4114.00    1.06481   1.13271   -1.000
 4115.00    1.07847   1.13018   -1.000
 4116.00    1.06253   1.12561   -1.000
 4117.00    1.02325   1.12210   -1.000
 4118.00    1.01355   1.11775   -1.000
 4119.00    1.02437   1.11193   -1.000
 4120.00    1.02096   1.10856   -1.000
 4121.00    1.00890   1.11002   -1.000
 4122.00    0.99682   1.11195   -1.000
 4123.00    0.98472   1.10924   -1.000
 4124.00    1.00167   1.10256   -1.000
 4125.00    1.03203   1.09468   -1.000
 4126.00    1.04176   1.08590   -1.000
 4127.00    1.04332   1.07467   -1.000
 4128.00    1.00789   1.06147   -1.000
 4129.00    0.95994   1.05032   -1.000
 4130.00    0.93512   1.04627   -1.000
 4131.00    0.91687   1.05057   -1.000
 4132.00    0.92849   1.06188   -1.000
 4133.00    0.94712   1.07695   -1.000
 4134.00    0.96720   1.09259   -1.000
 4135.00    0.98755   1.10787   -1.000
 4136.00    0.98790   1.12005   -1.000
 4137.00    0.98534   1.12505   -1.000
 4138.00    1.00326   1.11933   -1.000
 4139.00    1.02335   1.10352   -1.000
 4140.00    1.01337   1.08488   -1.000
 4141.00    1.00131   1.07144   -1.000
 4142.00    0.94734   1.06469   -1.000
 4143.00    0.89193   1.06086   -1.000
 4144.00    0.91847   1.05952   -1.000
 4145.00    0.94506   1.06253   -1.000
 4146.00    0.96747   1.06778   -1.000
 4147.00    0.98720   1.07135   -1.000
 4148.00    0.96534   1.07139   -1.000
 4149.00    0.94457   1.06806   -1.000
 4150.00    0.93467   1.06299   -1.000
 4151.00    0.92769   1.05835   -1.000
 4152.00    0.94150   1.05677   -1.000
 4153.00    0.95575   1.05845   -1.000
 4154.00    0.97239   1.06437   -1.000
 4155.00    0.97961   1.07589   -1.000
 4156.00    0.94567   1.09076   -1.000
 4157.00    0.92083   1.10610   -1.000
 4158.00    0.92876   1.12136   -1.000
 4159.00    0.93781   1.13689   -1.000
 4160.00    0.95025   1.14878   -1.000
 4161.00    0.96612   1.15356   -1.000
 4162.00    0.99079   1.15291   -1.000
 4163.00    1.00158   1.14799   -1.000
 4164.00    0.98168   1.13813   -1.000
 4165.00    0.96537   1.12572   -1.000
 4166.00    0.95592   1.11300   -1.000
 4167.00    0.94929   1.09777   -1.000
 4168.00    0.94737   1.07789   -1.000
 4169.00    0.93637   1.05646   -1.000
 4170.00    0.91206   1.03974   -1.000
 4171.00    0.91082   1.02927   -1.000
 4172.00    0.93928   1.02230   -1.000
 4173.00    0.94354   1.01758   -1.000
 4174.00    0.92033   1.01706   -1.000
 4175.00    0.91690   1.02322   -1.000
 4176.00    0.93327   1.03478   -1.000
 4177.00    0.93495   1.04666   -1.000
 4178.00    0.92366   1.05504   -1.000
 4179.00    0.92983   1.06169   -1.000
 4180.00    0.94959   1.07046   -1.000
 4181.00    0.96225   1.08087   -1.000
 4182.00    0.97006   1.08919   -1.000
 4183.00    0.95662   1.09180   -1.000
 4184.00    0.93044   1.09174   -1.000
 4185.00    0.92184   1.09677   -1.000
 4186.00    0.92243   1.10620   -1.000
 4187.00    1.07168   1.11217    0.768
 4188.00    1.28836   1.11374    0.313
 4189.00    1.32811   1.11840    0.268
 4190.00    1.29881   1.12543    0.268
 4191.00    1.27160   1.12440    0.267
 4192.00    1.24509   1.11277    0.265
 4193.00    1.25483   1.09761    0.264
 4194.00    1.27467   1.08232    0.262
 4195.00    1.27139   1.06479    0.263
 4196.00    1.26281   1.04855    0.264
 4197.00    1.26353   1.03860    0.267
 4198.00    1.26596   1.03376    0.271
 4199.00    1.27946   1.03457    0.271
 4200.00    1.29452   1.04447    0.269
 4201.00    1.25737   1.06059    0.265
 4202.00    1.21489   1.07794    0.261
 4203.00    1.20725   1.09687    0.259
 4204.00    1.20188   1.11802    0.258
 4205.00    1.23898   1.13776    0.259
 4206.00    1.27735   1.15148    0.260
 4207.00    1.28880   1.15952    0.265
 4208.00    1.30017   1.16516    0.271
 4209.00    1.30886   1.16836    0.268
 4210.00    1.31784   1.16677    0.266
 4211.00    1.33091   1.16068    0.265
 4212.00    1.34250   1.15435    0.265
 4213.00    1.34011   1.15490    0.268
 4214.00    1.33762   1.16363    0.270
 4215.00    1.33449   1.17274    0.267
 4216.00    1.33004   1.17827    0.264
 4217.00    1.31857   1.18229    0.265
 4218.00    1.30756   1.18190    0.265
 4219.00    1.29849   1.16795    0.265
 4220.00    1.29534   1.13981    0.267
 4221.00    1.31308   1.10452    0.270
 4222.00    1.31505   1.06578    0.271
 4223.00    1.27034   1.02774    0.267
 4224.00    1.22032   1.00299    0.264
 4225.00    1.15686   1.00107    0.262
 4226.00    1.12619   1.01474    0.261
 4227.00    1.16678   1.03562    0.261
 4228.00    1.17281   1.06289    0.259
 4229.00    1.11367   1.09092    0.253
 4230.00    1.10208   1.11211    0.250
 4231.00    1.16877   1.12568    0.250
 4232.00    1.21353   1.13102    0.252
 4233.00    1.22663   1.12932    0.255
 4234.00    1.22897   1.12877    0.257
 4235.00    1.21764   1.13269    0.257
 4236.00    1.21646   1.13922    0.256
 4237.00    1.22663   1.15053    0.252
 4238.00    1.23370   1.16830    0.250
 4239.00    1.23772   1.18601    0.248
 4240.00    1.25544   1.20033    0.250
 4241.00    1.28509   1.21451    0.256
 4242.00    1.34137   1.22346    0.259
 4243.00    1.41806   1.22002    0.261
 4244.00    1.39059   1.20794    0.258
 4245.00    1.29293   1.19487    0.252
 4246.00    1.29335   1.17910    0.257
 4247.00    1.35168   1.15803    0.270
 4248.00    1.33704   1.14186    0.278
 4249.00    1.28484   1.13697    0.282
 4250.00    1.23513   1.13441    0.275
 4251.00    1.18652   1.12875    0.265
 4252.00    1.22478   1.12792    0.266
 4253.00    1.29636   1.13572    0.271
 4254.00    1.33301   1.14292    0.266
 4255.00    1.35828   1.14239    0.258
 4256.00    1.29501   1.13998    0.255
 4257.00    1.20757   1.14246    0.253
 4258.00    1.24403   1.15178    0.256
 4259.00    1.30825   1.16774    0.259
 4260.00    1.34219   1.18589    0.258
 4261.00    1.37071   1.20279    0.257
 4262.00    1.36136   1.21909    0.256
 4263.00    1.34683   1.23123    0.255
 4264.00    1.33096   1.22943    0.252
 4265.00    1.31497   1.21299    0.250
 4266.00    1.25736   1.18850    0.251
 4267.00    1.19720   1.15604    0.252
 4268.00    1.18501   1.11696    0.252
 4269.00    1.17429   1.08518    0.253
 4270.00    1.19661   1.06966    0.251
 4271.00    1.21715   1.06307    0.250
 4272.00    1.19058   1.06451    0.253
 4273.00    1.16842   1.08152    0.257
 4274.00    1.20677   1.11017    0.257
 4275.00    1.24349   1.13781    0.258
 4276.00    1.26545   1.15788    0.259
 4277.00    1.28408   1.17172    0.259
 4278.00    1.28052   1.18166    0.259
 4279.00    1.28172   1.18536    0.259
 4280.00    1.30761   1.18159    0.257
 4281.00    1.32388   1.17199    0.255
 4282.00    1.29996   1.15695   -2.000
 4283.00    1.28545   1.14022   -2.000
 4284.00    1.30337   1.12542   -2.000
 4285.00    1.32641   1.10977   -2.000
 4286.00    1.36434   1.08982   -2.000
 4287.00    1.37741   1.07264   -2.000
 4288.00    1.32884   1.06703   -2.000
 4289.00    1.30473   1.06939   -2.000
 4290.00    1.33289   1.07039   -2.000
 4291.00    1.34998   1.06675   -2.000
 4292.00    1.34653   1.06287   -2.000
 4293.00    1.32598   1.05706   -2.000
 4294.00    1.27771   1.04218   -2.000
 4295.00    1.27182   1.01597   -2.000
 4296.00    1.32622   0.98344   -2.000
 4297.00    1.34183   0.95388   -2.000
 4298.00    1.30888   0.93062    0.267
 4299.00    1.24889   0.90960    0.264
 4300.00    1.15906   0.89090    0.259
 4301.00    1.11782   0.87977    0.257
 4302.00    1.12384   0.87481    0.257
 4303.00    1.10167   0.87118    0.259
 4304.00    1.05532   0.86814    0.261
 4305.00    1.04824   0.86890    0.258
 4306.00    1.07082   0.87807    0.252
 4307.00    1.08443   0.89718    0.251
 4308.00    1.09209   0.92635    0.253
 4309.00    1.13042   0.96648    0.257
 4310.00    1.18660   1.01679    0.262
 4311.00    1.22954   1.07291    0.262
 4312.00    1.26579   1.13320    0.258
 4313.00    1.28968   1.19562    0.255
 4314.00    1.30814   1.24954    0.252
 4315.00    1.35432   1.28802    0.254
 4316.00    1.41094   1.31186    0.257
 4317.00    1.40584   1.32026    0.255
 4318.00    1.38102   1.30985    0.252
 4319.00    1.38751   1.28538    0.257
 4320.00    1.40236   1.25325    0.263
 4321.00    1.40712   1.21784    0.264
 4322.00    1.40966   1.18577    0.262
 4323.00    1.38470   1.16724    0.265
 4324.00    1.35496   1.16892    0.268
 4325.00    1.31370   1.18638    0.264
 4326.00    1.27093   1.21046    0.260
 4327.00    1.27232   1.23748    0.257
 4328.00    1.27783   1.26871    0.255
 4329.00    1.35746   1.29698    0.256
 4330.00    1.44133   1.30969    0.000
 4331.00    1.48687   1.30631    0.000
 4332.00    1.53080   1.29297    0.000
 4333.00    1.49189   1.26668    0.000
 4334.00    1.45452   1.22500    0.000
 4335.00    1.45423   1.17970    0.000
 4336.00    1.45327   1.13938    0.000
 4337.00    1.44349   1.10342    0.000
 4338.00    1.42984   1.08093    0.000
 4339.00    1.38223   1.08183    0.000
 4340.00    1.34628   1.09837    0.000
 4341.00    1.38569   1.12318    0.000
 4342.00    1.41961   1.16077    0.000
 4343.00    1.42578   1.20357    0.000
 4344.00    1.41199   1.23555    0.000
 4345.00    1.31674   1.25820    0.000
 4346.00    1.24639   1.27882    0.000
 4347.00    1.26023   1.28829    0.000
 4348.00    1.29711   1.28023    0.000
 4349.00    1.39972   1.27036    0.000
 4350.00    1.43820   1.27159    0.000
 4351.00    1.32031   1.27500    0.337
 4352.00    1.25718   1.27461    0.318
 4353.00    1.30925   1.28251    0.284
 4354.00    1.36348   1.30279    0.262
 4355.00    1.42166   1.32167    0.254
 4356.00    1.44969   1.33375    0.248
 4357.00    1.42954   1.34981    0.246
 4358.00    1.44534   1.37189    0.245
 4359.00    1.51153   1.38871    0.247
 4360.00    1.57061   1.39734    0.249
 4361.00    1.62088   1.40693    0.253
 4362.00    1.61240   1.41751    0.254
 4363.00    1.54002   1.41792    0.254
 4364.00    1.51842   1.40645    0.253
 4365.00    1.54554   1.39335    0.251
 4366.00    1.57367   1.38161    0.253
 4367.00    1.60266   1.36458    0.257
 4368.00    1.56587   1.34372    0.258
 4369.00    1.48010   1.32736    0.257
 4370.00    1.44007   1.31522    0.254
 4371.00    1.42999   1.30182    0.250
 4372.00    1.42531   1.29013    0.248
 4373.00    1.42374   1.28619    0.247
 4374.00    1.40020   1.28748    0.248
 4375.00    1.36570   1.28536    0.249
 4376.00    1.35518   1.27527    0.249
 4377.00    1.35500   1.25962    0.248
 4378.00    1.37143   1.24124    0.251
 4379.00    1.39401   1.21562    0.256
 4380.00    1.38654   1.17986    0.259
 4381.00    1.36964   1.14668    0.260
 4382.00    1.33896   1.13118    0.256
 4383.00    1.30468   1.13043    0.251
 4384.00    1.33234   1.13458    0.251
 4385.00    1.37323   1.14684    0.252
 4386.00    1.40058   1.17120    0.253
 4387.00    1.42565   1.19821    0.255
 4388.00    1.41025   1.21988    0.252
 4389.00    1.38968   1.24030    0.247
 4390.00    1.40745   1.26164    0.246
 4391.00    1.42864   1.27838    0.244
 4392.00    1.43977   1.29091    0.248
 4393.00    1.45037   1.30522    0.253
 4394.00    1.47011   1.31948    0.251
 4395.00    1.49016   1.32689    0.249
 4396.00    1.52101   1.32638    0.250
 4397.00    1.54743   1.31866    0.250
 4398.00    1.47622   1.30658    0.253
 4399.00    1.41186   1.29509    0.255
 4400.00    1.43220   1.28006    0.256
 4401.00    1.45057   1.25598    0.256
 4402.00    1.45244   1.23704    0.257
 4403.00    1.45055   1.23689    0.256
 4404.00    1.42512   1.24341    0.252
 4405.00    1.41283   1.24727    0.250
 4406.00    1.46515   1.26202    0.260
 4407.00    1.49406   1.29047    0.269
 4408.00    1.42951   1.31499    0.266
 4409.00    1.39149   1.33084    0.262
 4410.00    1.44145   1.34567    0.257
 4411.00    1.48966   1.35438    0.254
 4412.00    1.53293   1.35310    0.256
 4413.00    1.55077   1.35337    0.257
 4414.00    1.50763   1.35866    0.257
 4415.00    1.48269   1.36173    0.257
 4416.00    1.49543   1.36587    0.258
 4417.00    1.49446   1.37673    0.257
 4418.00    1.46884   1.38628    0.255
 4419.00    1.45344   1.38818    0.253
 4420.00    1.45412   1.38839    0.253
 4421.00    1.48046   1.39090    0.253
 4422.00    1.54228   1.39088    0.256
 4423.00    1.56284   1.38595    0.258
 4424.00    1.53322   1.38189    0.257
 4425.00    1.51647   1.38296    0.256
 4426.00    1.51350   1.38278    0.255
 4427.00    1.48725   1.37501    0.253
 4428.00    1.43898   1.36602    0.252
 4429.00    1.42342   1.36242    0.253
 4430.00    1.43513   1.35860    0.255
 4431.00    1.45168   1.35075    0.257
 4432.00    1.47180   1.34703    0.259
 4433.00    1.49351   1.35279    0.259
 4434.00    1.51624   1.36296    0.258
 4435.00    1.53251   1.37247    0.261
 4436.00    1.54513   1.38170    0.266
 4437.00    1.56460   1.39071    0.270
 4438.00    1.58743   1.39717    0.274
 4439.00    1.54291   1.39986    0.273
 4440.00    1.46981   1.40064    0.269
 4441.00    1.46307   1.40361    0.265
 4442.00    1.48045   1.41238    0.261
 4443.00    1.55253   1.42305    0.264
 4444.00    1.64143   1.43073    0.269
 4445.00    1.62266   1.43971    0.266
 4446.00    1.57633   1.44920    0.260
 4447.00    1.57785   1.44815    0.260
 4448.00    1.58934   1.43599    0.260
 4449.00    1.56436   1.42209    0.260
 4450.00    1.53339   1.40506    0.259
 4451.00    1.52134   1.37897    0.257
 4452.00    1.51162   1.34978    0.254
 4453.00    1.49827   1.32705    0.252
 4454.00    1.48461   1.30949    0.251
 4455.00    1.42540   1.29177    0.250
 4456.00    1.36393   1.27897    0.250
 4457.00    1.39877   1.27851    0.248
 4458.00    1.43415   1.28321    0.247
 4459.00    1.40806   1.28786    0.246
 4460.00    1.38591   1.30051    0.246
 4461.00    1.44364   1.32021    0.000
 4462.00    1.50092   1.33553    0.000
 4463.00    1.55279   1.34802    0.000
 4464.00    1.59703   1.36516    0.000
 4465.00    1.57940   1.38120    0.000
 4466.00    1.55604   1.39179    0.000
 4467.00    1.49781   1.40458    0.000
 4468.00    1.46077   1.42293    0.000
 4469.00    1.52541   1.44200    0.000
 4470.00    1.58408   1.46128    0.000
 4471.00    1.61947   1.48298    0.000
 4472.00    1.64621   1.50149    0.000
 4473.00    1.64479   1.51271    0.000
 4474.00    1.63430   1.51909    0.000
 4475.00    1.59883   1.51958    0.000
 4476.00    1.56557   1.51092    0.000
 4477.00    1.53754   1.49775    0.000
 4478.00    1.52586   1.48639    0.000
 4479.00    1.54748   1.47832    0.000
 4480.00    1.56705   1.47516    0.000
 4481.00    1.58300   1.47767    0.000
 4482.00    1.58938   1.48313    0.250
 4483.00    1.58092   1.48930    0.250
 4484.00    1.57686   1.49480    0.249
 4485.00    1.57882   1.49563    0.245
 4486.00    1.59087   1.49021    0.243
 4487.00    1.61503   1.48164    0.243
 4488.00    1.62507   1.47273    0.244
 4489.00    1.62018   1.46526    0.244
 4490.00    1.61755   1.45927    0.244
 4491.00    1.61701   1.45454    0.241
 4492.00    1.61904   1.45462    0.241
 4493.00    1.62316   1.46153    0.242
 4494.00    1.61260   1.47143    0.242
 4495.00    1.59142   1.48244    0.242
 4496.00    1.58567   1.49956    0.243
 4497.00    1.58972   1.52197    0.243
 4498.00    1.62844   1.54254    0.243
 4499.00    1.68642   1.56202    0.243
 4500.00    1.65416   1.58476    0.239
 4501.00    1.57829   1.60566    0.235
 4502.00    1.58369   1.61871    0.238
 4503.00    1.62299   1.62862    0.243
 4504.00    1.65506   1.63742    0.243
 4505.00    1.68456   1.63950    0.242
 4506.00    1.67205   1.63501    0.240
 4507.00    1.64689   1.62858    0.238
 4508.00    1.66046   1.61987    0.238
 4509.00    1.68374   1.60786    0.239
 4510.00    1.66499   1.59518    0.239
 4511.00    1.63769   1.58273    0.239
 4512.00    1.63897   1.57058    0.241
 4513.00    1.64481   1.56181    0.243
 4514.00    1.62778   1.55655    0.244
 4515.00    1.60802   1.55205    0.245
 4516.00    1.59984   1.54878    0.244
 4517.00    1.59260   1.54776    0.243
 4518.00    1.57183   1.54511    0.239
 4519.00    1.55045   1.53544    0.234
 4520.00    1.58997   1.51956    0.237
 4521.00    1.62942   1.50105    0.240
 4522.00    1.62697   1.47891    0.239
 4523.00    1.62334   1.45057    0.239
 4524.00    1.59761   1.42204    0.235
 4525.00    1.57170   1.39923    0.231
 4526.00    1.54376   1.38155    0.231
 4527.00    1.51851   1.36886    0.232
 4528.00    1.51436   1.36257    0.231
 4529.00    1.50421   1.36389    0.230
 4530.00    1.45868   1.37283    0.229
 4531.00    1.42507   1.38654    0.230
 4532.00    1.44725   1.40150    0.234
 4533.00    1.47743   1.42050    0.238
 4534.00    1.53819   1.44346    0.235
 4535.00    1.57665   1.46463    0.233
 4536.00    1.54398   1.48155    0.233
 4537.00    1.52507   1.49641    0.232
 4538.00    1.54336   1.50744    0.232
 4539.00    1.56096   1.51158    0.232
 4540.00    1.57699   1.51272    0.232
 4541.00    1.58738   1.51094    0.232
 4542.00    1.58646   1.50394    0.233
 4543.00    1.58600   1.49597    0.234
 4544.00    1.58636   1.49110    0.237
 4545.00    1.56892   1.48531    0.238
 4546.00    1.52428   1.47560    0.237
 4547.00    1.50252   1.46869    0.235
 4548.00    1.51146   1.46807    0.231
 4549.00    1.52935   1.46803    0.230
 4550.00    1.55782   1.46747    0.000
 4551.00    1.57335   1.47376    0.000
 4552.00    1.57539   1.48571    0.000
 4553.00    1.57573   1.49837    0.000
 4554.00    1.57449   1.51438    0.000
 4555.00    1.58727   1.53323    0.000
 4556.00    1.61142   1.55002    0.000
 4557.00    1.62050   1.56263    0.000
 4558.00    1.61884   1.57115    0.000
 4559.00    1.63722   1.57505    0.000
 4560.00    1.66815   1.57448    0.000
 4561.00    1.67713   1.57057    0.000
 4562.00    1.67411   1.56604    0.000
 4563.00    1.66997   1.56465    0.000
 4564.00    1.66530   1.56647    0.000
 4565.00    1.65554   1.56761    0.000
 4566.00    1.64369   1.56982    0.000
 4567.00    1.63865   1.57735    0.000
 4568.00    1.63600   1.58292    0.000
 4569.00    1.65936   1.58195    0.000
 4570.00    1.69040   1.58419    0.000
 4571.00    1.67731   1.58904    0.000
 4572.00    1.65341   1.58559    0.000
 4573.00    1.63917   1.57863    0.000
 4574.00    1.62685   1.57404    0.000
 4575.00    1.61167   1.56488    0.000
 4576.00    1.59606   1.55016    0.000
 4577.00    1.56972   1.53456    0.000
 4578.00    1.54216   1.52075    0.000
 4579.00    1.53376   1.51057    0.000
 4580.00    1.52682   1.50339    0.000
 4581.00    1.54235   1.50017    0.000
 4582.00    1.55881   1.50365    0.000
 4583.00    1.57064   1.51199    0.000
 4584.00    1.58260   1.52092    0.000
 4585.00    1.60170   1.53019    0.000
 4586.00    1.61941   1.53900    0.000
 4587.00    1.61282   1.54471    0.000
 4588.00    1.60807   1.54616    0.000
 4589.00    1.62300   1.54286    0.000
 4590.00    1.63846   1.53744    0.000
 4591.00    1.65791   1.53116    0.000
 4592.00    1.66511   1.52329    0.000
 4593.00    1.60180   1.51712    0.000
 4594.00    1.54537   1.51386    0.000
 4595.00    1.52036   1.51221    0.000
 4596.00    1.50646   1.51325    0.000
 4597.00    1.53414   1.51626    0.000
 4598.00    1.55753   1.51890    0.000
 4599.00    1.56749   1.52404    0.000
 4600.00    1.57285   1.53320    0.000
 4601.00    1.56600   1.54225    0.000
 4602.00    1.56966   1.55380    0.000
 4603.00    1.59723   1.56959    0.000
 4604.00    1.62578   1.58580    0.000
 4605.00    1.65629   1.60190    0.000
 4606.00    1.67042   1.61755    0.000
 4607.00    1.65641   1.62975    0.000
 4608.00    1.65567   1.63781    0.000
 4609.00    1.67493   1.64377    0.000
 4610.00    1.67289   1.64579    0.000
 4611.00    1.64268   1.64484    0.000
 4612.00    1.62899   1.64531    0.000
 4613.00    1.63453   1.64492    0.000
 4614.00    1.64856   1.64356    0.000
 4615.00    1.67129   1.64687    0.000
 4616.00    1.66977   1.64921    0.000
 4617.00    1.64625   1.64761    0.000
 4618.00    1.63145   1.65114    0.000
 4619.00    1.62361   1.65475    0.000
 4620.00    1.64565   1.65192    0.000
 4621.00    1.68870   1.65224    0.000
 4622.00    1.69204   1.65510    0.000
 4623.00    1.67089   1.65100    0.000
 4624.00    1.65381   1.64675    0.000
 4625.00    1.63893   1.64780    0.000
 4626.00    1.64586   1.64484    0.000
 4627.00    1.66301   1.63712    0.000
 4628.00    1.66939   1.63350    0.000
 4629.00    1.67144   1.63073    0.000
 4630.00    1.65889   1.62086    0.000
 4631.00    1.64132   1.60893    0.000
 4632.00    1.62865   1.60076    0.000
 4633.00    1.61739   1.59103    0.000
 4634.00    1.62014   1.57757    0.000
 4635.00    1.62625   1.56719    0.000
 4636.00    1.60844   1.56106    0.000
 4637.00    1.58602   1.55369    0.000
 4638.00    1.54815   1.54563    0.000
 4639.00    1.50797   1.54108    0.000
 4640.00    1.51688   1.53453    0.000
 4641.00    1.53119   1.52330    0.000
 4642.00    1.52759   1.51478    0.000
 4643.00    1.52269   1.50756    0.000
 4644.00    1.51417   1.49875    0.000
 4645.00    1.50551   1.49501    0.000
 4646.00    1.49437   1.49842    0.000
 4647.00    1.48419   1.50522    0.000
 4648.00    1.50954   1.51474    0.000
 4649.00    1.53546   1.52673    0.000
 4650.00    1.57052   1.54009    0.000
 4651.00    1.60362   1.55248    0.000
 4652.00    1.61666   1.56239    0.000
 4653.00    1.62784   1.57323    0.000
 4654.00    1.62547   1.58506    0.000
 4655.00    1.61940   1.59466    0.000
 4656.00    1.59268   1.60375    0.000
 4657.00    1.57373   1.60948    0.000
 4658.00    1.58943   1.60806    0.000
 4659.00    1.60756   1.60088    0.000
 4660.00    1.63460   1.58574    0.000
 4661.00    1.65078   1.56203    0.000
 4662.00    1.63360   1.53692    0.000
 4663.00    1.61627   1.51375    0.000
 4664.00    1.59855   1.49105    0.000
 4665.00    1.57148   1.47569    0.000
 4666.00    1.52343   1.47335    0.000
 4667.00    1.48962   1.47812    0.000
 4668.00    1.48345   1.48752    0.000
 4669.00    1.49063   1.50442    0.000
 4670.00    1.52041   1.52450    0.000
 4671.00    1.53824   1.54161    0.000
 4672.00    1.53833   1.55475    0.000
 4673.00    1.56417   1.56416    0.000
 4674.00    1.62360   1.56977    0.000
 4675.00    1.64408   1.56959    0.000
 4676.00    1.61981   1.56544    0.000
 4677.00    1.58599   1.56299    0.000
 4678.00    1.54249   1.56031    0.000
 4679.00    1.52867   1.55604    0.000
 4680.00    1.54137   1.55606    0.000
 4681.00    1.55920   1.55997    0.000
 4682.00    1.58109   1.56211    0.000
 4683.00    1.59813   1.56469    0.000
 4684.00    1.61183   1.56938    0.000
 4685.00    1.60279   1.57059    0.000
 4686.00    1.57992   1.57006    0.000
 4687.00    1.56973   1.57219    0.000
 4688.00    1.56626   1.57287    0.000
 4689.00    1.56197   1.57234    0.000
 4690.00    1.55730   1.57534    0.000
 4691.00    1.55310   1.57811    0.000
 4692.00    1.54908   1.57679    0.000
 4693.00    1.56661   1.57448    0.000
 4694.00    1.59142   1.57102    0.000
 4695.00    1.56779   1.56272    0.000
 4696.00    1.53040   1.55048    0.000
 4697.00    1.53001   1.53879    0.000
 4698.00    1.53828   1.52871    0.000
 4699.00    1.55213   1.51842    0.000
 4700.00    1.56702   1.50999    0.000
 4701.00    1.53983   1.50621    0.000
 4702.00    1.50651   1.50635    0.000
 4703.00    1.54085   1.50729    0.000
 4704.00    1.58235   1.50849    0.000
 4705.00    1.56874   1.51315    0.000
 4706.00    1.55134   1.52017    0.000
 4707.00    1.52303   1.52643    0.000
 4708.00    1.49435   1.53399    0.000
 4709.00    1.53033   1.54432    0.000
 4710.00    1.56457   1.55539    0.000
 4711.00    1.53911   1.56776    0.000
 4712.00    1.51596   1.58130    0.000
 4713.00    1.52845   1.59661    0.000
 4714.00    1.54261   1.61489    0.000
 4715.00    1.57315   1.63129    0.000
 4716.00    1.60033   1.64615    0.000
 4717.00    1.60365   1.66212    0.000
 4718.00    1.60729   1.67327    0.000
 4719.00    1.61263   1.67756    0.000
 4720.00    1.61831   1.67761    0.000
 4721.00    1.62541   1.67195    0.000
 4722.00    1.62976   1.65987    0.000
 4723.00    1.62418   1.64385    0.000
 4724.00    1.61931   1.62482    0.000
 4725.00    1.61658   1.60357    0.000
 4726.00    1.61612   1.58573    0.000
 4727.00    1.62147   1.57335    0.000
 4728.00    1.61630   1.56320    0.000
 4729.00    1.58792   1.56008    0.000
 4730.00    1.56221   1.56573    0.000
 4731.00    1.54161   1.57196    0.000
 4732.00    1.53642   1.58047    0.000
 4733.00    1.55693   1.59426    0.000
 4734.00    1.58788   1.60351    0.000
 4735.00    1.63410   1.61057    0.000
 4736.00    1.65895   1.62289    0.000
 4737.00    1.65634   1.63149    0.000
 4738.00    1.65359   1.63596    0.000
 4739.00    1.65068   1.64405    0.000
 4740.00    1.65763   1.65256    0.000
 4741.00    1.67442   1.65895    0.000
 4742.00    1.68355   1.66415    0.000
 4743.00    1.68593   1.66896    0.000
 4744.00    1.69137   1.67516    0.000
 4745.00    1.69920   1.67836    0.000
 4746.00    1.68173   1.67634    0.000
 4747.00    1.64699   1.67458    0.000
 4748.00    1.66042   1.67158    0.000
 4749.00    1.70266   1.66335    0.000
 4750.00    1.71682   1.65411    0.000
 4751.00    1.71631   1.64678    0.000
 4752.00    1.69733   1.63876    0.000
 4753.00    1.66999   1.63086    0.000
 4754.00    1.66095   1.62563    0.000
 4755.00    1.65904   1.62109    0.000
 4756.00    1.65529   1.61472    0.000
 4757.00    1.65094   1.60757    0.000
 4758.00    1.66912   1.60039    0.000
 4759.00    1.69358   1.58935    0.000
 4760.00    1.67303   1.57644    0.000
 4761.00    1.64220   1.56797    0.219
 4762.00    1.59870   1.56122    0.218
 4763.00    1.55287   1.55563    0.218
 4764.00    1.58287   1.55814    0.215
 4765.00    1.62355   1.56735    0.213
 4766.00    1.62657   1.57742    0.215
 4767.00    1.62578   1.59127    0.219
 4768.00    1.59397   1.60930    0.216
 4769.00    1.56017   1.62523    0.213
 4770.00    1.56247   1.63957    0.213
 4771.00    1.56591   1.65475    0.214
 4772.00    1.58853   1.66829    0.216
 4773.00    1.61073   1.67703    0.218
 4774.00    1.62056   1.68212    0.218
 4775.00    1.62885   1.68730    0.218
 4776.00    1.61479   1.68791    0.219
 4777.00    1.60258   1.68036    0.219
 4778.00    1.60789   1.67208    0.216
 4779.00    1.61172   1.66509    0.213
 4780.00    1.60541   1.65276    0.209
 4781.00    1.59520   1.63795    0.206
 4782.00    1.56431   1.63082    0.209
 4783.00    1.54181   1.62534    0.211
 4784.00    1.55504   1.61601    0.212
 4785.00    1.55827   1.61645    0.212
 4786.00    1.52635   1.62403    0.210
 4787.00    1.50401   1.62779    0.208
 4788.00    1.50996   1.63847    0.209
 4789.00    1.52058   1.65567    0.211
 4790.00    1.54297   1.66811    0.214
 4791.00    1.57882   1.68064    0.216
 4792.00    1.64387   1.69383    0.217
 4793.00    1.68798   1.70011    0.217
 4794.00    1.69267   1.70166    0.218
 4795.00    1.69328   1.70200    0.218
 4796.00    1.68718   1.69892    0.216
 4797.00    1.68543   1.69364    0.217
 4798.00    1.68995   1.68964    0.222
 4799.00    1.68782   1.68607    0.223
 4800.00    1.67726   1.68248    0.219
 4801.00    1.66127   1.67982    0.217
 4802.00    1.63922   1.67572    0.219
 4803.00    1.65359   1.67090    0.220
 4804.00    1.70384   1.66872    0.221
 4805.00    1.70892   1.66542    0.220
 4806.00    1.67477   1.66213    0.217
 4807.00    1.65037   1.66487    0.216
 4808.00    1.63342   1.66927    0.218
 4809.00    1.62860   1.67359    0.218
 4810.00    1.63195   1.68185    0.217
 4811.00    1.64693   1.69181    0.216
 4812.00    1.66876   1.70066    0.216
 4813.00    1.67888   1.70945    0.217
 4814.00    1.68297   1.71776    0.219
 4815.00    1.69880   1.72255    0.220
 4816.00    1.71985   1.72427    0.222
 4817.00    1.70148   1.72367    0.222
 4818.00    1.66803   1.71702    0.221
 4819.00    1.67112   1.70828    0.222
 4820.00    1.68609   1.70047    0.223
 4821.00    1.66822   1.68852    0.223
 4822.00    1.64141   1.67851    0.223
 4823.00    1.66207   1.67352    0.223
 4824.00    1.69333   1.66703    0.223
 4825.00    1.65741   1.66270    0.221
 4826.00    1.60952   1.66104    0.220
 4827.00    1.63965   1.65849    0.222
 4828.00    1.68040   1.65832    0.224
 4829.00    1.64397   1.65749    0.224
 4830.00    1.60004   1.65496    0.223
 4831.00    1.59228   1.65623    0.221
 4832.00    1.58672   1.65747    0.219
 4833.00    1.64613   1.65476    0.220
 4834.00    1.70674   1.65210    0.222
 4835.00    1.67222   1.65066    0.221
 4836.00    1.63868   1.64728    0.221
 4837.00    1.63043   1.64152    0.222
 4838.00    1.62320   1.63755    0.223
 4839.00    1.62985   1.63736    0.224
 4840.00    1.63774   1.63667    0.225
 4841.00    1.65688   1.63549    0.223
 4842.00    1.66882   1.63868    0.220
 4843.00    1.63301   1.64115    0.216
 4844.00    1.60295   1.63998    0.214
 4845.00    1.60256   1.64002    0.217
 4846.00    1.60467   1.63608    0.221
 4847.00    1.61725   1.62795    0.224
 4848.00    1.62540   1.62078    0.000
 4849.00    1.61831   1.60609    0.000
 4850.00    1.61582   1.58482    0.000
 4851.00    1.62668   1.56587    0.000
 4852.00    1.62273   1.53998    0.000
 4853.00    1.58216   1.50497    0.000
 4854.00    1.54122   1.47376    0.000
 4855.00    1.49954   1.44195    0.000
 4856.00    1.48574   1.40494    0.000
 4857.00    1.52358   1.37809    0.000
 4858.00    1.52887   1.36100    0.000
 4859.00    1.48144   1.34618    0.000
 4860.00    1.46259   1.34770    0.000
 4861.00    1.48434   1.36306    0.000
 4862.00    1.50019   1.37802    0.000
 4863.00    1.50868   1.40083    0.000
 4864.00    1.49221   1.43016    0.000
 4865.00    1.44827   1.45026    0.000
 4866.00    1.45488   1.46386    0.000
 4867.00    1.51058   1.47940    0.000
 4868.00    1.53429   1.49052    0.000
 4869.00    1.53060   1.49441    0.000
 4870.00    1.52745   1.50337    0.000
 4871.00    1.52470   1.51913    0.000
 4872.00    1.53018   1.53170    0.000
 4873.00    1.54111   1.54550    0.000
 4874.00    1.54563   1.56764    0.000
 4875.00    1.54643   1.58609    0.220
 4876.00    1.54709   1.59546    0.219
 4877.00    1.54768   1.60735    0.219
 4878.00    1.57759   1.61521    0.219
 4879.00    1.62034   1.60982    0.220
 4880.00    1.62330   1.60366    0.219
 4881.00    1.61130   1.59781    0.217
 4882.00    1.57633   1.58381    0.215
 4883.00    1.53403   1.56935    0.213
 4884.00    1.53092   1.56149    0.215
 4885.00    1.53827   1.55456    0.218
 4886.00    1.47042   1.54920    0.220
 4887.00    1.38617   1.55561    0.221
 4888.00    1.39759   1.56850    0.222
 4889.00    1.42560   1.58298    0.224
 4890.00    1.43972   1.60947    0.223
 4891.00    1.45201   1.63883    0.222
 4892.00    1.51473   1.66268    0.220
 4893.00    1.58214   1.69022    0.218
 4894.00    1.57285   1.71141    0.215
 4895.00    1.55922   1.72121    0.213
 4896.00    1.61901   1.73015    0.220
 4897.00    1.67989   1.73148    0.227
 4898.00    1.67639   1.72479    0.226
 4899.00    1.67219   1.72161    0.225
 4900.00    1.65113   1.71720    0.219
 4901.00    1.63227   1.70879    0.214
 4902.00    1.64202   1.70339    0.215
 4903.00    1.64939   1.69948    0.216
 4904.00    1.63609   1.69254    0.216
 4905.00    1.62218   1.68351    0.216
 4906.00    1.60439   1.67649    0.216
 4907.00    1.59421   1.67062    0.216
 4908.00    1.62234   1.66247    0.217
 4909.00    1.63992   1.65692    0.218
 4910.00    1.61451   1.65470    0.218
 4911.00    1.59890   1.64891    0.218
 4912.00    1.61631   1.64013    0.217
 4913.00    1.62720   1.62976    0.215
 4914.00    1.61953   1.61408    0.213
 4915.00    1.60849   1.59363    0.212
 4916.00    1.58923   1.57319    0.212
 4917.00    1.58083   1.55676    0.212
 4918.00    1.59521   1.54478    0.211
 4919.00    1.59243   1.53951    0.210
 4920.00    1.55833   1.54670    0.210
 4921.00    1.53196   1.56299    0.209
 4922.00    1.51793   1.58157    0.208
 4923.00    1.51347   1.60727    0.207
 4924.00    1.52239   1.63766    0.206
 4925.00    1.54860   1.65917    0.207
 4926.00    1.59608   1.67743    0.211
 4927.00    1.64139   1.69563    0.213
 4928.00    1.68433   1.69859    0.213
 4929.00    1.68486   1.69448    0.211
 4930.00    1.64479   1.69174    0.209
 4931.00    1.61306   1.67696    0.206
 4932.00    1.58838   1.65975    0.204
 4933.00    1.57647   1.64998    0.204
 4934.00    1.57404   1.63694    0.205
 4935.00    1.57133   1.62883    0.205
 4936.00    1.56842   1.63145    0.205
 4937.00    1.57211   1.63543    0.206
 4938.00    1.57956   1.64700    0.208
 4939.00    1.60178   1.66647    0.209
 4940.00    1.63135   1.68257    0.000
 4941.00    1.64316   1.70084    0.000
 4942.00    1.64732   1.72211    0.000
 4943.00    1.64598   1.73572    0.000
 4944.00    1.64261   1.74571    0.000
 4945.00    1.65673   1.75656    0.000
 4946.00    1.67633   1.76148    0.000
 4947.00    1.69812   1.76035    0.000
 4948.00    1.72048   1.75710    0.000
 4949.00    1.70784   1.74848    0.000
 4950.00    1.68775   1.73481    0.000
 4951.00    1.66470   1.71900    0.000
 4952.00    1.64114   1.69779    0.000
 4953.00    1.64923   1.67907    0.000
 4954.00    1.66134   1.66750    0.000
 4955.00    1.63620   1.65368    0.000
 4956.00    1.60776   1.64753    0.000
 4957.00    1.61001   1.65321    0.000
 4958.00    1.61387   1.65711    0.000
 4959.00    1.62482   1.66205    0.000
 4960.00    1.63611   1.66916    0.000
 4961.00    1.66234   1.67339    0.000
 4962.00    1.68628   1.67423    0.000
 4963.00    1.66043   1.67100    0.000
 4964.00    1.63309   1.66954    0.000
 4965.00    1.58735   1.66940    0.000
 4966.00    1.54628   1.66847    0.000
 4967.00    1.54436   1.67274    0.000
 4968.00    1.55182   1.67897    0.000
 4969.00    1.61788   1.68549    0.000
 4970.00    1.66722   1.69261    0.000
 4971.00    1.63463   1.69553    0.000
 4972.00    1.60831   1.69598    0.000
 4973.00    1.60693   1.69032    0.000
 4974.00    1.60309   1.67675    0.000
 4975.00    1.59109   1.66139    0.000
 4976.00    1.57991   1.64034    0.000
 4977.00    1.57099   1.61436    0.000
 4978.00    1.56082   1.59283    0.000
 4979.00    1.54764   1.57475    0.000
 4980.00    1.54005   1.55768    0.000
 4981.00    1.54403   1.54990    0.000
 4982.00    1.53676   1.55322    0.000
 4983.00    1.50929   1.55851    0.000
 4984.00    1.51115   1.56939    0.000
 4985.00    1.55906   1.58732    0.000
 4986.00    1.56935   1.60125    0.000
 4987.00    1.52774   1.61539    0.000
 4988.00    1.50864   1.62885    0.000
 4989.00    1.51685   1.63474    0.000
 4990.00    1.53119   1.64254    0.000
 4991.00    1.55211   1.64625    0.000
 4992.00    1.58847   1.64226    0.000
 4993.00    1.63940   1.64198    0.000
 4994.00    1.63550   1.63585    0.000
 4995.00    1.58597   1.62321    0.000
 4996.00    1.55677   1.61359    0.000
 4997.00    1.54246   1.59864    0.000
 4998.00    1.54342   1.58122    0.000
 4999.00    1.55418   1.56840    0.000
 5000.00    1.55459   1.55430    0.000
 5001.00    1.54916   1.54141    0.000
 5002.00    1.54775   1.53505    0.000
 5003.00    1.54830   1.53071    0.000
 5004.00    1.54151   1.52595    0.000
 5005.00    1.53161   1.52576    0.000
 5006.00    1.55841   1.52754    0.000
 5007.00    1.59851   1.52392    0.000
 5008.00    1.58861   1.51990    0.000
 5009.00    1.56338   1.51591    0.000
 5010.00    1.56735   1.50754    0.000
 5011.00    1.57878   1.50089    0.000
 5012.00    1.52502   1.49517    0.000
 5013.00    1.45773   1.49068    0.000
 5014.00    1.45063   1.49244    0.000
 5015.00    1.45339   1.49532    0.000
 5016.00    1.43804   1.49957    0.000
 5017.00    1.42047   1.50872    0.000
 5018.00    1.42641   1.51959    0.000
 5019.00    1.43434   1.52958    0.000
 5020.00    1.47241   1.53920    0.000
 5021.00    1.51195   1.55239    0.000
 5022.00    1.52537   1.56405    0.000
 5023.00    1.53798   1.57319    0.000
 5024.00    1.52512   1.58768    0.000
 5025.00    1.51408   1.59907    0.000
 5026.00    1.53953   1.60871    0.000
 5027.00    1.56267   1.62351    0.000
 5028.00    1.55882   1.63235    0.000
 5029.00    1.55465   1.63731    0.208
 5030.00    1.54782   1.64065    0.207
 5031.00    1.54455   1.63565    0.205
 5032.00    1.56285   1.62677    0.202
 5033.00    1.57827   1.61078    0.200
 5034.00    1.57988   1.58951    0.203
 5035.00    1.57769   1.57307    0.205
 5036.00    1.56074   1.55421    0.205
 5037.00    1.54353   1.53965    0.205
 5038.00    1.52552   1.53765    0.205
 5039.00    1.50782   1.53745    0.204
 5040.00    1.49098   1.54687    0.201
 5041.00    1.47747   1.56602    0.199
 5042.00    1.47177   1.58044    0.198
 5043.00    1.47529   1.59545    0.197
 5044.00    1.49755   1.61080    0.196
 5045.00    1.50832   1.61836    0.196
 5046.00    1.49875   1.62060    0.199
 5047.00    1.49584   1.62248    0.200
 5048.00    1.50323   1.62559    0.199
 5049.00    1.51082   1.62865    0.198
 5050.00    1.51867   1.63460    0.199
 5051.00    1.52031   1.64622    0.200
 5052.00    1.51449   1.65972    0.200
 5053.00    1.51876   1.67423    0.201
 5054.00    1.53367   1.68842    0.202
 5055.00    1.55401   1.70045    0.203
 5056.00    1.57940   1.71014    0.206
 5057.00    1.59775   1.71372    0.206
 5058.00    1.61032   1.71269    0.203
 5059.00    1.60957   1.70751    0.203
 5060.00    1.59920   1.69617    0.204
 5061.00    1.59207   1.68419    0.205
 5062.00    1.58699   1.66924    0.204
 5063.00    1.57149   1.65234    0.204
 5064.00    1.55022   1.64213    0.204
 5065.00    1.55693   1.63338    0.205
 5066.00    1.57715   1.62393    0.208
 5067.00    1.56357   1.61981    0.208
 5068.00    1.53594   1.61979    0.207
 5069.00    1.51634   1.61762    0.205
 5070.00    1.49961   1.61259    0.203
 5071.00    1.50415   1.61002    0.205
 5072.00    1.51507   1.60613    0.208
 5073.00    1.51751   1.59588    0.208
 5074.00    1.51783   1.58405    0.207
 5075.00    1.52561   1.57433    0.207
 5076.00    1.53492   1.56415    0.208
 5077.00    1.51018   1.55217    0.207
 5078.00    1.48004   1.54560    0.206
 5079.00    1.47259   1.54726    0.206
 5080.00    1.46784   1.55150    0.206
 5081.00    1.46878   1.55901    0.206
 5082.00    1.47019   1.57327    0.207
 5083.00    1.47082   1.59069    0.202
 5084.00    1.47143   1.60729    0.198
 5085.00    1.49333   1.62348    0.203
 5086.00    1.51514   1.63892    0.209
 5087.00    1.51945   1.65223    0.204
 5088.00    1.52437   1.66145    0.199
 5089.00    1.54052   1.66577    0.200
 5090.00    1.55417   1.66699    0.201
 5091.00    1.53991   1.66370    0.202
 5092.00    1.52602   1.65489    0.203
 5093.00    1.51500   1.64357    0.204
 5094.00    1.50661   1.63053    0.205
 5095.00    1.51370   1.61821    0.207
 5096.00    1.52577   1.60778    0.208
 5097.00    1.56112   1.59851    0.208
 5098.00    1.58507   1.59503    0.208
 5099.00    1.56557   1.59463    0.205
 5100.00    1.54395   1.59308    0.203
 5101.00    1.51562   1.59382    0.201
 5102.00    1.49378   1.59353    0.199
 5103.00    1.48940   1.59176    0.198
 5104.00    1.48239   1.59163    0.199
 5105.00    1.46931   1.58873    0.201
 5106.00    1.45759   1.58926    0.202
 5107.00    1.44858   1.59561    0.202
 5108.00    1.45973   1.59951    0.200
 5109.00    1.50603   1.60963    0.199
 5110.00    1.52709   1.62464    0.199
 5111.00    1.50965   1.63518    0.201
 5112.00    1.50495   1.64855    0.202
 5113.00    1.51735   1.66012    0.202
 5114.00    1.53175   1.66461    0.202
 5115.00    1.54851   1.66701    0.202
 5116.00    1.56671   1.66266    0.204
 5117.00    1.58639   1.65188    0.206
 5118.00    1.57250   1.63769    0.205
 5119.00    1.52780   1.61903    0.201
 5120.00    1.51946   1.60044    0.201
 5121.00    1.54055   1.58178    0.203
 5122.00    1.54186   1.56462    0.202
 5123.00    1.52910   1.55412    0.199
 5124.00    1.48839   1.54719    0.198
 5125.00    1.43022   1.54401    0.198
 5126.00    1.41463   1.54704    0.197
 5127.00    1.42229   1.55293    0.195
 5128.00    1.44472   1.56062    0.196
 5129.00    1.47416   1.56960    0.199
 5130.00    1.49536   1.57856    0.199
 5131.00    1.51319   1.58460    0.199
 5132.00    1.51708   1.58672    0.200
 5133.00    1.51609   1.58953    0.200
 5134.00    1.51755   1.58600    0.201
 5135.00    1.51973   1.57795    0.202
 5136.00    1.51716   1.57448    0.201
 5137.00    1.51344   1.56469    0.199
 5138.00    1.49711   1.55592    0.200
 5139.00    1.47829   1.55463    0.200
 5140.00    1.45704   1.54579    0.199
 5141.00    1.43542   1.54066    0.197
 5142.00    1.44259   1.54348    0.200
 5143.00    1.45304   1.53918    0.202
 5144.00    1.44416   1.53675    0.203
 5145.00    1.43380   1.53926    0.203
 5146.00    1.45216   1.53840    0.204
 5147.00    1.47171   1.54041    0.204
 5148.00    1.46084   1.54434    0.202
 5149.00    1.45089   1.54730    0.200
 5150.00    1.49026   1.55563    0.203
 5151.00    1.52508   1.56552    0.206
 5152.00    1.48105   1.57459    0.207
 5153.00    1.44193   1.58739    0.207
 5154.00    1.45504   1.59833    0.206
 5155.00    1.46858   1.60538    0.205
 5156.00    1.48541   1.60945    0.207
 5157.00    1.49757   1.60387    0.208
 5158.00    1.48307   1.59125    0.208
 5159.00    1.47358   1.57136    0.207
 5160.00    1.48695   1.53858    0.209
 5161.00    1.49095   1.50131    0.210
 5162.00    1.45999   1.46080    0.208
 5163.00    1.42747   1.41577    0.207
 5164.00    1.39006   1.37489    0.204
 5165.00    1.34516   1.33921    0.203
 5166.00    1.28041   1.31115    0.203
 5167.00    1.23286   1.29517    0.203
 5168.00    1.22439   1.29080    0.202
 5169.00    1.21027   1.29652    0.200
 5170.00    1.18500   1.31005    0.198
 5171.00    1.18161   1.33349    0.199
 5172.00    1.21578   1.36397    0.203
 5173.00    1.23713   1.39114    0.204
 5174.00    1.23923   1.41387    0.200
 5175.00    1.26190   1.43386    0.199
 5176.00    1.31175   1.44425    0.200
 5177.00    1.34997   1.44383    0.200
 5178.00    1.37466   1.43683    0.199
 5179.00    1.38147   1.42730    0.198
 5180.00    1.36993   1.41971    0.199
 5181.00    1.33576   1.41209    0.198
 5182.00    1.28110   1.41286    0.195
 5183.00    1.25695   1.42711    0.192
 5184.00    1.25711   1.44157    0.191
 5185.00    1.27089   1.45934    0.191
 5186.00    1.29423   1.48085    0.192
 5187.00    1.33444   1.49750    0.194
 5188.00    1.38502   1.51336    0.196
 5189.00    1.40311   1.52322    0.196
 5190.00    1.40373   1.52728    0.000
 5191.00    1.40977   1.53709    0.000
 5192.00    1.41835   1.54637    0.000
 5193.00    1.44222   1.55112    0.000
 5194.00    1.47225   1.56110    0.000
 5195.00    1.48139   1.57213    0.000
 5196.00    1.48337   1.57794    0.000
 5197.00    1.49719   1.58160    0.000
 5198.00    1.51444   1.58034    0.000
 5199.00    1.51787   1.57313    0.000
 5200.00    1.51800   1.56123    0.000
 5201.00    1.50374   1.54589    0.000
 5202.00    1.48671   1.53006    0.000
 5203.00    1.47238   1.51346    0.000
 5204.00    1.45844   1.50283    0.000
 5205.00    1.42947   1.50087    0.000
 5206.00    1.39886   1.50078    0.000
 5207.00    1.39409   1.50985    0.000
 5208.00    1.39119   1.52763    0.000
 5209.00    1.41208   1.54467    0.000
 5210.00    1.43387   1.56453    0.000
 5211.00    1.46671   1.58525    0.198
 5212.00    1.49935   1.60261    0.199
 5213.00    1.52250   1.61693    0.199
 5214.00    1.54580   1.62869    0.200
 5215.00    1.57160   1.63772    0.200
 5216.00    1.59602   1.64224    0.201
 5217.00    1.60635   1.64276    0.202
 5218.00    1.60785   1.63908    0.203
 5219.00    1.54505   1.63037    0.204
 5220.00    1.49655   1.61742    0.205
 5221.00    1.52778   1.60262    0.204
 5222.00    1.55040   1.58633    0.204
 5223.00    1.53472   1.57262    0.203
 5224.00    1.51723   1.56438    0.203
 5225.00    1.49314   1.55866    0.203
 5226.00    1.47816   1.56274    0.203
 5227.00    1.49111   1.57270    0.206
 5228.00    1.49253   1.58086    0.207
 5229.00    1.46396   1.59724    0.206
 5230.00    1.45799   1.61390    0.206
 5231.00    1.50256   1.62636    0.209
 5232.00    1.54448   1.64377    0.210
 5233.00    1.58124   1.65894    0.209
 5234.00    1.61741   1.67308    0.208
 5235.00    1.65256   1.68865    0.207
 5236.00    1.66471   1.70008    0.206
 5237.00    1.64278   1.71007    0.205
 5238.00    1.64592   1.71761    0.205
 5239.00    1.68170   1.72027    0.206
 5240.00    1.69247   1.71830    0.206
 5241.00    1.67457   1.71291    0.205
 5242.00    1.65959   1.70527    0.205
 5243.00    1.64757   1.69439    0.203
 5244.00    1.63878   1.68105    0.203
 5245.00    1.63287   1.66724    0.203
 5246.00    1.62126   1.65782    0.203
 5247.00    1.60516   1.65070    0.203
 5248.00    1.59371   1.64253    0.203
 5249.00    1.58548   1.64266    0.204
 5250.00    1.57344   1.64814    0.203
 5251.00    1.55909   1.65276    0.202
 5252.00    1.57845   1.66029    0.201
 5253.00    1.61566   1.66641    0.201
 5254.00    1.61333   1.67104    0.200
 5255.00    1.59284   1.67133    0.200
 5256.00    1.57082   1.66177    0.199
 5257.00    1.54820   1.64694    0.197
 5258.00    1.58465   1.62477    0.198
 5259.00    1.64099   1.59417    0.200
 5260.00    1.62773   1.56168    0.200
 5261.00    1.59476   1.52817    0.199
 5262.00    1.54465   1.49470    0.199
 5263.00    1.49054   1.46748    0.199
 5264.00    1.44904   1.44793    0.199
 5265.00    1.40991   1.43759    0.198
 5266.00    1.39662   1.43661    0.200
 5267.00    1.38706   1.44059    0.202
 5268.00    1.39760   1.45336    0.204
 5269.00    1.41026   1.47802    0.205
 5270.00    1.43741   1.50419    0.209
 5271.00    1.46555   1.52961    0.213
 5272.00    1.46712   1.56122    0.208
 5273.00    1.46779   1.59009    0.202
 5274.00    1.46749   1.61368    0.202
 5275.00    1.46927   1.63766    0.202
 5276.00    1.53764   1.65433    0.204
 5277.00    1.60314   1.66613    0.206
 5278.00    1.62481   1.67868    0.206
 5279.00    1.64444   1.68798    0.207
 5280.00    1.64412   1.69710    0.207
 5281.00    1.64064   1.70779    0.207
 5282.00    1.61482   1.71954    0.205
 5283.00    1.60068   1.73597    0.203
 5284.00    1.64983   1.75302    0.203
 5285.00    1.68404   1.76662    0.202
 5286.00    1.65332   1.77872    0.202
 5287.00    1.63834   1.78770    0.202
 5288.00    1.67963   1.79067    0.204
 5289.00    1.70557   1.78668    0.206
 5290.00    1.68540   1.77631    0.206
 5291.00    1.68049   1.76160    0.207
 5292.00    1.71460   1.74599    0.209
 5293.00    1.73232   1.72885    0.211
 5294.00    1.71402   1.71109    0.211
 5295.00    1.69863   1.69834    0.211
 5296.00    1.68879   1.69172    0.209
 5297.00    1.67527   1.69289    0.207
 5298.00    1.65563   1.69985    0.207
 5299.00    1.63095   1.71001    0.206
 5300.00    1.59893   1.72638    0.204
 5301.00    1.59589   1.74619    0.203
 5302.00    1.63004   1.76501    0.202
 5303.00    1.65918   1.78201    0.202
 5304.00    1.68263   1.79673    0.204
 5305.00    1.69756   1.80851    0.204
 5306.00    1.70398   1.81654    0.201
 5307.00    1.71966   1.82145    0.202
 5308.00    1.74349   1.82223    0.204
 5309.00    1.74725   1.81909    0.204
 5310.00    1.73545   1.81488    0.202
 5311.00    1.73262   1.80852    0.201
 5312.00    1.73592   1.79974    0.201
 5313.00    1.73749   1.79086    0.201
 5314.00    1.73804   1.78032    0.202
 5315.00    1.72930   1.76962    0.201
 5316.00    1.71571   1.75911    0.200
 5317.00    1.70936   1.74450    0.198
 5318.00    1.70628   1.72955    0.197
 5319.00    1.68383   1.71405    0.197
 5320.00    1.65385   1.69344    0.197
 5321.00    1.63777   1.67034    0.197
 5322.00    1.62629   1.64910    0.197
 5323.00    1.61433   1.63164    0.197
 5324.00    1.60223   1.61721    0.196
 5325.00    1.56793   1.60618    0.195
 5326.00    1.52857   1.60171    0.195
 5327.00    1.53253   1.60947    0.195
 5328.00    1.54440   1.62399    0.195
 5329.00    1.58104   1.63885    0.196
 5330.00    1.62115   1.65801    0.196
 5331.00    1.60804   1.67911    0.197
 5332.00    1.58957   1.69726    0.197
 5333.00    1.61397   1.70877    0.195
 5334.00    1.64112   1.71517    0.193
 5335.00    1.64971   1.72000    0.194
 5336.00    1.65773   1.72063    0.196
 5337.00    1.66157   1.71868    0.199
 5338.00    1.66531   1.71456    0.202
 5339.00    1.66649   1.71177    0.202
 5340.00    1.66800   1.71388    0.202
 5341.00    1.67415   1.71336    0.203
 5342.00    1.67796   1.71412    0.203
 5343.00    1.65989   1.71967    0.202
 5344.00    1.64384   1.72501    0.201
 5345.00    1.64155   1.73316    0.199
 5346.00    1.64358   1.74175    0.199
 5347.00    1.66844   1.75226    0.202
 5348.00    1.68524   1.76836    0.205
 5349.00    1.66783   1.78457    0.206
 5350.00    1.65830   1.80100    0.207
 5351.00    1.67640   1.81767    0.205
 5352.00    1.69574   1.83324    0.205
 5353.00    1.71875   1.84668    0.205
 5354.00    1.74852   1.85412    0.206
 5355.00    1.79526   1.85694    0.206
 5356.00    1.81769   1.85642    0.206
 5357.00    1.78751   1.84995    0.204
 5358.00    1.76821   1.83847    0.203
 5359.00    1.76935   1.82428    0.205
 5360.00    1.77571   1.80679    0.205
 5361.00    1.79064   1.78860    0.205
 5362.00    1.77035   1.76980    0.204
 5363.00    1.69940   1.74895    0.203
 5364.00    1.65830   1.73152    0.202
 5365.00    1.65497   1.71731    0.203
 5366.00    1.64973   1.70617    0.202
 5367.00    1.64237   1.69963    0.199
 5368.00    1.62879   1.69778   -2.000
 5369.00    1.60910   1.70216   -2.000
 5370.00    1.59389   1.71169   -2.000
 5371.00    1.58257   1.72572   -2.000
 5372.00    1.58148   1.74022   -2.000
 5373.00    1.58820   1.75497   -2.000
 5374.00    1.60907   1.76970   -2.000
 5375.00    1.63942   1.78023   -2.000
 5376.00    1.68893   1.78735   -2.000
 5377.00    1.74972   1.79148   -2.000
 5378.00    1.75460   1.79243   -2.000
 5379.00    1.73081   1.79129   -2.000
 5380.00    1.71760   1.78929   -2.000
 5381.00    1.70910   1.78524   -2.000
 5382.00    1.71902   1.77984   -2.000
 5383.00    1.73597   1.77441    0.197
 5384.00    1.70616   1.76639    0.197
 5385.00    1.66119   1.75709    0.198
 5386.00    1.64443   1.74726    0.194
 5387.00    1.63533   1.73500    0.190
 5388.00    1.64298   1.72249    0.191
 5389.00    1.65437   1.70977    0.193
 5390.00    1.63284   1.69627    0.194
 5391.00    1.60546   1.68616    0.194
 5392.00    1.59354   1.67706    0.196
 5393.00    1.58371   1.66830    0.199
 5394.00    1.58136   1.66300    0.199
 5395.00    1.57974   1.65862    0.199
 5396.00    1.58813   1.65601    0.201
 5397.00    1.59713   1.65312    0.204
 5398.00    1.62893   1.64756    0.205
 5399.00    1.66087   1.64296    0.205
 5400.00    1.61769   1.63863    0.199
 5401.00    1.57662   1.63179    0.193
 5402.00    1.58969   1.62446    0.199
 5403.00    1.59866   1.62036    0.203
 5404.00    1.55204   1.62090    0.200
 5405.00    1.51191   1.62513    0.198
 5406.00    1.53007   1.63255    0.199
 5407.00    1.54588   1.64431    0.200
 5408.00    1.54611   1.66044    0.200
 5409.00    1.55458   1.68032    0.200
 5410.00    1.60540   1.69980    0.201
 5411.00    1.64792   1.71689    0.202
 5412.00    1.65593   1.73398    0.199
 5413.00    1.66273   1.74873    0.197
 5414.00    1.66535   1.76016    0.198
 5415.00    1.67275   1.76810    0.199
 5416.00    1.69396   1.77092    0.196
 5417.00    1.70713   1.77122    0.195
 5418.00    1.70045   1.77125    0.196
 5419.00    1.69523   1.76862    0.196
 5420.00    1.69313   1.76401    0.196
 5421.00    1.69703   1.75891    0.195
 5422.00    1.71203   1.75141    0.195
 5423.00    1.71020   1.74596    0.195
 5424.00    1.68117   1.74063    0.195
 5425.00    1.65901   1.72973    0.194
 5426.00    1.64657   1.72056    0.192
 5427.00    1.65055   1.71226    0.191
 5428.00    1.67500   1.70436    0.193
 5429.00    1.68281   1.70122    0.193
 5430.00    1.67234   1.69714    0.192
 5431.00    1.64780   1.69812    0.191
 5432.00    1.60962   1.70639    0.190
 5433.00    1.59240   1.71671    0.189
 5434.00    1.59309   1.73129    0.189
 5435.00    1.62754   1.74657    0.189
 5436.00    1.68741   1.76209    0.191
 5437.00    1.70779   1.77569    0.192
 5438.00    1.70203   1.78449    0.191
 5439.00    1.68986   1.78892    0.191
 5440.00    1.67398   1.78754    0.190
 5441.00    1.66769   1.78282    0.191
 5442.00    1.66624   1.77367    0.192
 5443.00    1.68129   1.76263    0.196
 5444.00    1.70355   1.75393    0.201
 5445.00    1.72156   1.74588    0.201
 5446.00    1.73798   1.74075    0.200
 5447.00    1.71486   1.73648    0.198
 5448.00    1.67915   1.73231    0.196
 5449.00    1.65208   1.73118    0.196
 5450.00    1.62731   1.73041    0.195
 5451.00    1.62055   1.72799    0.196
 5452.00    1.61772   1.72662    0.198
 5453.00    1.60755   1.72598    0.198
 5454.00    1.59611   1.72662    0.198
 5455.00    1.62546   1.72958    0.200
 5456.00    1.66015   1.73045    0.202
 5457.00    1.67401   1.73242    0.202
 5458.00    1.68594   1.73523    0.202
 5459.00    1.67206   1.73603    0.201
 5460.00    1.65672   1.73808    0.199
 5461.00    1.66879   1.73878    0.197
 5462.00    1.68124   1.73916    0.196
 5463.00    1.66984   1.74026    0.196
 5464.00    1.65789   1.73925    0.196
 5465.00    1.63316   1.73847    0.193
 5466.00    1.61287   1.73607    0.191
 5467.00    1.64970   1.73075    0.192
 5468.00    1.68062   1.72437    0.193
 5469.00    1.66047   1.71487    0.191
 5470.00    1.64379   1.70529    0.189
 5471.00    1.64940   1.69583    0.190
 5472.00    1.65488   1.68489    0.191
 5473.00    1.65973   1.67702    0.191
 5474.00    1.65855   1.67123    0.191
 5475.00    1.63287   1.66926    0.191
 5476.00    1.60998   1.67193    0.191
 5477.00    1.59651   1.67463    0.190
 5478.00    1.58715   1.68042   -2.000
 5479.00    1.58950   1.68882   -2.000
 5480.00    1.60083   1.69858   -2.000
 5481.00    1.63397   1.70895   -2.000
 5482.00    1.65062   1.71716   -2.000
 5483.00    1.63275   1.72381   -2.000
 5484.00    1.58148   1.72970   -2.000
 5485.00    1.46939   1.73493   -2.000
 5486.00    1.33276   1.73852   -2.000
 5487.00    1.15709   1.74176   -2.000
 5488.00    1.16809   1.74330   -2.000
 5489.00    1.43987   1.74399   -2.000
 5490.00    1.68368   1.74569   -2.000
 5491.00    1.89311   1.74655   -2.000
 5492.00    2.01281   1.74734   -2.000
 5493.00    2.03525   1.74693   -2.000
 5494.00    1.97174   1.74564   -2.000
 5495.00    1.82604   1.74479   -2.000
 5496.00    1.72534   1.74305   -2.000
 5497.00    1.66255   1.73972   -2.000
 5498.00    1.64670   1.73526   -2.000
 5499.00    1.66568   1.73053   -2.000
 5500.00    1.67067   1.72642   -2.000
 5501.00    1.66654   1.72268   -2.000
 5502.00    1.68270   1.71710    0.202
 5503.00    1.71043   1.71257    0.200
 5504.00    1.69329   1.70960    0.199
 5505.00    1.65386   1.70640    0.199
 5506.00    1.64979   1.70495    0.198
 5507.00    1.66091   1.70268    0.196
 5508.00    1.65386   1.70057    0.197
 5509.00    1.64010   1.70194    0.198
 5510.00    1.65015   1.70389    0.197
 5511.00    1.66763   1.70858    0.196
 5512.00    1.65906   1.71570    0.194
 5513.00    1.64372   1.72330    0.192
 5514.00    1.63413   1.73410    0.192
 5515.00    1.62576   1.74471    0.192
 5516.00    1.64690   1.75432    0.192
 5517.00    1.67299   1.76256    0.192
 5518.00    1.69729   1.76704    0.194
 5519.00    1.72138   1.76895    0.196
 5520.00    1.72204   1.76805    0.194
 5521.00    1.72064   1.76377    0.193
 5522.00    1.68739   1.75786    0.191
 5523.00    1.65247   1.75052    0.189
 5524.00    1.66074   1.74262    0.186
 5525.00    1.66972   1.73734    0.184
 5526.00    1.67092   1.73378    0.187
 5527.00    1.67226   1.73253    0.189
 5528.00    1.67659   1.73310    0.189
 5529.00    1.67975   1.73446    0.188
 5530.00    1.66854   1.73809    0.189
 5531.00    1.65947   1.74221    0.190
 5532.00    1.66822   1.74785    0.192
 5533.00    1.67461   1.75331    0.193
 5534.00    1.66639   1.75802    0.190
 5535.00    1.66467   1.76386    0.189
 5536.00    1.69473   1.76885    0.193
 5537.00    1.71567   1.77423    0.197
 5538.00    1.70035   1.77900    0.196
 5539.00    1.68800   1.78233    0.196
 5540.00    1.68548   1.78620    0.196
 5541.00    1.68478   1.78981    0.195
 5542.00    1.68915   1.79297    0.193
 5543.00    1.69794   1.79671    0.191
 5544.00    1.71731   1.80031    0.190
 5545.00    1.73488   1.80355    0.191
 5546.00    1.74876   1.80686    0.194
 5547.00    1.75568   1.80890    0.197
 5548.00    1.75013   1.80961    0.199
 5549.00    1.74489   1.80894    0.199
 5550.00    1.74014   1.80662    0.197
 5551.00    1.73877   1.80341    0.196
 5552.00    1.74204   1.79981    0.197
 5553.00    1.74973   1.79479    0.197
 5554.00    1.76276   1.78939    0.197
 5555.00    1.75853   1.78449    0.198
 5556.00    1.73587   1.77862    0.199
 5557.00    1.72083   1.77319    0.197
 5558.00    1.71300   1.76696    0.194
 5559.00    1.69525   1.76024    0.192
 5560.00    1.66929   1.75461    0.190
 5561.00    1.66228   1.74819    0.190
 5562.00    1.66916   1.74304    0.189
 5563.00    1.67194   1.73821    0.187
 5564.00    1.67210   1.73413    0.185
 5565.00    1.67743   1.73228    0.185
 5566.00    1.68568   1.73111    0.186
 5567.00    1.68080   1.73230    0.186
 5568.00    1.66951   1.73344    0.186
 5569.00    1.66318   1.73535    0.185
 5570.00    1.65895   1.73991    0.184
 5571.00    1.67192   1.74425    0.186
 5572.00    1.69111   1.74884    0.188
 5573.00    1.69172   1.75328    0.188
 5574.00    1.68665   1.75637    0.189
 5575.00    1.68955   1.75871    0.189
 5576.00    1.69447   1.75956    0.188
 5577.00    1.68967   1.75674    0.189
 5578.00    1.68286   1.75127    0.190
 5579.00    1.69460   1.74356    0.191
 5580.00    1.70937   1.73234    0.193
 5581.00    1.68583   1.71998    0.192
 5582.00    1.65761   1.70555    0.191
 5583.00    1.65104   1.69004    0.191
 5584.00    1.64629   1.67750    0.191
 5585.00    1.64823   1.66644    0.194
 5586.00    1.65049   1.66006    0.197
 5587.00    1.61272   1.65821    0.197
 5588.00    1.57520   1.65805    0.197
 5589.00    1.58741   1.66184    0.200
 5590.00    1.59852   1.66691    0.202
 5591.00    1.58770   1.67422    0.199
 5592.00    1.58168   1.68283    0.197
 5593.00    1.63152   1.68847    0.199
 5594.00    1.67473   1.69215    0.201
 5595.00    1.66469   1.69541    0.201
 5596.00    1.65350   1.69842    0.200
 5597.00    1.63539   1.70154    0.199
 5598.00    1.61922   1.70585    0.199
 5599.00    1.61220   1.71141    0.199
 5600.00    1.60929   1.72132    0.199
 5601.00    1.62237   1.73318    0.196
 5602.00    1.63794   1.74642    0.195
 5603.00    1.66159   1.76061    0.196
 5604.00    1.68461   1.77278    0.197
 5605.00    1.70595   1.78341    0.195
 5606.00    1.72776   1.78963    0.193
 5607.00    1.75066   1.79256    0.190
 5608.00    1.76442   1.79165    0.188
 5609.00    1.75963   1.78581    0.188
 5610.00    1.75388   1.77612    0.188
 5611.00    1.74644   1.76249    0.186
 5612.00    1.72442   1.75089    0.185
 5613.00    1.67988   1.74187    0.183
 5614.00    1.64270   1.73325    0.183
 5615.00    1.61550   1.72611    0.184
 5616.00    1.61675   1.72037    0.184
 5617.00    1.65198   1.71831    0.185
 5618.00    1.66448   1.71843    0.185
 5619.00    1.65303   1.71890    0.184
 5620.00    1.65654   1.71947    0.185
 5621.00    1.67393   1.72102    0.189
 5622.00    1.66953   1.72533    0.190
 5623.00    1.64729   1.73046    0.190
 5624.00    1.63956   1.73654    0.189
 5625.00    1.64231   1.74363    0.189
 5626.00    1.66060   1.75052    0.190
 5627.00    1.68874   1.75704    0.191
 5628.00    1.68413   1.76187    0.192
 5629.00    1.66140   1.76490    0.193
 5630.00    1.64811   1.76540    0.192
 5631.00    1.63936   1.76325    0.191
 5632.00    1.65127   1.75880    0.191
 5633.00    1.67178   1.75283    0.192
 5634.00    1.66267   1.74697    0.191
 5635.00    1.64304   1.74159    0.189
 5636.00    1.62341   1.73705    0.188
 5637.00    1.60377   1.73273    0.187
 5638.00    1.62536   1.73098    0.189
 5639.00    1.65723   1.73153    0.191
 5640.00    1.64747   1.73288    0.188
 5641.00    1.62931   1.73626    0.184
 5642.00    1.63900   1.73976    0.183
 5643.00    1.65311   1.74425    0.183
 5644.00    1.67615   1.74838    0.185
 5645.00    1.70025   1.75117    0.187
 5646.00    1.69939   1.75345    0.184
 5647.00    1.69653   1.75456    0.181
 5648.00    1.70822   1.75411    0.182
 5649.00    1.72055   1.75089    0.183
 5650.00    1.72083   1.74505    0.183
 5651.00    1.72061   1.73750    0.182
 5652.00    1.70297   1.73026    0.182
 5653.00    1.68679   1.72156    0.181
 5654.00    1.69770   1.71078    0.182
 5655.00    1.70704   1.70306    0.183
 5656.00    1.69899   1.69910    0.183
 5657.00    1.69001   1.69643    0.183
 5658.00    1.67368   1.69515    0.184
 5659.00    1.66017   1.69682    0.185
 5660.00    1.66319   1.70228    0.184
 5661.00    1.66549   1.70931    0.184
 5662.00    1.66444   1.71698    0.185
 5663.00    1.66055   1.72480    0.186
 5664.00    1.64584   1.73335    0.184
 5665.00    1.63338   1.74227    0.183
 5666.00    1.62807   1.75131    0.184
 5667.00    1.63312   1.76052    0.185
 5668.00    1.66606   1.76975    0.188
 5669.00    1.68584   1.77880    0.190
 5670.00    1.67527   1.78629    0.191
 5671.00    1.68223   1.79196    0.192
 5672.00    1.72417   1.79682    0.193
 5673.00    1.74729   1.80004    0.193
 5674.00    1.73767   1.80005    0.189
 5675.00    1.73244   1.79751    0.189
 5676.00    1.73389   1.79316    0.193
 5677.00    1.73841   1.78739    0.195
 5678.00    1.74700   1.77896    0.194
 5679.00    1.74112   1.77100    0.192
 5680.00    1.71817   1.76447    0.190
 5681.00    1.72585   1.75891    0.189
 5682.00    1.76535   1.75415    0.189
 5683.00    1.76758   1.75061    0.188
 5684.00    1.73565   1.75031    0.185
 5685.00    1.71412   1.75222    0.182
 5686.00    1.70099   1.75692    0.179
 5687.00    1.69295   1.76195    0.180
 5688.00    1.68854   1.76807    0.182
 5689.00    1.68546   1.77344    0.181
 5690.00    1.68321   1.77700    0.178
 5691.00    1.69530   1.77971    0.178
 5692.00    1.71519   1.78004    0.179
 5693.00    1.72034   1.77860    0.180
 5694.00    1.71850   1.77302    0.180
 5695.00    1.72064   1.76610    0.183
 5696.00    1.72441   1.75818    0.186
 5697.00    1.70785   1.74785    0.185
 5698.00    1.68419   1.73785    0.183
 5699.00    1.68535   1.72808    0.183
 5700.00    1.69382   1.71868    0.184
 5701.00    1.71264   1.70900    0.185
 5702.00    1.73399   1.69896    0.185
 5703.00    1.73355   1.69077    0.185
 5704.00    1.72882   1.68414    0.185
 5705.00    1.70282   1.67881    0.185
 5706.00    1.67356   1.67786    0.184
 5707.00    1.65540   1.67948    0.184
 5708.00    1.63849   1.68383    0.183
 5709.00    1.63348   1.69336    0.184
 5710.00    1.62936   1.70535    0.185
 5711.00    1.63941   1.71967    0.183
 5712.00    1.65004   1.73577    0.182
 5713.00    1.69154   1.75217    0.186
 5714.00    1.73234   1.76845    0.190
 5715.00    1.73414   1.78380    0.187
 5716.00    1.73635   1.79727    0.184
 5717.00    1.74559   1.80892    0.185
 5718.00    1.75520   1.81813    0.185
 5719.00    1.76871   1.82479    0.185
 5720.00    1.77947   1.82900    0.185
 5721.00    1.76963   1.83078    0.183
 5722.00    1.76249   1.83108    0.182
 5723.00    1.77078   1.82914    0.183
 5724.00    1.77995   1.82731    0.184
 5725.00    1.79315   1.82548    0.181
 5726.00    1.80267   1.82311    0.180
 5727.00    1.79852   1.82047    0.181
 5728.00    1.79293   1.81875    0.181
 5729.00    1.78287   1.81948    0.182
 5730.00    1.77354   1.82017    0.181
 5731.00    1.76613   1.82153    0.179
 5732.00    1.76754   1.82280    0.177
 5733.00    1.78898   1.82381    0.174
 5734.00    1.80287   1.82499    0.172
 5735.00    1.80191   1.82564    0.174
 5736.00    1.80122   1.82628    0.176
 5737.00    1.80096   1.82612    0.176
 5738.00    1.79603   1.82549    0.177
 5739.00    1.78409   1.82445    0.178
 5740.00    1.78002   1.82359    0.000
 5741.00    1.78634   1.82252    0.000
 5742.00    1.79191   1.82046    0.000
 5743.00    1.79662   1.81741    0.000
 5744.00    1.80369   1.81342    0.000
 5745.00    1.81317   1.81024    0.000
 5746.00    1.81413   1.80679    0.000
 5747.00    1.80738   1.80271    0.000
 5748.00    1.80791   1.79801    0.000
 5749.00    1.81421   1.79345    0.000
 5750.00    1.80046   1.79008    0.000
 5751.00    1.77265   1.78862    0.000
 5752.00    1.77048   1.78889    0.000
 5753.00    1.78406   1.78934    0.000
 5754.00    1.78782   1.78993    0.000
 5755.00    1.78630   1.79010    0.000
 5756.00    1.78724   1.79064    0.000
 5757.00    1.78931   1.79163    0.000
 5758.00    1.78171   1.79370    0.000
 5759.00    1.77023   1.79657    0.000
 5760.00    1.78331   1.80110    0.000
 5761.00    1.80480   1.80607    0.000
 5762.00    1.80518   1.81113    0.000
 5763.00    1.79947   1.81666    0.000
 5764.00    1.80657   1.82183    0.000
 5765.00    1.81673   1.82656    0.000
 5766.00    1.79756   1.82967    0.000
 5767.00    1.77276   1.83164    0.000
 5768.00    1.78642   1.83106    0.000
 5769.00    1.80580   1.82874    0.000
 5770.00    1.80405   1.82463    0.000
 5771.00    1.80000   1.81891    0.000
 5772.00    1.79227   1.81229    0.000
 5773.00    1.78428   1.80376    0.000
 5774.00    1.78749   1.79376    0.000
 5775.00    1.79111   1.78201    0.000
 5776.00    1.80687   1.76949    0.000
 5777.00    1.82216   1.75644    0.000
 5778.00    1.81882   1.74481    0.000
 5779.00    1.81342   1.73502    0.000
 5780.00    1.77481   1.72756    0.000
 5781.00    1.73795   1.72264    0.000
 5782.00    1.71875   1.72143    0.000
 5783.00    1.70009   1.72491    0.000
 5784.00    1.68525   1.73011    0.000
 5785.00    1.67406   1.73854    0.000
 5786.00    1.68313   1.74834    0.000
 5787.00    1.69527   1.75825    0.000
 5788.00    1.72103   1.76945    0.000
 5789.00    1.74281   1.78008    0.000
 5790.00    1.75010   1.79047    0.000
 5791.00    1.75590   1.79936   -2.000
 5792.00    1.75716   1.80675   -2.000
 5793.00    1.75884   1.81344   -2.000
 5794.00    1.76162   1.81888   -2.000
 5795.00    1.76512   1.82489   -2.000
 5796.00    1.77020   1.83031   -2.000
 5797.00    1.78518   1.83367   -2.000
 5798.00    1.81932   1.83611   -2.000
 5799.00    1.83635   1.83711   -2.000
 5800.00    1.82450   1.83679   -2.000
 5801.00    1.82331   1.83621   -2.000
 5802.00    1.83788   1.83569   -2.000
 5803.00    1.84179   1.83505   -2.000
 5804.00    1.83184   1.83401   -2.000
 5805.00    1.83349   1.83307   -2.000
 5806.00    1.84841   1.83261   -2.000
 5807.00    1.85058   1.83249   -2.000
 5808.00    1.83987   1.83251   -2.000
 5809.00    1.82789   1.83304   -2.000
 5810.00    1.81478   1.83338   -2.000
 5811.00    1.81577   1.83405    0.000
 5812.00    1.82781   1.83533    0.000
 5813.00    1.82882   1.83739    0.000
 5814.00    1.82222   1.84091    0.000
 5815.00    1.80918   1.84445    0.000
 5816.00    1.79225   1.84846    0.000
 5817.00    1.79023   1.85278    0.000
 5818.00    1.79608   1.85682    0.000
 5819.00    1.80542   1.86100    0.000
 5820.00    1.81635   1.86443    0.000
 5821.00    1.81621   1.86785    0.000
 5822.00    1.81171   1.86985    0.000
 5823.00    1.81850   1.87095    0.000
 5824.00    1.82908   1.87161    0.000
 5825.00    1.84611   1.87132    0.000
 5826.00    1.86496   1.87094    0.000
 5827.00    1.84962   1.86962    0.000
 5828.00    1.82633   1.86829    0.000
 5829.00    1.81827   1.86650    0.000
 5830.00    1.81306   1.86472    0.000
 5831.00    1.79305   1.86314    0.000
 5832.00    1.77091   1.86201    0.000
 5833.00    1.78525   1.86157    0.000
 5834.00    1.80340   1.86123    0.000
 5835.00    1.81323   1.86177    0.000
 5836.00    1.82250   1.86283    0.000
 5837.00    1.82286   1.86378    0.000
 5838.00    1.82293   1.86415    0.000
 5839.00    1.81818   1.86388    0.000
 5840.00    1.81427   1.86237    0.000
 5841.00    1.83669   1.85910    0.000
 5842.00    1.85741   1.85470    0.000
 5843.00    1.85245   1.84915    0.000
 5844.00    1.84583   1.84229    0.000
 5845.00    1.82301   1.83435    0.000
 5846.00    1.80266   1.82547    0.000
 5847.00    1.79966   1.81574    0.000
 5848.00    1.79541   1.80591    0.000
 5849.00    1.78439   1.79609    0.000
 5850.00    1.77515   1.78683    0.000
 5851.00    1.77365   1.77824    0.000
 5852.00    1.77093   1.77068    0.000
 5853.00    1.76388   1.76485    0.000
 5854.00    1.75455   1.76051    0.000
 5855.00    1.73837   1.75928    0.000
 5856.00    1.72053   1.75908    0.000
 5857.00    1.69843   1.76170    0.000
 5858.00    1.68892   1.76567    0.000
 5859.00    1.70703   1.77075    0.000
 5860.00    1.72051   1.77638    0.000
 5861.00    1.72517   1.78236    0.000
 5862.00    1.73466   1.78955    0.000
 5863.00    1.75219   1.79588    0.000
 5864.00    1.76448   1.80256    0.000
 5865.00    1.76915   1.80793    0.000
 5866.00    1.77047   1.81283    0.000
 5867.00    1.76750   1.81676    0.000
 5868.00    1.76880   1.81988    0.000
 5869.00    1.77491   1.82152    0.000
 5870.00    1.77849   1.82164    0.000
 5871.00    1.77956   1.82095    0.000
 5872.00    1.77703   1.81823    0.000
 5873.00    1.77132   1.81412    0.000
 5874.00    1.77191   1.80795    0.000
 5875.00    1.77736   1.80079    0.000
 5876.00    1.77929   1.79192    0.000
 5877.00    1.77883   1.78141    0.000
 5878.00    1.76494   1.76905    0.000
 5879.00    1.74305   1.75388    0.000
 5880.00    1.72964   1.73574    0.000
 5881.00    1.72064   1.71418    0.000
 5882.00    1.70096   1.68884    0.000
 5883.00    1.67646   1.65908    0.000
 5884.00    1.65648   1.62702    0.000
 5885.00    1.63826   1.59665    0.000
 5886.00    1.58828   1.56743    0.000
 5887.00    1.52781   1.54210    0.000
 5888.00    1.45950   1.52265    0.000
 5889.00    1.38902   1.50744    0.000
 5890.00    1.35526   1.49903    0.000
 5891.00    1.32986   1.49913    0.000
 5892.00    1.32345   1.50622    0.000
 5893.00    1.32050   1.52048    0.000
 5894.00    1.34582   1.54230    0.000
 5895.00    1.37509   1.56837    0.000
 5896.00    1.41474   1.59537    0.000
 5897.00    1.45543   1.62347    0.000
 5898.00    1.49565   1.65093    0.000
 5899.00    1.53585   1.67604    0.000
 5900.00    1.55833   1.70060    0.000
 5901.00    1.58034   1.72228    0.161
 5902.00    1.61592   1.73912    0.161
 5903.00    1.65119   1.75238    0.162
 5904.00    1.67751   1.76240    0.161
 5905.00    1.70340   1.76941    0.161
 5906.00    1.72329   1.77368    0.162
 5907.00    1.74026   1.77590    0.162
 5908.00    1.72993   1.77578    0.161
 5909.00    1.72071   1.77511    0.160
 5910.00    1.71899   1.77364    0.159
 5911.00    1.71776   1.77272    0.159
 5912.00    1.71912   1.77203    0.159
 5913.00    1.72032   1.77177    0.159
 5914.00    1.72082   1.77318    0.159
 5915.00    1.72152   1.77486    0.159
 5916.00    1.72293   1.77744    0.160
 5917.00    1.72439   1.78025    0.162
 5918.00    1.72600   1.78385    0.166
 5919.00    1.73087   1.78714    0.170
 5920.00    1.74390   1.79014    0.171
 5921.00    1.74547   1.79218    0.171
 5922.00    1.72232   1.79290    0.171
 5923.00    1.70751   1.79294    0.171
 5924.00    1.70838   1.79177    0.172
 5925.00    1.71517   1.79088    0.171
 5926.00    1.73165   1.78979    0.169
 5927.00    1.74491   1.78882    0.166
 5928.00    1.75354   1.78764    0.164
 5929.00    1.75502   1.78687    0.164
 5930.00    1.74745   1.78744    0.165
 5931.00    1.74524   1.78783    0.166
 5932.00    1.74902   1.78908    0.165
 5933.00    1.75101   1.79049    0.163
 5934.00    1.75127   1.79206    0.162
 5935.00    1.75628   1.79325    0.162
 5936.00    1.76543   1.79414    0.163
 5937.00    1.77023   1.79479    0.163
 5938.00    1.77172   1.79515    0.161
 5939.00    1.77264   1.79576    0.160
 5940.00    1.77317   1.79579    0.160
 5941.00    1.77001   1.79515    0.161
 5942.00    1.76469   1.79387    0.163
 5943.00    1.75734   1.79205    0.162
 5944.00    1.74894   1.79038    0.158
 5945.00    1.74795   1.78879    0.157
 5946.00    1.75025   1.78665    0.156
 5947.00    1.75034   1.78419    0.158
 5948.00    1.74960   1.78286    0.162
 5949.00    1.73707   1.78180    0.163
 5950.00    1.72072   1.78082    0.161
 5951.00    1.71622   1.78046    0.162
 5952.00    1.71494   1.78137    0.163
 5953.00    1.71758   1.78360    0.163
 5954.00    1.72110   1.78703    0.163
 5955.00    1.72842   1.79077    0.163
 5956.00    1.73640   1.79515    0.164
 5957.00    1.74924   1.79995    0.165
 5958.00    1.76274   1.80511    0.167
 5959.00    1.77005   1.80971    0.168
 5960.00    1.77677   1.81372    0.168
 5961.00    1.75865   1.81827    0.167
 5962.00    1.73904   1.82183    0.165
 5963.00    1.74018   1.82522    0.161
 5964.00    1.74194   1.82771    0.158
 5965.00    1.75838   1.82972    0.161
 5966.00    1.77416   1.83064    0.163
 5967.00    1.77341   1.83066    0.161
 5968.00    1.77388   1.82967    0.159
 5969.00    1.79069   1.82709    0.159
 5970.00    1.80734   1.82368    0.158
 5971.00    1.82265   1.81932    0.159
 5972.00    1.83421   1.81440    0.159
 5973.00    1.82114   1.80910    0.160
 5974.00    1.80820   1.80409    0.159
 5975.00    1.79589   1.79885    0.157
 5976.00    1.78179   1.79402    0.155
 5977.00    1.76026   1.78940    0.156
 5978.00    1.74296   1.78513    0.156
 5979.00    1.74012   1.78207    0.156
 5980.00    1.73692   1.78025    0.156
 5981.00    1.73265   1.77916    0.157
 5982.00    1.73011   1.77915    0.158
 5983.00    1.73186   1.78030    0.158
 5984.00    1.72988   1.78235    0.159
 5985.00    1.71998   1.78490    0.160
 5986.00    1.71100   1.78798    0.160
 5987.00    1.70368   1.79178    0.161
 5988.00    1.70953   1.79539    0.161
 5989.00    1.73663   1.79863    0.162
 5990.00    1.76064   1.80062    0.163
 5991.00    1.78030   1.80147    0.165
 5992.00    1.79247   1.80145    0.165
 5993.00    1.79531   1.80059    0.164
 5994.00    1.79629   1.79882    0.163
 5995.00    1.79523   1.79637    0.162
 5996.00    1.79280   1.79356    0.160
 5997.00    1.78906   1.79021    0.159
 5998.00    1.77986   1.78713    0.158
 5999.00    1.76599   1.78374    0.159
 6000.00    1.76654   1.78010    0.159
 6001.00    1.77794   1.77681    0.158
 6002.00    1.77980   1.77361    0.157
 6003.00    1.77538   1.77133    0.156
 6004.00    1.76697   1.76954    0.155
 6005.00    1.75626   1.76778    0.155
 6006.00    1.74959   1.76625    0.155
 6007.00    1.74496   1.76501    0.155
 6008.00    1.73460   1.76435    0.155
 6009.00    1.72174   1.76354    0.155
 6010.00    1.71991   1.76269    0.156
 6011.00    1.72221   1.76134    0.158
 6012.00    1.72866   1.76043    0.160
 6013.00    1.73644   1.75946    0.161
 6014.00    1.74046   1.75819    0.161
 6015.00    1.74349   1.75760    0.162
 6016.00    1.73815   1.75729    0.162
 6017.00    1.73100   1.75851    0.163
 6018.00    1.72763   1.76044    0.163
 6019.00    1.72491   1.76386    0.162
 6020.00    1.72074   1.76843    0.162
 6021.00    1.71638   1.77401    0.161
 6022.00    1.72395   1.78086    0.162
 6023.00    1.73262   1.78800    0.164
 6024.00    1.74446   1.79604    0.164
 6025.00    1.75648   1.80377    0.165
 6026.00    1.77066   1.81168    0.164
 6027.00    1.78472   1.81894    0.164
 6028.00    1.78115   1.82551    0.161
 6029.00    1.77765   1.83134    0.158
 6030.00    1.77577   1.83597    0.158
 6031.00    1.77490   1.83983    0.157
 6032.00    1.78688   1.84263    0.157
 6033.00    1.79855   1.84458    0.156
 6034.00    1.80745   1.84561    0.157
 6035.00    1.81577   1.84655    0.158
 6036.00    1.82038   1.84694    0.156
 6037.00    1.82492   1.84759    0.155
 6038.00    1.82904   1.84827    0.154
 6039.00    1.82945   1.84923    0.154
 6040.00    1.81484   1.85047    0.156
 6041.00    1.80540   1.85176    0.157
 6042.00    1.81328   1.85331    0.158
 6043.00    1.82162   1.85426    0.158
 6044.00    1.83130   1.85514    0.158
 6045.00    1.83709   1.85489    0.158
 6046.00    1.83346   1.85404    0.158
 6047.00    1.82964   1.85218    0.159
 6048.00    1.82544   1.84925    0.160
 6049.00    1.82167   1.84598    0.161
 6050.00    1.81866   1.84190    0.162
 6051.00    1.81780   1.83813    0.162
 6052.00    1.82033   1.83418    0.163
 6053.00    1.81722   1.83088    0.163
 6054.00    1.80622   1.82779    0.163
 6055.00    1.80045   1.82509    0.163
 6056.00    1.80110   1.82298    0.164
 6057.00    1.79796   1.82075    0.162
 6058.00    1.79073   1.81970    0.160
 6059.00    1.78238   1.81895    0.159
 6060.00    1.77298   1.81940    0.160
 6061.00    1.76997   1.82088    0.160
 6062.00    1.77234   1.82335    0.159
 6063.00    1.78423   1.82722    0.158
 6064.00    1.80318   1.83180    0.158
 6065.00    1.81058   1.83745    0.157
 6066.00    1.81046   1.84297    0.156
 6067.00    1.81469   1.84843    0.155
 6068.00    1.82141   1.85260    0.155
 6069.00    1.82956   1.85544    0.155
 6070.00    1.83843   1.85622    0.156
 6071.00    1.84711   1.85485    0.157
 6072.00    1.85571   1.85170    0.156
 6073.00    1.85412   1.84641    0.158
 6074.00    1.84879   1.83981    0.159
 6075.00    1.83636   1.83239    0.159
 6076.00    1.82172   1.82492    0.158
 6077.00    1.81472   1.81741    0.159
 6078.00    1.80970   1.81083    0.160
 6079.00    1.80028   1.80498    0.160
 6080.00    1.78993   1.80047    0.159
 6081.00    1.77619   1.79676    0.161
 6082.00    1.76188   1.79390    0.164
 6083.00    1.76079   1.79218    0.164
 6084.00    1.76136   1.79099    0.164
 6085.00    1.77261   1.79049    0.163
 6086.00    1.78480   1.79046    0.162
 6087.00    1.79992   1.79121    0.161
 6088.00    1.81520   1.79196    0.161
 6089.00    1.80763   1.79320    0.161
 6090.00    1.79951   1.79447    0.160
 6091.00    1.78170   1.79587    0.158
 6092.00    1.76469   1.79687    0.156
 6093.00    1.76505   1.79705    0.155
 6094.00    1.76644   1.79579    0.155
 6095.00    1.78029   1.79349    0.155
 6096.00    1.79287   1.79144    0.156
 6097.00    1.79489   1.78847    0.157
 6098.00    1.79616   1.78570    0.159
 6099.00    1.79290   1.78288    0.157
 6100.00    1.78601   1.78135    0.156
 6101.00    1.76149   1.78123    0.157
 6102.00    1.74279   1.78268    0.158
 6103.00    1.74716   1.78543    0.156
 6104.00    1.75433   1.78939    0.154
 6105.00    1.77076   1.79436    0.156
 6106.00    1.78475   1.79928    0.157
 6107.00    1.79198   1.80424    0.156
 6108.00    1.79921   1.80792    0.155
 6109.00    1.80647   1.81100    0.157
 6110.00    1.80837   1.81254    0.158
 6111.00    1.79925   1.81207    0.161
 6112.00    1.79269   1.80985    0.162
 6113.00    1.79072   1.80618    0.160
 6114.00    1.78416   1.80096    0.158
 6115.00    1.77040   1.79537    0.158
 6116.00    1.76250   1.78956    0.158
 6117.00    1.76264   1.78363    0.159
 6118.00    1.76022   1.77863    0.159
 6119.00    1.75473   1.77452    0.159
 6120.00    1.74967   1.77198    0.159
 6121.00    1.74509   1.77076    0.159
 6122.00    1.74619   1.77111    0.157
 6123.00    1.75264   1.77234    0.155
 6124.00    1.76345   1.77385    0.153
 6125.00    1.77787   1.77505    0.151
 6126.00    1.78718   1.77530    0.152
 6127.00    1.79275   1.77401    0.154
 6128.00    1.79202   1.77091    0.155
 6129.00    1.78723   1.76605    0.154
 6130.00    1.78821   1.76011    0.154
 6131.00    1.79242   1.75330    0.154
 6132.00    1.78522   1.74669    0.155
 6133.00    1.77245   1.74074    0.156
 6134.00    1.76449   1.73669    0.157
 6135.00    1.75855   1.73549    0.159
 6136.00    1.74975   1.73687    0.160
 6137.00    1.73992   1.74098    0.162
 6138.00    1.73818   1.74698    0.161
 6139.00    1.73891   1.75470    0.159
 6140.00    1.74952   1.76257    0.159
 6141.00    1.76265   1.77043    0.160
 6142.00    1.77498   1.77712    0.161
 6143.00    1.78715   1.78274    0.162
 6144.00    1.80103   1.78654    0.160
 6145.00    1.81520   1.78838    0.158
 6146.00    1.80901   1.78816    0.157
 6147.00    1.80035   1.78645    0.157
 6148.00    1.79284   1.78374    0.157
 6149.00    1.78544   1.77968    0.157
 6150.00    1.79112   1.77412    0.156
 6151.00    1.79742   1.76682    0.156
 6152.00    1.79506   1.75810    0.155
 6153.00    1.79230   1.74742    0.154
 6154.00    1.77429   1.73556    0.154
 6155.00    1.75618   1.72264    0.153
 6156.00    1.73620   1.70928    0.153
 6157.00    1.71551   1.69622    0.153
 6158.00    1.68671   1.68399    0.152
 6159.00    1.65904   1.67349    0.152
 6160.00    1.64049   1.66525    0.152
 6161.00    1.62581   1.66004    0.152
 6162.00    1.63447   1.65771    0.153
 6163.00    1.64313   1.65799    0.154
 6164.00    1.65174   1.66087    0.155
 6165.00    1.65810   1.66538    0.155
 6166.00    1.65574   1.67149    0.156
 6167.00    1.65136   1.67853    0.157
 6168.00    1.64044   1.68684    0.157
 6169.00    1.63762   1.69549    0.157
 6170.00    1.65694   1.70434    0.157
 6171.00    1.67754   1.71318    0.157
 6172.00    1.70117   1.72174    0.160
 6173.00    1.71211   1.73011    0.161
 6174.00    1.69736   1.73746    0.158
 6175.00    1.68425   1.74425    0.156
 6176.00    1.67401   1.74976    0.153
 6177.00    1.67032   1.75407    0.153
 6178.00    1.67676   1.75633    0.155
 6179.00    1.68662   1.75696    0.156
 6180.00    1.70112   1.75575    0.155
 6181.00    1.71009   1.75236    0.153
 6182.00    1.71247   1.74771    0.151
 6183.00    1.70689   1.74198    0.149
 6184.00    1.69294   1.73578    0.149
 6185.00    1.68451   1.72947    0.150
 6186.00    1.68119   1.72407    0.151
 6187.00    1.67423   1.72017    0.152
 6188.00    1.66430   1.71787    0.153
 6189.00    1.65475   1.71759    0.154
 6190.00    1.64548   1.71912    0.153
 6191.00    1.64776   1.72249    0.154
 6192.00    1.65734   1.72701    0.156
 6193.00    1.67452   1.73233    0.157
 6194.00    1.69589   1.73791    0.158
 6195.00    1.68640   1.74333    0.166
 6196.00    1.66208   1.74854   -2.000
 6197.00    1.59060   1.75325   -2.000
 6198.00    1.49956   1.75777   -2.000
 6199.00    1.46640   1.76155   -2.000
 6200.00    1.45376   1.76461   -2.000
 6201.00    1.56920   1.76672   -2.000
 6202.00    1.72295   1.76768   -2.000
 6203.00    1.83704   1.76692   -2.000
 6204.00    1.94128   1.76442   -2.000
 6205.00    1.93352   1.75991   -2.000
 6206.00    1.90320   1.75358   -2.000
 6207.00    1.84284   1.74555   -2.000
 6208.00    1.77774   1.73608    0.160
 6209.00    1.74466   1.72578    0.158
 6210.00    1.71534   1.71527    0.156
 6211.00    1.68627   1.70550    0.153
 6212.00    1.65722   1.69675    0.150
 6213.00    1.65119   1.68977    0.150
 6214.00    1.64617   1.68445    0.151
 6215.00    1.63989   1.68123    0.150
 6216.00    1.63371   1.67965    0.150
 6217.00    1.63298   1.67959    0.150
 6218.00    1.63250   1.68042    0.150
 6219.00    1.63659   1.68169    0.150
 6220.00    1.64075   1.68306    0.150
 6221.00    1.64562   1.68386    0.152
 6222.00    1.65027   1.68435    0.154
 6223.00    1.65334   1.68373    0.154
 6224.00    1.65472   1.68282    0.154
 6225.00    1.64624   1.68112    0.155
 6226.00    1.64160   1.67981    0.156
 6227.00    1.65475   1.67853    0.159
 6228.00    1.66470   1.67809    0.161
 6229.00    1.66252   1.67835    0.160
 6230.00    1.66021   1.67913    0.160
 6231.00    1.65748   1.68047    0.159
 6232.00    1.65545   1.68144    0.158
 6233.00    1.65529   1.68218    0.155
 6234.00    1.65356   1.68169    0.152
 6235.00    1.64819   1.68042    0.152
 6236.00    1.64484   1.67799    0.152
 6237.00    1.64554   1.67500    0.151
 6238.00    1.65040   1.67165    0.151
 6239.00    1.66248   1.66847    0.151
 6240.00    1.66908   1.66576    0.151
 6241.00    1.66734   1.66381    0.151
 6242.00    1.66631   1.66259    0.150
 6243.00    1.66622   1.66209    0.149
 6244.00    1.66426   1.66162    0.149
 6245.00    1.66010   1.66114    0.150
 6246.00    1.65489   1.65978    0.150
 6247.00    1.64860   1.65769    0.149
 6248.00    1.64948   1.65448    0.150
 6249.00    1.65691   1.65044    0.152
 6250.00    1.65372   1.64612    0.153
 6251.00    1.64195   1.64173    0.152
 6252.00    1.63239   1.63862    0.153
 6253.00    1.62441   1.63647    0.154
 6254.00    1.62070   1.63679    0.155
 6255.00    1.61966   1.63891    0.155
 6256.00    1.60607   1.64360    0.156
 6257.00    1.58565   1.64988    0.157
 6258.00    1.57436   1.65782    0.159
 6259.00    1.56739   1.66662    0.162
 6260.00    1.56071   1.67559    0.169
 6261.00    1.55414   1.68451    0.179
 6262.00    1.58285   1.69244    0.183
 6263.00    1.62383   1.69974    0.186
 6264.00    1.67589   1.70571    0.182
 6265.00    1.73120   1.71098    0.176
 6266.00    1.74217   1.71515    0.167
 6267.00    1.74236   1.71876    0.158
 6268.00    1.73425   1.72154    0.153
 6269.00    1.72450   1.72377    0.149
 6270.00    1.71900   1.72545    0.149
 6271.00    1.71415   1.72658    0.149
 6272.00    1.71501   1.72722    0.149
 6273.00    1.71651   1.72744    0.148
 6274.00    1.72264   1.72760    0.150
 6275.00    1.72912   1.72762    0.153
 6276.00    1.73236   1.72804    0.154
 6277.00    1.73547   1.72883    0.155
 6278.00    1.73501   1.73050    0.154
 6279.00    1.73440   1.73278    0.154
 6280.00    1.72828   1.73588    0.000
 6281.00    1.72250   1.73938    0.000
 6282.00    1.72233   1.74301    0.000
 6283.00    1.72253   1.74643    0.000
 6284.00    1.72655   1.74904    0.000
 6285.00    1.73207   1.75074    0.000
 6286.00    1.74886   1.75096    0.000
 6287.00    1.76363   1.74986    0.000
 6288.00    1.76691   1.74716    0.000
 6289.00    1.76930   1.74336    0.000
 6290.00    1.76761   1.73840    0.000
 6291.00    1.76490   1.73286    0.000
 6292.00    1.75840   1.72696    0.000
 6293.00    1.75113   1.72124    0.000
 6294.00    1.74147   1.71607    0.000
 6295.00    1.73398   1.71182    0.000
 6296.00    1.73219   1.70878    0.000
 6297.00    1.73003   1.70716    0.000
 6298.00    1.72706   1.70704    0.000
 6299.00    1.72392   1.70842    0.000
 6300.00    1.72043   1.71102    0.000
 6301.00    1.72022   1.71453    0.000
 6302.00    1.72557   1.71846    0.000
 6303.00    1.72917   1.72227    0.000
 6304.00    1.73014   1.72544    0.000
 6305.00    1.72855   1.72751    0.000
 6306.00    1.72362   1.72821    0.000
 6307.00    1.72002   1.72727    0.000
 6308.00    1.71798   1.72491    0.000
 6309.00    1.71922   1.72121    0.000
 6310.00    1.72382   1.71684    0.000
 6311.00    1.72571   1.71214    0.000
 6312.00    1.72517   1.70789    0.000
 6313.00    1.72523   1.70448    0.000
 6314.00    1.72576   1.70258    0.000
 6315.00    1.71535   1.70231    0.000
 6316.00    1.69728   1.70404    0.000
 6317.00    1.68809   1.70745    0.000
 6318.00    1.68434   1.71255    0.000
 6319.00    1.69129   1.71868    0.000
 6320.00    1.70398   1.72554    0.000
 6321.00    1.70915   1.73249    0.149
 6322.00    1.71084   1.73895    0.149
 6323.00    1.72175   1.74465    0.149
 6324.00    1.73635   1.74896    0.149
 6325.00    1.75302   1.75193    0.150
 6326.00    1.77039   1.75316    0.150
 6327.00    1.77269   1.75291    0.151
 6328.00    1.77065   1.75116    0.152
 6329.00    1.76064   1.74824    0.152
 6330.00    1.74873   1.74452    0.153
 6331.00    1.74180   1.74028    0.152
 6332.00    1.73581   1.73608    0.151
 6333.00    1.72852   1.73220    0.151
 6334.00    1.72104   1.72898    0.153
 6335.00    1.71605   1.72664    0.153
 6336.00    1.71132   1.72517    0.153
 6337.00    1.70231   1.72475    0.155
 6338.00    1.69300   1.72507    0.156
 6339.00    1.70343   1.72627    0.155
 6340.00    1.71458   1.72798    0.153
 6341.00    1.71215   1.73026    0.155
 6342.00    1.70998   1.73282    0.156
 6343.00    1.71841   1.73549    0.154
 6344.00    1.72688   1.73803    0.152
 6345.00    1.73598   1.74005    0.153
 6346.00    1.74378   1.74132    0.154
 6347.00    1.73849   1.74135    0.152
 6348.00    1.73433   1.73995    0.150
 6349.00    1.73834   1.73686    0.149
 6350.00    1.74137   1.73213    0.149
 6351.00    1.73899   1.72584    0.149
 6352.00    1.73480   1.71833    0.149
 6353.00    1.72265   1.71010    0.150
 6354.00    1.71452   1.70170    0.150
 6355.00    1.72098   1.69385    0.150
 6356.00    1.72617   1.68712    0.151
 6357.00    1.72748   1.68220    0.152
 6358.00    1.72206   1.67949    0.153
 6359.00    1.69922   1.67935    0.153
 6360.00    1.67679   1.68184    0.153
 6361.00    1.65527   1.68686    0.155
 6362.00    1.64350   1.69405    0.156
 6363.00    1.65051   1.70296    0.156
 6364.00    1.66280   1.71297    0.156
 6365.00    1.68397   1.72350    0.158
 6366.00    1.70837   1.73387    0.160
 6367.00    1.73753   1.74364    0.159
 6368.00    1.75499   1.75228    0.159
 6369.00    1.75726   1.75962    0.158
 6370.00    1.75856   1.76539    0.156
 6371.00    1.75874   1.76962    0.153
 6372.00    1.76196   1.77237    0.153
 6373.00    1.76822   1.77381    0.154
 6374.00    1.77233   1.77424    0.153
 6375.00    1.77453   1.77390    0.152
 6376.00    1.77093   1.77318    0.151
 6377.00    1.76278   1.77227    0.150
 6378.00    1.75273   1.77145    0.150
 6379.00    1.74135   1.77078    0.150
 6380.00    1.73223   1.77029    0.149
 6381.00    1.72446   1.76988    0.149
 6382.00    1.73158   1.76937    0.150
 6383.00    1.74656   1.76856    0.153
 6384.00    1.76885   1.76725    0.154
 6385.00    1.79449   1.76533    0.154
 6386.00    1.80273   1.76274    0.154
 6387.00    1.80412   1.75960    0.155
 6388.00    1.79987   1.75604    0.152
 6389.00    1.79372   1.75239    0.150
 6390.00    1.77045   1.74883    0.151
 6391.00    1.74236   1.74576    0.153
 6392.00    1.73801   1.74327    0.156
 6393.00    1.73916   1.74163    0.158
 6394.00    1.74279   1.74081    0.160
 6395.00    1.74688   1.74081    0.162
 6396.00    1.75203   1.74164    0.161
 6397.00    1.75733   1.74294    0.159
 6398.00    1.76463   1.74477    0.159
 6399.00    1.77213   1.74659    0.158
 6400.00    1.76601   1.74846    0.155
 6401.00    1.75897   1.74983    0.153
 6402.00    1.76147   1.75080    0.153
 6403.00    1.76429   1.75104    0.153
 6404.00    1.76926   1.75077    0.153
 6405.00    1.77392   1.74995    0.154
 6406.00    1.76858   1.74885    0.152
 6407.00    1.76211   1.74759    0.150
 6408.00    1.73873   1.74639    0.152
 6409.00    1.71793   1.74536    0.153
 6410.00    1.72204   1.74460    0.153
 6411.00    1.72770   1.74412    0.153
 6412.00    1.74414   1.74394    0.153
 6413.00    1.75887   1.74410    0.154
 6414.00    1.76439   1.74460    0.154
 6415.00    1.76830   1.74554    0.155
 6416.00    1.76528   1.74698    0.158
 6417.00    1.76089   1.74897    0.159
 6418.00    1.75161   1.75148    0.157
 6419.00    1.74454   1.75436    0.156
 6420.00    1.74406   1.75747    0.156
 6421.00    1.74252   1.76038    0.156
 6422.00    1.73827   1.76297    0.156
 6423.00    1.73641   1.76478    0.156
 6424.00    1.73978   1.76585    0.154
 6425.00    1.74274   1.76601    0.154
 6426.00    1.74494   1.76553    0.155
 6427.00    1.74541   1.76456    0.156
 6428.00    1.74302   1.76348    0.154
 6429.00    1.73999   1.76258    0.154
 6430.00    1.73603   1.76209    0.154
 6431.00    1.73879   1.76225    0.154
 6432.00    1.75016   1.76307    0.154
 6433.00    1.75816   1.76464    0.153
 6434.00    1.76236   1.76679    0.152
 6435.00    1.76066   1.76948    0.153
 6436.00    1.75311   1.77242    0.153
 6437.00    1.74802   1.77538    0.155
 6438.00    1.74509   1.77797    0.156
 6439.00    1.74535   1.77982    0.157
 6440.00    1.74806   1.78056    0.159
 6441.00    1.75140   1.77992    0.160
 6442.00    1.75517   1.77781    0.159
 6443.00    1.77477   1.77430    0.160
 6444.00    1.80378   1.76976    0.161
 6445.00    1.79388   1.76462    0.160
 6446.00    1.76379   1.75959    0.158
 6447.00    1.74004   1.75513    0.158
 6448.00    1.71916   1.75192    0.159
 6449.00    1.71763   1.75005    0.159
 6450.00    1.72358   1.74978    0.158
 6451.00    1.73475   1.75073    0.156
 6452.00    1.74763   1.75277    0.152
 6453.00    1.75177   1.75523    0.152
 6454.00    1.75349   1.75790    0.152
 6455.00    1.75265   1.76023    0.153
 6456.00    1.75122   1.76217    0.153
 6457.00    1.74621   1.76353    0.153
 6458.00    1.74054   1.76447    0.152
 6459.00    1.74755   1.76516    0.154
 6460.00    1.75632   1.76574    0.156
 6461.00    1.75491   1.76652    0.155
 6462.00    1.75249   1.76738    0.154
 6463.00    1.76096   1.76863    0.155
 6464.00    1.77010   1.76983    0.155
 6465.00    1.79596   1.77126    0.157
 6466.00    1.82219   1.77237    0.159
 6467.00    1.81803   1.77342    0.160
 6468.00    1.81387   1.77399    0.161
 6469.00    1.80999   1.77430    0.160
 6470.00    1.80617   1.77413    0.160
 6471.00    1.80308   1.77356    0.162
 6472.00    1.80080   1.77257    0.164
 6473.00    1.80595   1.77111    0.162
 6474.00    1.81140   1.76928    0.160
 6475.00    1.81889   1.76702    0.160
 6476.00    1.82615   1.76452    0.160
 6477.00    1.83221   1.76173    0.159
 6478.00    1.83696   1.75884    0.158
 6479.00    1.83620   1.75577    0.155
 6480.00    1.83350   1.75253    0.153
 6481.00    1.82407   1.74885    0.154
 6482.00    1.81525   1.74446    0.154
 6483.00    1.80823   1.73894    0.155
 6484.00    1.80289   1.73190    0.155
 6485.00    1.80172   1.72307    0.154
 6486.00    1.79585   1.71235    0.153
 6487.00    1.77983   1.69994    0.155
 6488.00    1.76175   1.68636    0.156
 6489.00    1.73982   1.67242    0.157
 6490.00    1.72239   1.65914    0.158
 6491.00    1.71231   1.64767    0.159
 6492.00    1.70719   1.63896    0.160
 6493.00    1.70918   1.63398    0.163
 6494.00    1.70065   1.63303    0.163
 6495.00    1.67887   1.63636    0.162
 6496.00    1.66266   1.64345    0.160
 6497.00    1.65265   1.65382    0.159
 6498.00    1.66044   1.66636    0.159
 6499.00    1.68568   1.68022    0.159
 6500.00    1.69946   1.69431    0.159
 6501.00    1.70333   1.70779    0.156
 6502.00    1.72236   1.72004    0.155
 6503.00    1.75294   1.73048    0.153
 6504.00    1.77767   1.73904    0.153
 6505.00    1.79849   1.74544    0.155
 6506.00    1.80103   1.75001    0.156
 6507.00    1.79285   1.75269    0.156
 6508.00    1.79020   1.75396    0.156
 6509.00    1.79036   1.75392    0.156
 6510.00    1.78771   1.75310    0.156
 6511.00    1.78382   1.75167    0.156
 6512.00    1.79171   1.75013    0.158
 6513.00    1.80407   1.74868    0.160
 6514.00    1.81498   1.74767    0.159
 6515.00    1.82541   1.74722    0.159
 6516.00    1.83591   1.74741    0.161
 6517.00    1.84643   1.74822    0.164
 6518.00    1.84628   1.74943    0.163
 6519.00    1.84376   1.75092    0.162
 6520.00    1.84620   1.75239    0.161
 6521.00    1.84952   1.75373    0.161
 6522.00    1.83461   1.75471    0.160
 6523.00    1.81724   1.75537    0.159
 6524.00    1.81600   1.75567    0.161
 6525.00    1.81631   1.75577    0.163
 6526.00    1.81336   1.75575    0.162
 6527.00    1.81023   1.75581    0.159
 6528.00    1.81200   1.75602    0.000
 6529.00    1.81384   1.75650    0.000
 6530.00    1.80636   1.75722    0.000
 6531.00    1.79918   1.75811    0.000
 6532.00    1.79957   1.75902    0.000
 6533.00    1.80071   1.75973    0.000
 6534.00    1.81199   1.75999    0.000
 6535.00    1.82190   1.75954    0.000
 6536.00    1.81962   1.75821    0.000
 6537.00    1.81916   1.75580    0.000
 6538.00    1.83062   1.75234    0.000
 6539.00    1.84164   1.74780    0.000
 6540.00    1.85035   1.74244    0.000
 6541.00    1.85877   1.73631    0.000
 6542.00    1.86599   1.72976    0.000
 6543.00    1.86750   1.72280    0.000
 6544.00    1.84950   1.71558    0.000
 6545.00    1.83782   1.70801    0.000
 6546.00    1.84429   1.69994    0.000
 6547.00    1.85013   1.69111    0.000
 6548.00    1.85438   1.68116    0.000
 6549.00    1.85576   1.66978    0.000
 6550.00    1.85106   1.65663    0.000
 6551.00    1.84388   1.64155    0.000
 6552.00    1.83215   1.62450    0.000
 6553.00    1.81880   1.60574    0.000
 6554.00    1.80283   1.58577    0.000
 6555.00    1.78388   1.56549    0.000
 6556.00    1.76073   1.54592    0.000
 6557.00    1.74960   1.52855    0.000
 6558.00    1.75343   1.51448    0.000
 6559.00    1.75851   1.50517    0.000
 6560.00    1.76497   1.50110    0.000
 6561.00    1.77042   1.50301    0.000
 6562.00    1.77489   1.51015    0.000
 6563.00    1.77490   1.52220    0.000
 6564.00    1.77113   1.53763    0.000
 6565.00    1.77332   1.55534    0.000
 6566.00    1.77999   1.57371    0.000
 6567.00    1.76720   1.59190    0.000
 6568.00    1.74158   1.60880    0.000
 6569.00    1.73133   1.62432    0.000
 6570.00    1.72996   1.63795    0.000
 6571.00    1.72314   1.65014    0.000
 6572.00    1.71357   1.66077    0.000
 6573.00    1.71404   1.67040    0.000
 6574.00    1.71888   1.67891    0.000
 6575.00    1.72919   1.68667    0.000
 6576.00    1.74153   1.69352    0.000
 6577.00    1.78473   1.69961    0.000
 6578.00    1.83770   1.70478    0.000
 6579.00    1.88354   1.70906    0.000
 6580.00    1.92750   1.71235    0.000
 6581.00    1.97279   1.71463    0.000
 6582.00    2.01836   1.71582    0.000
 6583.00    2.03861   1.71595    0.000
 6584.00    2.05452   1.71499    0.000
 6585.00    2.04024   1.71311    0.000
 6586.00    2.02203   1.71042    0.000
 6587.00    1.99446   1.70731    0.000
 6588.00    1.96603   1.70405    0.000
 6589.00    1.92827   1.70110    0.000
 6590.00    1.89000   1.69882    0.000
 6591.00    1.86057   1.69754    0.000
 6592.00    1.83135   1.69743    0.000
 6593.00    1.80321   1.69845    0.000
 6594.00    1.77579   1.70046    0.000
 6595.00    1.76480   1.70312    0.000
 6596.00    1.75370   1.70607    0.000
 6597.00    1.74127   1.70886    0.000
 6598.00    1.73222   1.71114    0.000
 6599.00    1.75202   1.71272    0.000
 6600.00    1.76995   1.71341    0.000
 6601.00    1.77591   1.71346    0.000
 6602.00    1.77938   1.71294    0.000
 6603.00    1.77048   1.71235    0.000
 6604.00    1.76271   1.71191    0.000
 6605.00    1.75947   1.71208    0.000
 6606.00    1.75695   1.71306    0.000
 6607.00    1.75684   1.71495    0.000
 6608.00    1.75228   1.71782    0.000
 6609.00    1.73514   1.72136    0.166
 6610.00    1.73113   1.72550    0.169
 6611.00    1.75888   1.72968    0.168
 6612.00    1.78019   1.73378    0.168
 6613.00    1.78804   1.73726    0.167
 6614.00    1.80142   1.74002    0.168
 6615.00    1.82485   1.74173    0.171
 6616.00    1.83781   1.74235    0.173
 6617.00    1.83419   1.74188    0.171
 6618.00    1.82682   1.74030    0.169
 6619.00    1.81423   1.73787    0.167
 6620.00    1.80133   1.73461    0.166
 6621.00    1.78806   1.73087    0.167
 6622.00    1.78760   1.72668    0.168
 6623.00    1.80097   1.72234    0.169
 6624.00    1.80884   1.71795    0.168
 6625.00    1.81148   1.71364    0.166
 6626.00    1.80337   1.70964    0.165
 6627.00    1.78624   1.70593    0.166
 6628.00    1.76586   1.70286    0.166
 6629.00    1.74309   1.70031    0.167
 6630.00    1.72701   1.69864    0.166
 6631.00    1.71526   1.69761    0.164
 6632.00    1.70318   1.69745    0.164
 6633.00    1.69091   1.69786    0.164
 6634.00    1.69755   1.69883    0.165
 6635.00    1.71355   1.70007    0.167
 6636.00    1.72895   1.70149    0.168
 6637.00    1.74411   1.70287    0.170
 6638.00    1.75422   1.70420    0.172
 6639.00    1.76248   1.70537    0.174
 6640.00    1.77011   1.70647    0.176
 6641.00    1.77755   1.70748    0.178
 6642.00    1.76598   1.70855    0.178
 6643.00    1.74951   1.70958    0.177
 6644.00    1.75426   1.71074    0.177
 6645.00    1.76350   1.71182    0.178
 6646.00    1.74995   1.71292    0.176
 6647.00    1.73260   1.71379    0.173
 6648.00    1.73545   1.71443    0.171
 6649.00    1.74085   1.71468    0.170
 6650.00    1.75287   1.71441    0.170
 6651.00    1.76547   1.71366    0.170
 6652.00    1.76967   1.71217    0.168
 6653.00    1.77344   1.71018    0.166
 6654.00    1.78419   1.70742    0.167
 6655.00    1.79475   1.70434    0.168
 6656.00    1.78247   1.70073    0.170
 6657.00    1.77089   1.69715    0.171
 6658.00    1.77430   1.69359    0.173
 6659.00    1.77740   1.69053    0.173
 6660.00    1.77672   1.68813    0.173
 6661.00    1.77218   1.68661    0.173
 6662.00    1.73579   1.68615    0.175
 6663.00    1.70532   1.68657    0.177
 6664.00    1.71146   1.68796    0.176
 6665.00    1.71730   1.68976    0.176
 6666.00    1.72176   1.69197    0.176
 6667.00    1.72554   1.69388    0.177
 6668.00    1.72665   1.69548    0.180
 6669.00    1.73030   1.69624    0.182
 6670.00    1.74226   1.69631    0.178
 6671.00    1.74830   1.69550    0.175
 6672.00    1.73785   1.69421    0.172
 6673.00    1.72286   1.69257    0.170
 6674.00    1.69709   1.69105    0.170
 6675.00    1.68592   1.68995    0.170
 6676.00    1.70474   1.68955    0.171
 6677.00    1.72064   1.69005    0.172
 6678.00    1.73131   1.69140    0.173
 6679.00    1.74211   1.69358    0.174
 6680.00    1.75313   1.69629    0.176
 6681.00    1.76393   1.69928    0.178
 6682.00    1.77442   1.70225    0.179
 6683.00    1.78130   1.70483    0.180
 6684.00    1.78381   1.70693    0.180
 6685.00    1.78042   1.70821    0.180
 6686.00    1.77077   1.70876    0.180
 6687.00    1.75971   1.70842    0.181
 6688.00    1.74735   1.70737    0.183
 6689.00    1.74622   1.70571    0.183
 6690.00    1.75441   1.70358    0.182
 6691.00    1.75040   1.70128    0.182
 6692.00    1.73749   1.69886    0.183
 6693.00    1.72905   1.69671    0.183
 6694.00    1.72349   1.69471    0.183
 6695.00    1.69617   1.69323    0.180
 6696.00    1.65668   1.69200    0.000
 6697.00    1.65704   1.69123    0.000
 6698.00    1.67679   1.69065    0.000
 6699.00    1.69808   1.69022    0.000
 6700.00    1.72002   1.68978    0.000
 6701.00    1.72270   1.68915    0.000
 6702.00    1.71844   1.68830    0.000
 6703.00    1.71259   1.68694    0.000
 6704.00    1.70624   1.68516    0.000
 6705.00    1.70783   1.68275    0.000
 6706.00    1.71143   1.67979    0.000
 6707.00    1.72084   1.67631    0.000
 6708.00    1.73145   1.67244    0.000
 6709.00    1.73256   1.66839    0.000
 6710.00    1.73212   1.66443    0.000
 6711.00    1.74529   1.66082    0.000
 6712.00    1.76010   1.65795    0.000
 6713.00    1.75837   1.65590    0.000
 6714.00    1.75527   1.65509    0.000
 6715.00    1.75863   1.65532    0.000
 6716.00    1.76229   1.65684    0.000
 6717.00    1.78814   1.65921    0.000
 6718.00    1.81334   1.66247    0.000
 6719.00    1.78420   1.66616    0.000
 6720.00    1.75590   1.67013    0.000
 6721.00    1.74414   1.67409    0.000
 6722.00    1.73304   1.67780    0.000
 6723.00    1.72948   1.68123    0.000
 6724.00    1.72754   1.68410    0.000
 6725.00    1.73849   1.68654    0.000
 6726.00    1.74819   1.68829    0.000
 6727.00    1.75036   1.68954    0.000
 6728.00    1.75657   1.69007    0.000
 6729.00    1.78197   1.69004    0.000
 6730.00    1.80700   1.68937    0.000
 6731.00    1.83058   1.68810    0.000
 6732.00    1.84496   1.68639    0.000
 6733.00    1.82969   1.68417    0.000
 6734.00    1.82490   1.68177    0.000
 6735.00    1.84863   1.67902    0.000
 6736.00    1.84877   1.67640    0.000
 6737.00    1.79374   1.67358    0.000
 6738.00    1.75581   1.67111    0.000
 6739.00    1.75243   1.66858    0.000
 6740.00    1.73792   1.66650    0.000
 6741.00    1.70384   1.66446    0.000
 6742.00    1.68771   1.66290    0.000
 6743.00    1.69925   1.66156    0.000
 6744.00    1.69783   1.66073    0.000
 6745.00    1.67889   1.66042    0.000
 6746.00    1.67154   1.66064    0.000
 6747.00    1.67797   1.66170    0.000
 6748.00    1.67498   1.66332    0.000
 6749.00    1.66209   1.66592    0.000
 6750.00    1.64703   1.66902    0.000
 6751.00    1.62998   1.67284    0.000
 6752.00    1.62702   1.67696    0.000
 6753.00    1.63556   1.68121    0.199
 6754.00    1.63736   1.68537    0.203
 6755.00    1.63431   1.68896    0.206
 6756.00    1.65174   1.69206    0.211
 6757.00    1.68208   1.69406    0.216
 6758.00    1.75033   1.69529    0.221
 6759.00    1.83946   1.69536    0.226
 6760.00    1.89797   1.69472    0.229
 6761.00    1.94181   1.69329    0.232
 6762.00    1.98204   1.69156    0.235
 6763.00    2.02077   1.68970    0.238
 6764.00    2.03217   1.68808    0.240
 6765.00    2.03389   1.68700    0.241
 6766.00    2.02311   1.68662    0.237
 6767.00    2.00860   1.68708    0.230
 6768.00    1.97864   1.68832    0.223
 6769.00    1.94486   1.69023    0.216
 6770.00    1.94748   1.69258    0.215
 6771.00    1.95741   1.69495    0.215
 6772.00    1.90055   1.69724    0.211
 6773.00    1.83320   1.69877    0.207
 6774.00    1.80283   1.69974    0.208
 6775.00    1.77677   1.69947    0.209
 6776.00    1.74549   1.69848    0.208
 6777.00    1.71379   1.69634    0.207
 6778.00    1.76276   1.69372    0.213
 6779.00    1.81523   1.69055    0.220
 6780.00    1.82222   1.68740    0.222
 6781.00    1.82876   1.68446    0.225
 6782.00    1.83689   1.68196    0.224
 6783.00    1.84519   1.68018    0.223
 6784.00    1.85674   1.67900    0.223
 6785.00    1.86765   1.67854    0.223
 6786.00    1.87168   1.67859    0.222
 6787.00    1.87133   1.67903    0.221
 6788.00    1.83730   1.67977    0.217
 6789.00    1.80848   1.68055    0.213
 6790.00    1.81000   1.68154    0.212
 6791.00    1.81009   1.68237    0.211
 6792.00    1.80361   1.68339    0.210
 6793.00    1.80369   1.68425    0.209
 6794.00    1.82853   1.68529    0.212
 6795.00    1.84482   1.68624    0.213
 6796.00    1.83411   1.68720    0.212
 6797.00    1.83203   1.68813    0.211
 6798.00    1.85308   1.68888    0.213
 6799.00    1.84921   1.68953    0.214
 6800.00    1.78811   1.68990    0.213
 6801.00    1.75088   1.69017    0.213
 6802.00    1.76115   1.69015    0.216
 6803.00    1.77216   1.69002    0.219
 6804.00    1.78448   1.68970    0.219
 6805.00    1.79141   1.68946    0.218
 6806.00    1.79015   1.68919    0.214
 6807.00    1.78614   1.68907    0.211
 6808.00    1.77844   1.68905    0.209
 6809.00    1.78114   1.68924    0.209
 6810.00    1.79605   1.68965    0.212
 6811.00    1.79020   1.69036    0.212
 6812.00    1.76287   1.69127    0.210
 6813.00    1.76065   1.69245    0.210
 6814.00    1.78135   1.69373    0.213
 6815.00    1.79465   1.69520    0.213
 6816.00    1.80201   1.69660    0.211
 6817.00    1.81461   1.69800    0.209
 6818.00    1.83091   1.69918    0.208
 6819.00    1.82963   1.70024    0.207
 6820.00    1.81743   1.70094    0.206
 6821.00    1.84570   1.70144    0.209
 6822.00    1.89592   1.70154    0.214
 6823.00    1.89102   1.70144    0.216
 6824.00    1.86014   1.70101    0.217
 6825.00    1.83268   1.70039    0.216
 6826.00    1.80661   1.69950    0.214
 6827.00    1.78901   1.69838    0.215
 6828.00    1.77433   1.69684    0.216
 6829.00    1.79297   1.69500    0.219
 6830.00    1.82134   1.69252    0.222
 6831.00    1.82745   1.68968    0.218
 6832.00    1.82816   1.68619    0.214
 6833.00    1.82642   1.68251    0.212
 6834.00    1.82420   1.67855    0.211
 6835.00    1.80938   1.67482    0.211
 6836.00    1.79264   1.67142    0.210
 6837.00    1.76360   1.66871    0.212
 6838.00    1.73318   1.66690    0.213
 6839.00    1.76170   1.66613    0.215
 6840.00    1.79461   1.66640    0.217
 6841.00    1.79544   1.66756    0.215
 6842.00    1.79499   1.66942    0.212
 6843.00    1.75233   1.67156    0.207
 6844.00    1.71041   1.67373    0.203
 6845.00    1.70942   1.67544    0.205
 6846.00    1.71007   1.67645    0.207
 6847.00    1.73858   1.67675    0.211
 6848.00    1.77044   1.67623    0.216
 6849.00    1.83734   1.67485    0.219
 6850.00    1.89078   1.67294    0.222
 6851.00    1.84418   1.67052    0.219
 6852.00    1.80663   1.66793    0.216
 6853.00    1.82039   1.66545    0.213
 6854.00    1.82687   1.66345    0.211
 6855.00    1.80050   1.66194    0.211
 6856.00    1.76893   1.66087    0.210
 6857.00    1.71814   1.66038    0.209
 6858.00    1.68749   1.66016    0.207
 6859.00    1.71920   1.66040    0.206
 6860.00    1.74159   1.66081    0.205
 6861.00    1.73948   1.66147    0.205
 6862.00    1.73904   1.66193    0.205
 6863.00    1.74239   1.66232    0.205
 6864.00    1.74440   1.66264    0.207
 6865.00    1.74382   1.66296    0.210
 6866.00    1.74549   1.66324    0.213
 6867.00    1.75101   1.66367    0.216
 6868.00    1.76957   1.66428    0.218
 6869.00    1.80765   1.66520    0.220
 6870.00    1.81777   1.66618    0.221
 6871.00    1.79117   1.66757    0.223
 6872.00    1.79029   1.66878    0.222
 6873.00    1.81918   1.67030    0.220
 6874.00    1.81348   1.67155    0.218
 6875.00    1.77251   1.67311    0.218
 6876.00    1.75510   1.67444    0.216
 6877.00    1.75891   1.67593    0.214
 6878.00    1.74712   1.67758    0.211
 6879.00    1.72297   1.67932    0.208
 6880.00    1.71779   1.68160    0.206
 6881.00    1.72585   1.68396    0.205
 6882.00    1.76106   1.68700    0.207
 6883.00    1.81289   1.68995    0.210
 6884.00    1.81665   1.69341    0.211
 6885.00    1.79471   1.69665    0.210
 6886.00    1.78990   1.69983    0.211
 6887.00    1.79304   1.70275    0.212
 6888.00    1.77307   1.70519    0.211
 6889.00    1.74387   1.70737    0.208
 6890.00    1.74456   1.70889    0.210
 6891.00    1.75544   1.71025    0.212
 6892.00    1.75743   1.71104    0.215
 6893.00    1.75688   1.71186    0.218
 6894.00    1.75651   1.71242    0.218
 6895.00    1.75618   1.71315    0.218
 6896.00    1.75948   1.71380    0.218
 6897.00    1.76346   1.71455    0.218
 6898.00    1.76967   1.71544    0.215
 6899.00    1.77622   1.71625    0.212
 6900.00    1.77694   1.71718    0.214
 6901.00    1.77703   1.71771    0.217
 6902.00    1.80390   1.71816    0.217
 6903.00    1.83266   1.71806    0.216
 6904.00    1.83339   1.71759    0.214
 6905.00    1.83312   1.71649    0.212
 6906.00    1.82554   1.71502    0.210
 6907.00    1.81713   1.71307    0.209
 6908.00    1.78078   1.71088    0.207
 6909.00    1.74576   1.70877    0.206
 6910.00    1.73176   1.70642    0.207
 6911.00    1.72177   1.70462    0.209
 6912.00    1.75201   1.70287    0.210
 6913.00    1.77635   1.70176    0.211
 6914.00    1.75824   1.70077    0.215
 6915.00    1.74086   1.70015    0.219
 6916.00    1.72746   1.69965    0.218
 6917.00    1.72366   1.69903    0.218
 6918.00    1.76222   1.69865    0.220
 6919.00    1.78885   1.69806    0.222
 6920.00    1.77227   1.69781    0.220
 6921.00    1.76186   1.69731    0.219
 6922.00    1.77023   1.69696    0.216
 6923.00    1.77568   1.69673    0.215
 6924.00    1.77357   1.69658    0.214
 6925.00    1.76303   1.69681    0.214
 6926.00    1.73372   1.69697    0.213
 6927.00    1.71630   1.69774    0.213
 6928.00    1.72180   1.69864    0.213
 6929.00    1.74225   1.69967    0.214
 6930.00    1.78785   1.70073    0.214
 6931.00    1.81294   1.70173    0.215
 6932.00    1.80784   1.70278    0.214
 6933.00    1.78693   1.70351    0.215
 6934.00    1.74554   1.70403    0.217
 6935.00    1.73445   1.70398    0.218
 6936.00    1.75794   1.70350    0.220
 6937.00    1.77857   1.70260    0.224
 6938.00    1.79633   1.70118    0.228
 6939.00    1.78715   1.69982    0.229
 6940.00    1.75406   1.69834    0.226
 6941.00    1.75890   1.69679    0.225
 6942.00    1.79340   1.69534    0.226
 6943.00    1.80553   1.69408    0.224
 6944.00    1.80227   1.69284    0.220
 6945.00    1.80327   1.69215    0.221
 6946.00    1.80684   1.69178    0.224
 6947.00    1.80579   1.69187    0.222
 6948.00    1.80230   1.69239    0.217
 6949.00    1.79126   1.69344    0.215
 6950.00    1.77678   1.69496    0.215
 6951.00    1.75629   1.69670    0.213
 6952.00    1.73342   1.69905    0.211
 6953.00    1.73754   1.70142    0.213
 6954.00    1.75068   1.70433    0.218
 6955.00    1.75347   1.70712    0.219
 6956.00    1.75336   1.71009    0.220
 6957.00    1.76816   1.71292    0.223
 6958.00    1.78640   1.71545    0.227
 6959.00    1.80031   1.71768    0.228
 6960.00    1.81341   1.71959    0.229
 6961.00    1.79118   1.72120    0.226
 6962.00    1.76389   1.72200    0.223
 6963.00    1.72504   1.72233    0.223
 6964.00    1.68500   1.72162    0.223
 6965.00    1.71734   1.72041    0.222
 6966.00    1.75450   1.71830    0.221
 6967.00    1.75892   1.71530    0.222
 6968.00    1.76229   1.71141    0.223
 6969.00    1.77405   1.70681    0.222
 6970.00    1.78456   1.70174    0.221
 6971.00    1.75663   1.69635    0.221
 6972.00    1.72974   1.69131    0.221
 6973.00    1.71836   1.68740    0.221
 6974.00    1.70507   1.68445    0.221
 6975.00    1.67344   1.68315    0.218
 6976.00    1.64725   1.68328    0.216
 6977.00    1.65892   1.68492    0.220
 6978.00    1.67127   1.68789    0.224
 6979.00    1.68728   1.69188    0.226
 6980.00    1.70100   1.69659    0.227
 6981.00    1.70486   1.70151    0.226
 6982.00    1.70748   1.70633    0.226
 6983.00    1.70570   1.71077    0.228
 6984.00    1.70796   1.71470    0.230
 6985.00    1.72222   1.71788    0.228
 6986.00    1.72436   1.72033    0.226
 6987.00    1.69572   1.72185    0.225
 6988.00    1.68575   1.72261    0.224
 6989.00    1.71659   1.72269    0.225
 6990.00    1.73183   1.72205    0.225
 6991.00    1.71749   1.72094    0.221
 6992.00    1.71788   1.71906    0.219
 6993.00    1.74266   1.71679    0.219
 6994.00    1.74516   1.71423    0.220
 6995.00    1.71534   1.71148    0.220
 6996.00    1.70915   1.70887    0.221
 6997.00    1.73313   1.70604    0.224
 6998.00    1.75707   1.70362    0.226
 6999.00    1.78099   1.70108    0.226
 7000.00    1.77856   1.69927    0.225
 7001.00    1.74998   1.69758    0.224
 7002.00    1.24654   1.69656    0.150
 7003.00    0.32764   1.69554    0.093
 7004.00    0.28821   1.69478    0.113
 7005.00    0.92667   1.69397    0.391
 7006.00    1.18765   1.69312   -1.000
 7007.00    1.19286   1.69218   -1.000
 7008.00    1.18884   1.69101   -1.000
 7009.00    1.17935   1.68956   -1.000
 7010.00    1.17766   1.68810   -1.000
 7011.00    1.18001   1.68683   -1.000
 7012.00    1.17928   1.68594   -1.000
 7013.00    1.17717   1.68585   -1.000
 7014.00    1.17667   1.68583   -1.000
 7015.00    1.17679   1.68624   -1.000
 7016.00    1.17848   1.68667   -1.000
 7017.00    1.18069   1.68750   -1.000
 7018.00    1.17950   1.68832   -1.000
 7019.00    1.17738   1.68961   -1.000
 7020.00    1.17649   1.69101   -1.000
 7021.00    1.17589   1.69285   -1.000
 7022.00    1.18243   1.69458   -1.000
 7023.00    1.19026   1.69653   -1.000
 7024.00    1.19264   1.69854   -1.000
 7025.00    1.19427   1.70065   -1.000
 7026.00    1.19569   1.70283   -1.000
 7027.00    1.19708   1.70499   -1.000
 7028.00    1.19898   1.70719   -1.000
 7029.00    1.20092   1.70959   -1.000
 7030.00    1.19532   1.71189   -1.000
 7031.00    1.18953   1.71448   -1.000
 7032.00    1.19245   1.71719   -1.000
 7033.00    1.19507   1.72018   -1.000
 7034.00    1.18928   1.72370   -1.000
 7035.00    1.18410   1.72827   -1.000
 7036.00    1.18749   1.73278   -1.000
 7037.00    1.19145   1.73756   -1.000
 7038.00    1.20064   1.74184   -1.000
 7039.00    1.20862   1.74603   -1.000
 7040.00    1.20847   1.74922   -1.000
 7041.00    1.20945   1.75199   -1.000
 7042.00    1.21640   1.75352   -1.000
 7043.00    1.22450   1.75360   -1.000
 7044.00    1.23750   1.75214   -1.000
 7045.00    1.24624   1.74875   -1.000
 7046.00    1.24020   1.74388   -1.000
 7047.00    1.23575   1.73740   -1.000
 7048.00    1.23596   1.72969   -1.000
 7049.00    1.23709   1.72161   -1.000
 7050.00    1.24053   1.71310   -2.000
 7051.00    1.24243   1.70482   -2.000
 7052.00    1.24101   1.69660   -2.000
 7053.00    1.23889   1.68887   -2.000
 7054.00    1.23546   1.68155   -2.000
 7055.00    1.24031   1.67500   -2.000
 7056.00    1.25869   1.66947   -2.000
 7057.00    1.26708   1.66501   -2.000
 7058.00    1.26122   1.66107   -2.000
 7059.00    1.26211   1.65804   -2.000
 7060.00    1.27149   1.65564   -2.000
 7061.00    1.27966   1.65358   -2.000
 7062.00    1.28649   1.65233   -2.000
 7063.00    1.29994   1.65169   -2.000
 7064.00    1.31988   1.65210   -2.000
 7065.00    1.30931   1.65362   -2.000
 7066.00    1.27245   1.65573   -2.000
 7067.00    1.24719   1.65819   -2.000
 7068.00    1.23074   1.66097   -2.000
 7069.00    1.24214   1.66402   -2.000
 7070.00    1.27214   1.66675   -2.000
 7071.00    1.30076   1.66918   -2.000
 7072.00    1.32858   1.67074   -2.000
 7073.00    1.34771   1.67154   -2.000
 7074.00    1.36239   1.67088   -2.000
 7075.00    1.34776   1.66895   -2.000
 7076.00    1.32018   1.66557   -2.000
 7077.00    1.31661   1.66049   -2.000
 7078.00    1.32213   1.65405   -2.000
 7079.00    1.32624   1.64629   -2.000
 7080.00    1.32990   1.63799   -2.000
 7081.00    1.32387   1.62991   -2.000
 7082.00    1.31522   1.62147   -2.000
 7083.00    1.30207   1.61329   -2.000
 7084.00    1.28792   1.60582   -2.000
 7085.00    1.26358   1.59921   -2.000
 7086.00    1.23745   1.59365   -2.000
 7087.00    1.23322   1.58976   -2.000
 7088.00    1.23192   1.58655   -2.000
 7089.00    1.21721   1.58502   -2.000
 7090.00    1.20123   1.58455   -2.000
 7091.00    1.19504   1.58476   -2.000
 7092.00    1.18943   1.58675   -2.000
 7093.00    1.19471   1.58811   -2.000
 7094.00    1.20018   1.59199   -2.000
 7095.00    1.19484   1.59402   -2.000
 7096.00    1.18929   1.59780   -2.000
 7097.00    1.17826   1.59981   -2.000
 7098.00    1.16656   1.60279   -2.000
 7099.00    1.14577   1.60480   -2.000
 7100.00    1.12564   1.60693   -2.000
 7101.00    1.11132   1.60805   -2.000
 7102.00    1.10074   1.60845   -2.000
 7103.00    1.11454   1.60891   -2.000
 7104.00    1.12595   1.60880   -2.000
 7105.00    1.12516   1.60870   -2.000
 7106.00    1.12151   1.60784   -2.000
 7107.00    1.10611   1.60781   -2.000
 7108.00    1.09144   1.60756   -2.000
 7109.00    1.07920   1.60800   -2.000
 7110.00    1.07272   1.60799   -2.000
 7111.00    1.08278   1.60854   -2.000
 7112.00    1.09009   1.60881   -2.000
 7113.00    1.09066   1.60891   -2.000
 7114.00    1.09320   1.60908   -2.000
 7115.00    1.09990   1.60838   -2.000
 7116.00    1.11054   1.60800   -2.000
 7117.00    1.12842   1.60627   -2.000
 7118.00    1.14487   1.60493   -2.000
 7119.00    1.15901   1.60304   -2.000
 7120.00    1.17465   1.60054   -2.000
 7121.00    1.19241   1.59791   -2.000
 7122.00    1.20382   1.59512   -2.000
 7123.00    1.20734   1.59284   -2.000
 7124.00    1.20412   1.59062   -2.000
 7125.00    1.19353   1.58873   -2.000
 7126.00    1.17910   1.58742   -2.000
 7127.00    1.16095   1.58747   -2.000
 7128.00    1.15922   1.58820   -2.000
 7129.00    1.17144   1.58989   -2.000
 7130.00    1.16776   1.59213   -2.000
 7131.00    1.15218   1.59455   -2.000
 7132.00    1.14121   1.59778   -2.000
 7133.00    1.13329   1.60047   -2.000
 7134.00    1.12229   1.60310   -2.000
 7135.00    1.10951   1.60533   -2.000
 7136.00    1.11954   1.60757   -2.000
 7137.00    1.14102   1.60894   -2.000
 7138.00    1.15485   1.60968   -2.000
 7139.00    1.16535   1.61018   -2.000
 7140.00    1.17254   1.60992   -2.000
 7141.00    1.17850   1.60981   -2.000
 7142.00    1.16120   1.60925   -2.000
 7143.00    1.13656   1.60849   -2.000
 7144.00    1.12317   1.60851   -2.000
 7145.00    1.11273   1.60916   -2.000
 7146.00    1.10902   1.61015   -2.000
 7147.00    1.10675   1.61195   -2.000
 7148.00    1.11487   1.61403   -2.000
 7149.00    1.12477   1.61627   -2.000
 7150.00    1.12424   1.61834   -2.000
 7151.00    1.12236   1.62021   -2.000
 7152.00    1.11404   1.62245   -2.000
 7153.00    1.10515   1.62340   -2.000
 7154.00    1.11373   1.62426   -2.000
 7155.00    1.12326   1.62400   -2.000
 7156.00    1.12722   1.62362   -2.000
 7157.00    1.13114   1.62296   -2.000
 7158.00    1.14153   1.62196   -2.000
 7159.00    1.15304   1.62081   -2.000
 7160.00    1.18967   1.61959   -2.000
 7161.00    1.22335   1.61983   -2.000
 7162.00    1.21971   1.62041   -2.000
 7163.00    1.21639   1.62217   -2.000
 7164.00    1.21576   1.62405   -2.000
 7165.00    1.21289   1.62638   -2.000
 7166.00    1.19585   1.62893   -2.000
 7167.00    1.18512   1.63133   -2.000
 7168.00    1.20571   1.63361   -2.000
 7169.00    1.21906   1.63508   -2.000
 7170.00    1.20330   1.63590   -2.000
 7171.00    1.18485   1.63549   -2.000
 7172.00    1.15740   1.63461   -2.000
 7173.00    1.13476   1.63322   -2.000
 7174.00    1.12571   1.63097   -2.000
 7175.00    1.12847   1.62817   -2.000
 7176.00    1.15974   1.62467   -2.000
 7177.00    1.18078   1.62133   -2.000
 7178.00    1.18054   1.61835   -2.000
 7179.00    1.17334   1.61543   -2.000
 7180.00    1.15356   1.61261   -2.000
 7181.00    1.13441   1.60993   -2.000
 7182.00    1.11629   1.60689   -2.000
 7183.00    1.09955   1.60461   -2.000
 7184.00    1.08474   1.60282   -2.000
 7185.00    1.07501   1.60158   -2.000
 7186.00    1.07150   1.60157   -2.000
 7187.00    1.07506   1.60147   -2.000
 7188.00    1.08624   1.60236   -2.000
 7189.00    1.09564   1.60346   -2.000
 7190.00    1.10335   1.60551   -2.000
 7191.00    1.09852   1.60761   -2.000
 7192.00    1.08318   1.60981   -2.000
 7193.00    1.07328   1.61226   -2.000
 7194.00    1.06738   1.61454   -2.000
 7195.00    1.06549   1.61674   -2.000
 7196.00    1.06621   1.61856   -2.000
 7197.00    1.06600   1.61982   -2.000
 7198.00    1.06526   1.62075   -2.000
 7199.00    1.08265   1.62138   -2.000
 7200.00    1.10898   1.62145   -2.000
 7201.00    1.12111   1.62132   -2.000
 7202.00    1.12717   1.62024   -2.000
 7203.00    1.11542   1.61995   -2.000
 7204.00    1.09716   1.61962   -2.000
 7205.00    1.07061   1.62008   -2.000
 7206.00    1.04150   1.62158   -2.000
 7207.00    1.02854   1.62274   -2.000
 7208.00    1.01975   1.62487   -2.000
 7209.00    1.02372   1.62655   -2.000
 7210.00    1.03037   1.62911   -2.000
 7211.00    1.03625   1.63154   -2.000
 7212.00    1.04201   1.63458   -2.000
 7213.00    1.04757   1.63769   -2.000
 7214.00    1.05312   1.64050   -2.000
 7215.00    1.04702   1.64373   -2.000
 7216.00    1.03992   1.64628   -2.000
 7217.00    1.05218   1.64943   -2.000
 7218.00    1.06542   1.65213   -2.000
