###################################################################
## OUTPUT of StarlightChains_v04.for    [Cid@UFSC - 01/Apr/2007] ##
###################################################################

## Some input info
KUG0210-078._5_58.txt                    [arq_obs]
Base.CB07.vall.4m                        [arq_base]
Masks.EmLines.NEW.gm                     [arq_masks]
StCv04.C11.config                        [arq_config]
   66                                    [N_base]
    0                                    [N_YAV_components = # of components with extra extinction!]
    0                                    [i_FitPowerLaw (1/0 = Yes/No)]
-9.99                                    [alpha_PowerLaw]
CCM                                      [red_law_option]
 1.458241                                [q_norm = A(l_norm)/A(V)]

## (Re)Sampling Parameters
 3741.00                                 [l_ini (A)]
 7218.00                                 [l_fin (A)]
    1.00                                 [dl    (A)]     (OBS: dl_cushion =    50.00 A)

## Normalization info
 4020.00                                 [l_norm (A) - for base]
 4010.00                                 [llow_norm (A) - window for f_obs]
 4060.00                                 [lupp_norm (A) - window for f_obs]
1.388403E-18                             [fobs_norm (in input units)]

## S/N
 3691.00                                 [llow_SN (A) - window for S/N]
 7268.00                                 [lupp_SN (A) - window for S/N]
   2.714                                 [S/N in S/N window]
   0.374                                 [S/N in norm. window]
   0.013                                 [S/N_err in S/N window]
   0.002                                 [S/N_err in norm. window]
  1.0000                                 [fscale_chi2]

## etc...
    -2007212                             [idum_orig]
  2196                                   [NOl_eff]
  2168                                   [Nl_eff]
    28    NSIGMA                         [Ntot_cliped & clip_method]
  5279820                                [Nglobal_steps]
   7                                     [N_chains]
   7                                     [NEX0s_base = N_base in EX0s-fits]
 0   0   1       28   2.0   3.242E+02    [Clip-Bug, RC-Crash & Burn-In warning-flags, n_censored_weights, wei_nsig_threshold & wei_limit]
    52     51.380     50.967      0.413  [idt_all, wdt_TotTime, wdt_UsrTime & wdt_SysTime (sec)]

## Synthesis Results - Best model ##

 2.57128E-05                             [chi2/Nl_eff]
    41.80258                             [adev (%)]

   130.00000                             [sum-of-x (%)]
 3.40493E-17                             [Flux_tot (units of input spectrum!)]
 7.45410E-12                             [Mini_tot (???)]
 3.68745E-12                             [Mcor_tot (???)]

 -65.94                                  [v0_min  (km/s)]
   4.43                                  [vd_min  (km/s)]
 2.1870                                  [AV_min  (mag)]
 0.0000                                  [YAV_min (mag)]

# j     x_j(%)      Mini_j(%)     Mcor_j(%)     age_j(yr)     Z_j      (L/M)_j    YAV?  Mstars   component_j        a/Fe...       SSP_chi2r SSP_adev(%)   SSP_AV   SSP_x(%)
  1      0.0000     0.0000E+00    0.0000E+00    1.000000E+06  0.00400  1.094E-02    0   1.0000   age020_m42            0.0000     1.7421E-05    87.1170   4.0000   438.4337
  2      0.0000     0.0000E+00    0.0000E+00    3.160000E+06  0.00400  4.007E-02    0   0.9999   age045_m42            0.0000     1.3098E-05    68.5388   4.0000   352.5674
  3      0.0000     0.0000E+00    0.0000E+00    5.010000E+06  0.00400  2.539E-02    0   0.9488   age055_m42            0.0000     1.4120E-05    75.6088   4.0000   392.4727
  4      0.0000     0.0000E+00    0.0000E+00    6.610000E+06  0.00400  2.620E-02    0   0.9220   age061_m42            0.0000     1.3208E-05    67.0909   4.0000   342.1797
  5      0.0000     0.0000E+00    0.0000E+00    1.000000E+07  0.00400  1.322E-02    0   0.8862   age070_m42            0.0000     1.4538E-05    68.5121   3.7428   344.5385
  6      0.0000     0.0000E+00    0.0000E+00    1.445000E+07  0.00400  7.883E-03    0   0.8571   age078_m42            0.0000     1.4189E-05    69.5411   4.0000   346.5965
  7      0.0000     0.0000E+00    0.0000E+00    2.512000E+07  0.00400  5.251E-03    0   0.8174   age090_m42            0.0000     1.4900E-05    69.0476   3.6053   347.3909
  8      0.0000     0.0000E+00    0.0000E+00    4.000000E+07  0.00400  3.649E-03    0   0.7851   age104_m42            0.0000     1.4892E-05    68.7427   3.3865   348.9715
  9      0.0000     0.0000E+00    0.0000E+00    5.500000E+07  0.00400  3.098E-03    0   0.7629   age110_m42            0.0000     1.4416E-05    67.4054   3.5647   345.5602
 10      0.0000     0.0000E+00    0.0000E+00    1.015200E+08  0.00400  2.228E-03    0   0.7207   age116_m42            0.0000     1.4153E-05    66.5533   3.5994   344.1876
 11      0.0000     0.0000E+00    0.0000E+00    2.861200E+08  0.00400  1.093E-03    0   0.6648   age125_m42            0.0000     1.5212E-05    68.2605   3.0013   357.8655
 12      0.0000     0.0000E+00    0.0000E+00    5.088000E+08  0.00400  6.597E-04    0   0.6365   age130_m42            0.0000     1.4672E-05    66.7372   3.0185   357.1142
 13      0.0000     0.0000E+00    0.0000E+00    1.434000E+09  0.00400  2.132E-04    0   0.5798   age139_m42            0.0000     1.4693E-05    65.9650   2.0842   358.6052
 14      0.0000     0.0000E+00    0.0000E+00    4.250000E+09  0.00400  5.895E-05    0   0.5377   age158_m42            0.0000     1.3677E-05    64.3065   1.6828   340.2275
 15      0.0000     0.0000E+00    0.0000E+00    7.500000E+09  0.00400  3.510E-05    0   0.5212   age171_m42            0.0000     1.3540E-05    63.6111   1.5092   335.9742
 16      0.0000     0.0000E+00    0.0000E+00    1.300000E+10  0.00400  2.005E-05    0   0.5034   age193_m42            0.0000     1.3421E-05    63.0276   1.3547   332.6829
 17      0.0000     0.0000E+00    0.0000E+00    1.800000E+10  0.00400  1.525E-05    0   0.4967   age213_m42            0.0000     1.3453E-05    63.1601   1.3288   331.6920
 18      0.0000     0.0000E+00    0.0000E+00    1.000000E+06  0.00800  1.238E-02    0   1.0000   age020_m52            0.0000     1.7353E-05    87.0004   4.0000   438.7881
 19      0.0000     0.0000E+00    0.0000E+00    3.160000E+06  0.00800  3.074E-02    0   0.9966   age045_m52            0.0000     1.6449E-05    84.3697   4.0000   430.9104
 20      0.0000     0.0000E+00    0.0000E+00    5.010000E+06  0.00800  2.668E-02    0   0.9443   age055_m52            0.0000     1.4618E-05    77.6399   4.0000   401.8512
 21      0.0000     0.0000E+00    0.0000E+00    6.610000E+06  0.00800  2.136E-02    0   0.9177   age061_m52            0.0000     1.4285E-05    68.1933   3.2527   347.5594
 22      0.0000     0.0000E+00    0.0000E+00    1.000000E+07  0.00800  1.215E-02    0   0.8827   age070_m52            0.0000     1.4934E-05    69.5353   3.8995   346.8510
 23      0.0000     0.0000E+00    0.0000E+00    1.445000E+07  0.00800  8.717E-03    0   0.8552   age078_m52            0.0000     1.4310E-05    68.9727   4.0000   346.0854
 24      0.0000     0.0000E+00    0.0000E+00    2.512000E+07  0.00800  5.592E-03    0   0.8162   age090_m52            0.0000     1.5187E-05    69.4198   3.6642   351.9679
 25      0.0000     0.0000E+00    0.0000E+00    4.000000E+07  0.00800  3.896E-03    0   0.7841   age104_m52            0.0000     1.5131E-05    68.9522   3.5875   352.9488
 26      0.0000     0.0000E+00    0.0000E+00    1.015200E+08  0.00800  2.148E-03    0   0.7226   age116_m52            0.0000     1.4575E-05    67.5061   3.5514   348.9120
 27      0.0000     0.0000E+00    0.0000E+00    2.861200E+08  0.00800  9.925E-04    0   0.6683   age125_m52            0.0000     1.4865E-05    66.7145   3.0883   359.2749
 28      0.0000     0.0000E+00    0.0000E+00    9.047900E+08  0.00800  3.141E-04    0   0.6138   age135_m52            0.0000     1.4853E-05    65.6562   2.3341   367.2629
 29      0.0000     0.0000E+00    0.0000E+00    1.434000E+09  0.00800  1.719E-04    0   0.5853   age139_m52            0.0000     1.4712E-05    65.6915   1.7576   359.4133
 30      0.0000     0.0000E+00    0.0000E+00    2.500000E+09  0.00800  7.872E-05    0   0.5600   age150_m52            0.0000     1.3723E-05    63.4107   1.5374   343.8551
 31      0.0000     0.0000E+00    0.0000E+00    4.250000E+09  0.00800  4.336E-05    0   0.5426   age158_m52            0.0000     1.3637E-05    63.2522   1.5261   340.2189
 32      0.0000     0.0000E+00    0.0000E+00    6.250000E+09  0.00800  3.159E-05    0   0.5319   age166_m52            0.0000     1.3470E-05    62.1605   1.3460   337.2059
 33      0.0000     0.0000E+00    0.0000E+00    1.300000E+10  0.00800  1.361E-05    0   0.5073   age193_m52            0.0000     1.3365E-05    60.6578   0.9135   330.0853
 34      0.0000     0.0000E+00    0.0000E+00    1.800000E+10  0.00800  9.886E-06    0   0.4990   age213_m52            0.0000     1.3169E-05    59.5233   0.8313   325.1024
 35      0.0000     0.0000E+00    0.0000E+00    1.000000E+06  0.02000  1.544E-02    0   1.0000   age020_m62            0.0000     1.7261E-05    86.8595   4.0000   439.2981
 36      0.0000     0.0000E+00    0.0000E+00    3.160000E+06  0.02000  3.762E-02    0   0.9858   age045_m62            0.0000     1.6487E-05    84.5728   4.0000   433.7945
 37      0.0000     0.0000E+00    0.0000E+00    5.010000E+06  0.02000  3.296E-02    0   0.9342   age055_m62            0.0000     1.3913E-05    74.2824   4.0000   390.9691
 38      0.0000     0.0000E+00    0.0000E+00    8.710000E+06  0.02000  1.154E-02    0   0.8861   age067_m62            0.0000     1.8214E-05    75.5311   3.2491   369.9586
 39      0.0000     0.0000E+00    0.0000E+00    1.445000E+07  0.02000  7.663E-03    0   0.8472   age078_m62            0.0000     1.6137E-05    71.7104   3.5108   359.1018
 40      0.0000     0.0000E+00    0.0000E+00    2.512000E+07  0.02000  4.532E-03    0   0.8099   age090_m62            0.0000     1.6492E-05    72.0814   3.4952   358.9067
 41      0.0000     0.0000E+00    0.0000E+00    5.500000E+07  0.02000  2.733E-03    0   0.7595   age110_m62            0.0000     1.5026E-05    68.8292   3.5683   350.7706
 42      0.0000     0.0000E+00    0.0000E+00    1.609000E+08  0.02000  1.369E-03    0   0.6985   age120_m62            0.0000     1.4721E-05    67.0563   3.4427   354.8943
 43      0.0000     0.0000E+00    0.0000E+00    2.861200E+08  0.02000  9.013E-04    0   0.6714   age125_m62            0.0000     1.4716E-05    66.1809   3.2129   361.8668
 44      0.0000     0.0000E+00    0.0000E+00    5.088000E+08  0.02000  5.028E-04    0   0.6449   age130_m62            0.0000     1.4303E-05    64.6390   2.8795   364.9832
 45      0.0000     0.0000E+00    0.0000E+00    9.047900E+08  0.02000  2.428E-04    0   0.6179   age135_m62            0.0000     1.4177E-05    64.3967   2.3149   359.6248
 46      0.0000     0.0000E+00    0.0000E+00    1.434000E+09  0.02000  1.263E-04    0   0.5908   age139_m62            0.0000     1.3987E-05    63.9288   1.8846   352.5128
 47      0.0000     0.0000E+00    0.0000E+00    2.500000E+09  0.02000  5.985E-05    0   0.5673   age150_m62            0.0000     1.3494E-05    62.2789   1.5521   343.4144
 48      0.0000     0.0000E+00    0.0000E+00    4.250000E+09  0.02000  3.271E-05    0   0.5468   age158_m62            0.0000     1.3203E-05    60.3099   1.2876   334.9707
 49      0.0000     0.0000E+00    0.0000E+00    1.000000E+10  0.02000  1.360E-05    0   0.5167   age181_m62            0.0000     1.3161E-05    58.6574   0.9801   327.9579
 50      0.0000     0.0000E+00    0.0000E+00    1.800000E+10  0.02000  7.124E-06    0   0.5013   age213_m62            0.0000     1.3047E-05    57.3889   0.8029   321.0134
 51      0.0000     0.0000E+00    0.0000E+00    1.000000E+06  0.05000  2.592E-02    0   0.9998   age020_m72            0.0000     1.7079E-05    86.7168   4.0000   438.3808
 52      0.0000     0.0000E+00    0.0000E+00    3.160000E+06  0.05000  4.845E-02    0   0.9577   age045_m72            0.0000     1.5453E-05    80.8499   4.0000   420.8264
 53      0.0000     0.0000E+00    0.0000E+00    5.010000E+06  0.05000  3.072E-02    0   0.9147   age055_m72            0.0000     1.4978E-05    72.2631   4.0000   360.9406
 54      0.0000     0.0000E+00    0.0000E+00    6.610000E+06  0.05000  1.455E-02    0   0.8877   age061_m72            0.0000     2.1379E-05    80.2311   3.2047   384.5176
 55      0.0000     0.0000E+00    0.0000E+00    1.000000E+07  0.05000  9.074E-03    0   0.8524   age070_m72            0.0000     1.6292E-05    76.8866   4.0000   386.5159
 56      0.0000     0.0000E+00    0.0000E+00    2.512000E+07  0.05000  4.250E-03    0   0.7902   age090_m72            0.0000     1.5738E-05    70.5137   3.9845   349.6856
 57      0.0000     0.0000E+00    0.0000E+00    4.000000E+07  0.05000  3.087E-03    0   0.7618   age104_m72            0.0000     1.6230E-05    71.0700   3.7547   355.5388
 58      0.0000     0.0000E+00    0.0000E+00    1.015200E+08  0.05000  1.700E-03    0   0.7096   age116_m72            0.0000     1.5198E-05    68.2223   3.5624   356.4363
 59      0.0000     0.0000E+00    0.0000E+00    2.861200E+08  0.05000  7.384E-04    0   0.6633   age125_m72            0.0000     1.4577E-05    65.4452   3.1036   363.4972
 60      0.0000     0.0000E+00    0.0000E+00    5.088000E+08  0.05000  3.819E-04    0   0.6372   age130_m72            0.0000     1.4114E-05    64.0978   2.6570   362.8754
 61      0.0000     0.0000E+00    0.0000E+00    9.047900E+08  0.05000  1.676E-04    0   0.6110   age135_m72            0.0000     1.3443E-05    62.2989   2.0162   349.1124
 62      0.0000     0.0000E+00    0.0000E+00    1.434000E+09  0.05000  8.837E-05    0   0.5874   age139_m72            0.0000     1.3729E-05    62.3378   1.5580   347.2020
 63      0.0000     0.0000E+00    0.0000E+00    2.500000E+09  0.05000  4.233E-05    0   0.5598   age150_m72            0.0000     1.3197E-05    59.8700   1.2994   336.1130
 64      0.0000     0.0000E+00    0.0000E+00    6.250000E+09  0.05000  1.435E-05    0   0.5249   age166_m72            0.0000     1.3144E-05    58.2540   0.8943   325.1705
 65      3.8134     2.0573E+00    2.0944E+00    1.300000E+10  0.05000  6.513E-06    0   0.5036   age193_m72            0.0000     1.3077E-05    56.6636   0.6526   322.9564
 66    126.1866     9.7943E+01    9.7906E+01    1.800000E+10  0.05000  4.527E-06    0   0.4945   age213_m72            0.0000     1.3068E-05    55.8297   0.5154   319.0638


## Synthesis Results - Average & Chains ##

# j      x_j: min, <> & last-chain-values for 1 ...  7 chains
  1      0.0000      1.1618      0.0210      0.0340      0.0000      0.0000      0.0000      0.0013      0.1093
  2      0.0000      1.0623      0.0000      0.0000      0.1234      0.1065      0.0536      0.0792      0.1554
  3      0.0000      1.0874      0.0311      0.0465      0.1474      0.0038      0.0000      0.0000      0.0142
  4      0.0000      0.8096      0.1525      0.0756      0.0000      0.0155      0.0000      0.0784      0.1294
  5      0.0000      0.7838      0.0294      0.5954      0.1890      0.0000      0.0000      0.0421      0.0024
  6      0.0000      1.0329      0.1130      0.0188      0.2879      0.0671      0.0625      0.0770      0.0083
  7      0.0000      0.9865      0.1338      0.0000      0.2668      0.0000      0.0857      0.0000      0.2185
  8      0.0000      0.9681      0.0000      0.3625      0.1075      0.0283      0.0000      0.0000      0.0889
  9      0.0000      0.8195      0.0104      0.2209      0.0000      0.0111      0.0000      0.0000      0.0446
 10      0.0000      0.7244      0.0000      0.2317      0.0631      0.0000      0.0160      0.0000      0.0315
 11      0.0000      0.8778      0.0281      0.0820      0.2467      0.0434      0.0175      0.0240      0.0411
 12      0.0000      0.8591      0.0000      0.8430      0.0000      0.0328      0.0000      0.0000      0.0000
 13      0.0000      1.0235      0.0283      0.1639      0.1414      0.0251      0.0735      0.2030      0.1298
 14      0.0000      0.8786      0.0000      0.1045      0.9139      0.0230      0.1714      0.0000      0.1104
 15      0.0000      0.9384      0.0162      0.2105      0.0287      0.0224      0.1213      0.0000      0.0684
 16      0.0000      1.2216      0.0000      0.0504      0.0000      0.0106      0.0000      0.0384      0.0000
 17      0.0000      0.8182      0.0000      0.0000      0.1662      0.0381      0.2104      0.0000      0.1837
 18      0.0000      0.7850      0.1044      0.0113      0.1818      0.0106      0.0000      0.1025      0.0000
 19      0.0000      0.8678      0.0000      0.0000      0.1199      0.0316      0.0000      0.1485      0.0000
 20      0.0000      1.0171      0.0000      0.0196      0.0000      0.0000      0.0000      0.0000      0.0763
 21      0.0000      0.9255      0.0000      0.0378      0.0000      0.0065      0.0000      0.0000      0.0000
 22      0.0000      0.8495      0.0070      0.0784      0.4612      0.0000      0.0897      0.0644      0.0064
 23      0.0000      0.9317      0.0520      0.0721      0.2077      0.0000      0.0623      0.0562      0.3099
 24      0.0000      1.2274      0.0000      0.2953      0.0602      0.0440      0.0534      0.1024      0.1520
 25      0.0000      1.4657      0.0261      0.0188      0.0765      0.0114      0.0000      0.1445      0.0000
 26      0.0000      1.2322      0.0198      0.0000      0.4916      0.0000      0.1834      0.3093      0.0529
 27      0.0000      0.8588      0.0000      0.0000      0.1323      0.0349      0.0346      0.0000      0.1771
 28      0.0000      0.9830      0.0062      0.1891      0.0988      0.0000      0.1131      0.0000      0.0000
 29      0.0000      1.2161      0.0054      0.5706      0.0502      0.0055      0.0733      0.0892      0.0000
 30      0.0000      0.6284      0.1033      0.0870      0.0406      0.0000      0.0659      0.0923      0.0000
 31      0.0000      1.1373      0.0650      0.0621      0.1681      0.0050      0.0000      0.0000      0.2244
 32      0.0000      0.7713      0.1828      0.6615      0.0000      0.0000      0.0012      0.0000      0.0000
 33      0.0000      0.9238      0.0000      0.3336      0.3835      0.0185      0.1855      0.0124      0.0000
 34      0.0000      0.8777      0.0234      0.0237      0.2216      0.0000      0.0000      0.0152      0.0945
 35      0.0000      0.8925      0.0000      0.0000      0.5238      0.0000      0.0649      0.0000      0.1966
 36      0.0000      0.9582      0.0578      0.2451      0.3036      0.0976      0.0079      0.0791      0.0000
 37      0.0000      0.7778      0.1225      0.0000      0.0392      0.0000      0.0000      0.0000      0.2561
 38      0.0000      0.7763      0.0986      0.0556      0.4028      0.0023      0.0081      0.1345      0.0779
 39      0.0000      1.1073      0.0000      0.0000      0.0000      0.1002      0.0229      0.0296      0.0000
 40      0.0000      0.9331      0.0000      0.1942      0.0488      0.0494      0.0000      0.0724      0.0000
 41      0.0000      1.1863      0.1254      0.6879      0.0000      0.0041      0.0000      0.2064      0.0000
 42      0.0000      1.1346      0.0178      0.0881      0.2166      0.0305      0.1322      0.0000      0.0000
 43      0.0000      1.2843      0.0257      0.0845      0.3464      0.0000      0.0380      0.2658      0.0011
 44      0.0000      0.8723      0.0156      0.2806      0.0000      0.0000      0.1228      0.0309      0.0399
 45      0.0000      1.0545      0.0875      0.0982      0.1117      0.0235      0.0678      0.0261      0.0000
 46      0.0000      1.0554      0.0000      0.0910      0.0721      0.0000      0.2417      0.1007      0.1210
 47      0.0000      1.3392      0.0241      0.1666      0.0000      0.0704      0.0383      0.1529      0.0352
 48      0.0000      1.0728      0.0000      0.2238      0.2760      0.0000      0.0544      0.1107      0.0101
 49      0.0000      0.8579      0.0640      0.0000      0.0598      0.0000      0.0000      0.0000      0.1506
 50      0.0000      0.7888      0.0379      0.1174      0.4403      0.0342      0.1548      0.0436      0.0535
 51      0.0000      1.0518      0.0484      0.0281      0.1384      0.0000      0.0000      0.0273      0.0658
 52      0.0000      0.5947      0.0128      0.0000      0.1557      0.0530      0.1696      0.0110      0.0000
 53      0.0000      0.7295      0.0345      0.0000      0.2238      0.0000      0.0000      0.0038      0.1272
 54      0.0000      0.6791      0.1153      0.0000      0.1035      0.0789      0.0000      0.0489      0.0000
 55      0.0000      1.1102      0.1387      0.0383      0.1818      0.0025      0.0000      0.0000      0.0238
 56      0.0000      0.9078      0.0414      0.2573      0.0331      0.0000      0.0925      0.1068      0.2216
 57      0.0000      0.7989      0.0222      0.0000      0.4588      0.0000      0.0276      0.1108      0.1511
 58      0.0000      0.7759      0.0251      0.1013      0.2130      0.0000      0.0705      0.0262      0.0000
 59      0.0000      0.7912      0.0000      0.0872      0.0033      0.0059      0.0576      0.0000      0.0656
 60      0.0000      1.2508      0.0000      0.0000      0.2589      0.0133      0.0069      0.0000      0.0000
 61      0.0000      0.9880      0.0823      0.2137      0.3201      0.0538      0.2161      0.0372      0.0260
 62      0.0000      0.9022      0.2047      0.0000      0.1097      0.0000      0.2696      0.1281      0.1645
 63      0.0000      1.2540      0.2677      0.0061      0.1245      0.0623      0.1395      0.0028      0.0000
 64      0.0000      0.8879      0.0173      0.0000      0.0226      0.1323      0.1720      0.1644      0.0000
 65      3.8134      4.4974     16.3517      3.9279      3.5558      2.5458      3.6199      3.5605      3.9167
 66    126.1866     63.2426    110.8018    117.3775    115.6830    126.0356    122.5293    122.7743    121.8413

# j      m_j: min, <> & last-chain-values for 1 ...  7 chains
  1  0.0000E+00  1.3880E-03  1.4362E-05  2.3619E-05  0.0000E+00  0.0000E+00  0.0000E+00  8.8457E-07  7.3265E-05
  2  0.0000E+00  3.4648E-04  0.0000E+00  0.0000E+00  2.3695E-05  1.9019E-05  9.7641E-06  1.4423E-05  2.8430E-05
  3  0.0000E+00  5.3110E-04  8.6895E-06  1.3189E-05  4.2388E-05  1.0087E-06  0.0000E+00  0.0000E+00  3.9015E-06
  4  0.0000E+00  3.7239E-04  4.0096E-05  2.0193E-05  0.0000E+00  3.9101E-06  0.0000E+00  2.0144E-05  3.3381E-05
  5  0.0000E+00  6.8669E-04  1.4720E-05  3.0291E-04  9.7487E-05  0.0000E+00  0.0000E+00  2.0573E-05  1.1896E-06
  6  0.0000E+00  1.4678E-03  9.1765E-05  1.5484E-05  2.4077E-04  5.2183E-05  4.9571E-05  6.1050E-05  6.5799E-06
  7  0.0000E+00  2.0071E-03  1.5557E-04  0.0000E+00  3.1948E-04  0.0000E+00  9.7343E-05  0.0000E+00  2.4933E-04
  8  0.0000E+00  2.7225E-03  0.0000E+00  5.9195E-04  1.7787E-04  4.3608E-05  0.0000E+00  0.0000E+00  1.4019E-04
  9  0.0000E+00  2.6377E-03  1.9178E-05  4.1276E-04  0.0000E+00  1.9589E-05  0.0000E+00  0.0000E+00  8.0460E-05
 10  0.0000E+00  3.0627E-03  0.0000E+00  5.6876E-04  1.5714E-04  0.0000E+00  3.7864E-05  0.0000E+00  7.4723E-05
 11  0.0000E+00  6.9785E-03  1.2765E-04  3.7846E-04  1.1545E-03  1.8907E-04  7.7606E-05  1.0646E-04  1.8310E-04
 12  0.0000E+00  1.0833E-02  0.0000E+00  6.1724E-03  0.0000E+00  2.2669E-04  0.0000E+00  0.0000E+00  0.0000E+00
 13  0.0000E+00  3.6379E-02  5.7466E-04  3.3817E-03  2.9574E-03  4.8757E-04  1.4584E-03  4.0277E-03  2.5872E-03
 14  0.0000E+00  1.0475E-01  0.0000E+00  7.2326E-03  6.4127E-02  1.5000E-03  1.1406E-02  0.0000E+00  7.3797E-03
 15  0.0000E+00  1.8212E-01  1.7978E-03  2.3719E-02  3.2743E-03  2.3830E-03  1.3140E-02  0.0000E+00  7.4490E-03
 16  0.0000E+00  4.0088E-01  0.0000E+00  9.5995E-03  0.0000E+00  1.9025E-03  0.0000E+00  7.0287E-03  0.0000E+00
 17  0.0000E+00  3.4832E-01  0.0000E+00  0.0000E+00  4.1634E-02  8.8675E-03  4.9993E-02  0.0000E+00  4.3865E-02
 18  0.0000E+00  8.2877E-04  6.3017E-05  6.9440E-06  1.1297E-04  6.1002E-06  0.0000E+00  6.0426E-05  0.0000E+00
 19  0.0000E+00  3.6773E-04  0.0000E+00  0.0000E+00  2.9915E-05  7.3316E-06  0.0000E+00  3.5137E-05  0.0000E+00
 20  0.0000E+00  4.7051E-04  0.0000E+00  5.2568E-06  0.0000E+00  0.0000E+00  0.0000E+00  0.0000E+00  1.9809E-05
 21  0.0000E+00  5.1972E-04  0.0000E+00  1.2318E-05  0.0000E+00  1.9935E-06  0.0000E+00  0.0000E+00  0.0000E+00
 22  0.0000E+00  8.0666E-04  3.7874E-06  4.3213E-05  2.5777E-04  0.0000E+00  4.7557E-05  3.4133E-05  3.3990E-06
 23  0.0000E+00  1.1947E-03  3.8098E-05  5.3674E-05  1.5677E-04  0.0000E+00  4.4602E-05  4.0267E-05  2.2290E-04
 24  0.0000E+00  2.3415E-03  0.0000E+00  3.2711E-04  6.7549E-05  4.5911E-05  5.6834E-05  1.0906E-04  1.6264E-04
 25  0.0000E+00  3.8555E-03  3.9187E-05  2.8762E-05  1.1841E-04  1.6366E-05  0.0000E+00  2.1215E-04  0.0000E+00
 26  0.0000E+00  5.4179E-03  4.9881E-05  0.0000E+00  1.2724E-03  0.0000E+00  4.5012E-04  7.5913E-04  1.3057E-04
 27  0.0000E+00  7.5585E-03  0.0000E+00  0.0000E+00  6.8549E-04  1.6808E-04  1.6982E-04  0.0000E+00  8.7422E-04
 28  0.0000E+00  2.5106E-02  9.0306E-05  2.8051E-03  1.4853E-03  0.0000E+00  1.6125E-03  0.0000E+00  0.0000E+00
 29  0.0000E+00  5.4119E-02  1.3662E-04  1.4744E-02  1.3146E-03  1.3455E-04  1.8212E-03  2.2153E-03  0.0000E+00
 30  0.0000E+00  5.8428E-02  5.4895E-03  4.6963E-03  2.2199E-03  0.0000E+00  3.4210E-03  4.7889E-03  0.0000E+00
 31  0.0000E+00  1.8602E-01  6.0746E-03  5.9004E-03  1.6186E-02  4.4733E-04  0.0000E+00  0.0000E+00  2.0586E-02
 32  0.0000E+00  1.6974E-01  2.2991E-02  8.4526E-02  0.0000E+00  0.0000E+00  1.4828E-04  0.0000E+00  0.0000E+00
 33  0.0000E+00  4.5008E-01  0.0000E+00  9.4354E-02  1.0998E-01  4.9238E-03  5.0450E-02  3.3591E-03  0.0000E+00
 34  0.0000E+00  5.7901E-01  8.8086E-03  9.0927E-03  8.6054E-02  0.0000E+00  0.0000E+00  5.6089E-03  3.4974E-02
 35  0.0000E+00  7.5549E-04  0.0000E+00  0.0000E+00  2.6096E-04  0.0000E+00  3.0672E-05  0.0000E+00  9.3330E-05
 36  0.0000E+00  3.2818E-04  1.1321E-05  4.8746E-05  6.1199E-05  1.8308E-05  1.5111E-06  1.5129E-05  0.0000E+00
 37  0.0000E+00  2.8815E-04  2.5939E-05  0.0000E+00  8.5407E-06  0.0000E+00  0.0000E+00  0.0000E+00  5.3221E-05
 38  0.0000E+00  7.7909E-04  5.6586E-05  3.2421E-05  2.3796E-04  1.2414E-06  4.5566E-06  7.5361E-05  4.3867E-05
 39  0.0000E+00  1.6000E-03  0.0000E+00  0.0000E+00  0.0000E+00  7.9259E-05  1.8486E-05  2.3850E-05  0.0000E+00
 40  0.0000E+00  2.1794E-03  0.0000E+00  2.6338E-04  6.7039E-05  6.3177E-05  0.0000E+00  9.4383E-05  0.0000E+00
 41  0.0000E+00  4.3088E-03  2.6034E-04  1.4508E-03  0.0000E+00  8.2208E-06  0.0000E+00  4.1852E-04  0.0000E+00
 42  0.0000E+00  7.5663E-03  6.7971E-05  3.4124E-04  8.5021E-04  1.1135E-04  4.9191E-04  0.0000E+00  0.0000E+00
 43  0.0000E+00  1.2504E-02  1.4316E-04  4.7779E-04  1.9853E-03  0.0000E+00  2.0673E-04  1.4449E-03  5.9254E-06
 44  0.0000E+00  1.4623E-02  1.4985E-04  2.7313E-03  0.0000E+00  0.0000E+00  1.1489E-03  2.8873E-04  3.7530E-04
 45  0.0000E+00  3.5076E-02  1.6645E-03  1.8975E-03  2.1875E-03  4.2846E-04  1.2594E-03  4.8427E-04  0.0000E+00
 46  0.0000E+00  6.4526E-02  0.0000E+00  3.2294E-03  2.5947E-03  0.0000E+00  8.2471E-03  3.4369E-03  4.1512E-03
 47  0.0000E+00  1.6592E-01  1.7085E-03  1.1982E-02  0.0000E+00  4.7767E-03  2.6503E-03  1.0577E-02  2.4475E-03
 48  0.0000E+00  2.3439E-01  0.0000E+00  2.8387E-02  3.5489E-02  0.0000E+00  6.6335E-03  1.3499E-02  1.2407E-03
 49  0.0000E+00  4.2603E-01  1.8177E-02  0.0000E+00  1.7475E-02  0.0000E+00  0.0000E+00  0.0000E+00  4.1947E-02
 50  0.0000E+00  7.2550E-01  1.9911E-02  6.2709E-02  2.3833E-01  1.7237E-02  7.9462E-02  2.2372E-02  2.7592E-02
 51  0.0000E+00  5.3026E-04  1.3944E-05  8.2351E-06  4.1076E-05  0.0000E+00  0.0000E+00  7.6911E-06  1.8607E-05
 52  0.0000E+00  1.5363E-04  1.8940E-06  0.0000E+00  2.3676E-05  7.4974E-06  2.4456E-05  1.5922E-06  0.0000E+00
 53  0.0000E+00  2.8390E-04  7.6813E-06  0.0000E+00  5.1272E-05  0.0000E+00  0.0000E+00  8.3546E-07  2.7762E-05
 54  0.0000E+00  5.4157E-04  5.2564E-05  0.0000E+00  4.8567E-05  3.4457E-05  0.0000E+00  2.1782E-05  0.0000E+00
 55  0.0000E+00  1.3631E-03  9.7334E-05  2.7287E-05  1.3139E-04  1.6969E-06  0.0000E+00  0.0000E+00  1.6415E-05
 56  0.0000E+00  2.2061E-03  5.7483E-05  3.6303E-04  4.7328E-05  0.0000E+00  1.2553E-04  1.4486E-04  3.0204E-04
 57  0.0000E+00  2.5768E-03  4.0855E-05  0.0000E+00  8.7107E-04  0.0000E+00  4.9704E-05  1.9943E-04  2.7343E-04
 58  0.0000E+00  4.2330E-03  7.8125E-05  3.2075E-04  6.8400E-04  0.0000E+00  2.1477E-04  7.9895E-05  0.0000E+00
 59  0.0000E+00  9.2898E-03  0.0000E+00  5.9428E-04  2.2514E-05  3.7976E-05  3.7759E-04  0.0000E+00  4.3186E-04
 60  0.0000E+00  2.7276E-02  0.0000E+00  0.0000E+00  3.3233E-03  1.5852E-04  8.4364E-05  0.0000E+00  0.0000E+00
 61  0.0000E+00  4.7078E-02  2.2427E-03  5.9134E-03  8.9780E-03  1.4022E-03  5.7476E-03  9.8923E-04  6.9496E-04
 62  0.0000E+00  7.8385E-02  1.0166E-02  0.0000E+00  5.6118E-03  0.0000E+00  1.3076E-02  6.2117E-03  8.0161E-03
 63  0.0000E+00  2.1675E-01  2.6444E-02  6.1117E-04  1.2666E-02  5.8905E-03  1.3460E-02  2.6988E-04  0.0000E+00
 64  0.0000E+00  4.2450E-01  4.7153E-03  0.0000E+00  6.3702E-03  3.4629E-02  4.5910E-02  4.3868E-02  0.0000E+00
 65  2.0944E+00  4.5451E+00  9.4457E+00  2.3049E+00  2.1152E+00  1.4084E+00  2.0420E+00  2.0089E+00  2.2203E+00
 66  9.7906E+01  9.0292E+01  9.0422E+01  9.7305E+01  9.7212E+01  9.8505E+01  9.7644E+01  9.7858E+01  9.7573E+01

# AV, chi2 & Mass for <> & i_chain = 1 ...  7 solutions
AV       2.1870      2.2128      2.2281      2.2705      2.2909      2.1981      2.2187      2.2234      2.2288
chi2 2.5713E-05  4.4310E-05  2.5908E-05  2.6214E-05  2.6365E-05  2.5789E-05  2.5887E-05  2.5939E-05  2.5970E-05
Mass 3.6874E-12  2.0746E-12  3.7051E-12  3.8609E-12  3.9148E-12  3.7158E-12  3.7467E-12  3.7696E-12  3.7790E-12
 -65.94                                  [v0_min (km/s) before EX0s...]
   4.43                                  [vd_min (km/s) before EX0s...]


## Synthetic spectrum (Best Model) ##l_obs f_obs f_syn wei
 3478    [Nl_obs]
 3741.00   -6.36871   0.43753    0.000
 3742.00   -3.24797   0.36022    0.000
 3743.00    0.37116   0.29878    0.000
 3744.00    1.27704   0.26239    0.000
 3745.00    0.60207   0.24492    0.004
 3746.00    1.76190   0.24300    0.004
 3747.00    3.85346   0.22487    0.004
 3748.00    2.32252   0.20663    0.004
 3749.00   -0.80133   0.24922    0.000
 3750.00   -3.40737   0.34463    0.000
 3751.00   -5.81791   0.42437    0.000
 3752.00   -5.32082   0.47778    0.000
 3753.00   -3.89186   0.54101    0.000
 3754.00   -3.93073   0.58845    0.000
 3755.00   -4.36296   0.55344    0.000
 3756.00   -3.36244   0.43159    0.000
 3757.00   -2.04744   0.31604    0.000
 3758.00   -0.09348   0.29722    0.000
 3759.00    1.97203   0.35483    0.004
 3760.00    2.34453   0.41098    0.004
 3761.00    2.49214   0.41663    0.004
 3762.00   -1.13308   0.37875    0.000
 3763.00   -5.11284   0.35966    0.000
 3764.00   -4.56306   0.38393    0.000
 3765.00   -3.75198   0.38414    0.000
 3766.00   -3.49775   0.36593    0.000
 3767.00   -3.23193   0.41672    0.000
 3768.00    0.04051   0.51354    0.004
 3769.00    3.10266   0.56782    0.004
 3770.00    1.05683   0.58983    0.003
 3771.00   -0.91359   0.61970    0.000
 3772.00   -1.89596   0.63565    0.000
 3773.00   -2.68497   0.61162    0.000
 3774.00   -1.77654   0.57430    0.000
 3775.00   -0.75327   0.56589    0.000
 3776.00    1.01468   0.57556    0.003
 3777.00    2.20918   0.57960    0.003
 3778.00    0.50125   0.60179    0.003
 3779.00   -1.21709   0.63928    0.000
 3780.00   -2.97806   0.65033    0.000
 3781.00   -4.47670   0.64286    0.000
 3782.00   -5.08554   0.64996    0.000
 3783.00   -5.07799   0.66161    0.000
 3784.00   -3.30749   0.61584    0.000
 3785.00   -2.57735   0.50483    0.000
 3786.00   -4.38903   0.41586    0.000
 3787.00   -5.84624   0.37920    0.000
 3788.00   -6.55637   0.36750    0.000
 3789.00   -6.17051   0.38785    0.000
 3790.00   -3.77713   0.44580    0.000
 3791.00   -2.94978   0.47706    0.000
 3792.00   -4.62923   0.44603    0.000
 3793.00   -5.69735   0.39534    0.000
 3794.00   -5.90676   0.37385    0.000
 3795.00   -5.38904   0.39196    0.000
 3796.00   -3.97258   0.39489    0.000
 3797.00   -3.14160   0.35568    0.000
 3798.00   -2.94850   0.33929    0.000
 3799.00   -2.93793   0.38863    0.000
 3800.00   -3.10279   0.46115    0.000
 3801.00   -2.93346   0.51323    0.000
 3802.00   -2.48096   0.55142    0.000
 3803.00   -2.01569   0.57285    0.000
 3804.00   -1.54088   0.55923    0.000
 3805.00   -1.24541   0.50430    0.000
 3806.00   -1.06748   0.44856    0.000
 3807.00   -1.15929   0.45446    0.000
 3808.00   -1.40586   0.50596    0.000
 3809.00   -4.30959   0.54520    0.000
 3810.00   -8.54139   0.54866    0.000
 3811.00   -8.64668   0.51069    0.000
 3812.00   -6.96749   0.44068    0.000
 3813.00   -4.18894   0.37667    0.000
 3814.00   -1.00267   0.33161    0.000
 3815.00   -0.14757   0.31267    0.000
 3816.00   -0.02528   0.33397    0.000
 3817.00    0.65015   0.35290    0.003
 3818.00    1.47068   0.31633    0.003
 3819.00    0.10319   0.25789    0.003
 3820.00   -1.73309   0.24785    0.000
 3821.00   -1.52382   0.28957    0.000
 3822.00   -0.96741   0.31294    0.000
 3823.00   -0.73516   0.28081    0.000
 3824.00   -0.54452   0.23707    0.000
 3825.00   -0.31123   0.22435    0.000
 3826.00   -0.07411   0.23928    0.000
 3827.00    0.22651   0.26160    0.003
 3828.00    0.53054   0.28460    0.003
 3829.00   -1.31988   0.30555    0.000
 3830.00   -3.16367   0.30622    0.000
 3831.00   -0.80490   0.27633    0.000
 3832.00    1.41709   0.24764    0.003
 3833.00    0.60023   0.25264    0.003
 3834.00   -0.10806   0.29530    0.000
 3835.00    0.53354   0.33629    0.003
 3836.00    1.00956   0.32849    0.003
 3837.00    0.08610   0.28732    0.003
 3838.00   -0.72132   0.25622    0.000
 3839.00   -0.79867   0.24655    0.000
 3840.00   -0.77914   0.26985    0.000
 3841.00   -0.28154   0.33837    0.000
 3842.00    0.04001   0.40297    0.004
 3843.00   -0.34318   0.42821    0.000
 3844.00   -0.43084   0.42454    0.000
 3845.00    0.46402   0.41669    0.004
 3846.00    1.84196   0.42222    0.004
 3847.00    4.57644   0.41923    0.000
 3848.00    5.25977   0.38040    0.000
 3849.00    1.01657   0.34323    0.000
 3850.00   -3.08213   0.36190    0.000
 3851.00   -6.88114   0.40345    0.000
 3852.00   -8.61665   0.40423    0.000
 3853.00   -6.63035   0.37872    0.000
 3854.00   -3.32698   0.35485    0.000
 3855.00    2.05349   0.33054    0.000
 3856.00    5.24420   0.31677    0.000
 3857.00    5.40347   0.29871    0.000
 3858.00    3.93743   0.26257    0.000
 3859.00    0.49097   0.24539    0.000
 3860.00    0.40632   0.28498    0.000
 3861.00    3.93282   0.36453    0.000
 3862.00    5.69967   0.42170    0.000
 3863.00    5.79924   0.42185    0.000
 3864.00    3.95732   0.39603    0.000
 3865.00    0.49349   0.38462    0.000
 3866.00   -0.38721   0.38886    0.000
 3867.00    0.63200   0.38529    0.000
 3868.00    0.77997   0.36767    0.000
 3869.00    0.36518   0.33798    0.000
 3870.00    0.13974   0.31090    0.000
 3871.00    0.02131   0.30432    0.000
 3872.00   -1.14249   0.34012    0.000
 3873.00   -2.82051   0.41657    0.000
 3874.00   -2.65860   0.47873    0.000
 3875.00   -1.71430   0.47304    0.000
 3876.00   -1.82091   0.40954    0.000
 3877.00   -2.31033   0.34392    0.000
 3878.00   -2.11976   0.34115    0.000
 3879.00   -1.71957   0.38003    0.000
 3880.00   -2.34358   0.37797    0.000
 3881.00   -3.23052   0.36150    0.000
 3882.00   -1.51323   0.41901    0.000
 3883.00    0.74852   0.50182    0.003
 3884.00    2.47190   0.47605    0.003
 3885.00    4.10650   0.37762    0.003
 3886.00    0.99619   0.35245    0.003
 3887.00   -2.70173   0.40582    0.000
 3888.00   -0.23431   0.47481    0.000
 3889.00    2.76075   0.55229    0.003
 3890.00    0.40785   0.63709    0.003
 3891.00   -2.21158   0.69862    0.000
 3892.00   -1.00642   0.70392    0.000
 3893.00    0.09204   0.65543    0.003
 3894.00   -9.74660   0.59158    0.000
 3895.00  -18.82441   0.58009    0.000
 3896.00  -12.33915   0.61586    0.000
 3897.00   -6.55989   0.60911    0.000
 3898.00   -9.12977   0.55931    0.000
 3899.00  -11.26924   0.55141    0.000
 3900.00   -9.90228   0.60516    0.000
 3901.00   -8.12967   0.62176    0.000
 3902.00   -3.87943   0.58588    0.000
 3903.00    0.32469   0.57011    0.003
 3904.00    4.30683   0.54327    0.003
 3905.00    7.08980   0.51433    0.003
 3906.00    5.17663   0.56171    0.003
 3907.00    3.39875   0.65639    0.003
 3908.00    2.06189   0.72184    0.003
 3909.00    1.24784   0.73906    0.003
 3910.00    1.87545   0.74819    0.003
 3911.00    1.85853   0.77145    0.003
 3912.00    0.31962   0.78131    0.003
 3913.00   -1.03438   0.77296    0.000
 3914.00   -2.01098   0.75939    0.000
 3915.00   -3.70918   0.72210    0.000
 3916.00   -6.68907   0.68327    0.000
 3917.00   -7.63965   0.65726    0.000
 3918.00   -5.43710   0.60151    0.000
 3919.00   -1.99003   0.51857    0.000
 3920.00    3.15512   0.46479    0.003
 3921.00    4.73012   0.46483    0.003
 3922.00    2.01658   0.49600    0.003
 3923.00    1.03405   0.53826    0.003
 3924.00    1.88481   0.55014    0.003
 3925.00    2.67967   0.51309    0.003
 3926.00    3.42231   0.45064    0.004
 3927.00    3.23512   0.38062    0.004
 3928.00    2.28215   0.32280    0.003
 3929.00    3.73880   0.27986    0.003
 3930.00    6.94226   0.24639    0.004
 3931.00    5.43553   0.22773    0.004
 3932.00    0.93120   0.22517    0.003
 3933.00   -0.22650   0.22415    0.000
 3934.00    0.47828   0.22279    0.004
 3935.00    2.15011   0.24853    0.004
 3936.00    4.29008   0.30393    0.004
 3937.00    4.91811   0.37359    0.004
 3938.00    4.91401   0.44308    0.004
 3939.00    1.58355   0.48753    0.003
 3940.00   -2.93676   0.49409    0.000
 3941.00   -4.97197   0.48187    0.000
 3942.00   -6.25604   0.45201    0.000
 3943.00   -4.86758   0.43180    0.000
 3944.00   -2.80789   0.49775    0.000
 3945.00   -3.11763   0.61646    0.000
 3946.00   -3.91054   0.66583    0.000
 3947.00   -3.92261   0.65052    0.000
 3948.00   -3.80965   0.67580    0.000
 3949.00   -0.10272   0.75690    0.000
 3950.00    4.03331   0.80562    0.003
 3951.00    2.65522   0.76784    0.003
 3952.00    0.82810   0.74705    0.003
 3953.00   -2.58455   0.80791    0.000
 3954.00   -6.07007   0.82956    0.000
 3955.00   -5.10627   0.75722    0.000
 3956.00   -4.06839   0.70132    0.000
 3957.00   -2.12249   0.71401    0.000
 3958.00   -0.30316   0.72822    0.000
 3959.00   -0.88152   0.65607    0.000
 3960.00   -1.48323   0.51017    0.000
 3961.00   -2.34806   0.40916    0.000
 3962.00   -2.85243   0.40325    0.000
 3963.00   -0.52352   0.41794    0.000
 3964.00    1.77639   0.38970    0.000
 3965.00    3.90416   0.32464    0.000
 3966.00    5.51639   0.26667    0.000
 3967.00    4.70796   0.24111    0.000
 3968.00    3.33509   0.24469    0.000
 3969.00   -0.20090   0.27437    0.000
 3970.00   -2.70112   0.32512    0.000
 3971.00   -1.89072   0.38346    0.000
 3972.00   -1.31542   0.44233    0.000
 3973.00   -1.37686   0.51456    0.000
 3974.00   -0.79315   0.59988    0.000
 3975.00    1.28861   0.66544    0.000
 3976.00    2.11788   0.71938    0.000
 3977.00    0.43144   0.78969    0.000
 3978.00   -0.85412   0.86785    0.000
 3979.00   -1.43848   0.92681    0.000
 3980.00   -2.09403   0.92715    0.000
 3981.00   -2.85858   0.89064    0.000
 3982.00   -1.30192   0.87463    0.000
 3983.00    3.37642   0.89061    0.004
 3984.00    4.74168   0.93490    0.004
 3985.00    2.18347   0.97224    0.004
 3986.00   -0.39765   1.00605    0.000
 3987.00   -3.00271   1.05829    0.000
 3988.00   -2.10918   1.04506    0.000
 3989.00    2.00673   0.98753    0.004
 3990.00    2.97820   0.99729    0.003
 3991.00    1.39671   1.05160    0.003
 3992.00    2.29601   1.08773    0.003
 3993.00    4.96779   1.07649    0.003
 3994.00    3.81001   1.04111    0.003
 3995.00    0.25112   0.99668    0.003
 3996.00   -0.78430   0.95100    0.000
 3997.00   -0.43682   0.95527    0.000
 3998.00   -1.83728   1.05830    0.000
 3999.00   -4.07036   1.16911    0.000
 4000.00   -3.95975   1.19859    0.000
 4001.00   -2.88585   1.21661    0.000
 4002.00   -1.31742   1.23322    0.000
 4003.00    0.42470   1.13623    0.003
 4004.00    0.34941   0.94994    0.003
 4005.00   -0.26436   0.87695    0.000
 4006.00    0.10399   0.97889    0.003
 4007.00    0.71360   1.10475    0.003
 4008.00    1.83225   1.16296    0.003
 4009.00    3.05210   1.17714    0.003
 4010.00    1.55006   1.17770    0.003
 4011.00   -0.37493   1.18465    0.000
 4012.00   -1.01913   1.20537    0.000
 4013.00   -1.51605   1.22645    0.000
 4014.00   -0.51062   1.26335    0.000
 4015.00    0.61097   1.27734    0.003
 4016.00    0.45354   1.22440    0.003
 4017.00    0.24226   1.20838    0.003
 4018.00    1.02768   1.27256    0.003
 4019.00    1.80035   1.29778    0.003
 4020.00    1.61576   1.25862    0.003
 4021.00    1.34135   1.23287    0.003
 4022.00   -0.51674   1.22139    0.000
 4023.00   -2.04999   1.17748    0.000
 4024.00   -0.08791   1.16025    0.000
 4025.00    2.10779   1.21710    0.003
 4026.00    6.07690   1.30238    0.003
 4027.00    8.91067   1.36993    0.003
 4028.00    5.19593   1.31885    0.003
 4029.00    1.45910   1.10332    0.003
 4030.00   -2.37900   0.90281    0.000
 4031.00   -4.87549   0.82904    0.000
 4032.00   -2.33947   0.79840    0.000
 4033.00   -0.96569   0.81598    0.000
 4034.00   -3.23553   0.93111    0.000
 4035.00   -3.08764   1.12363    0.000
 4036.00    3.49225   1.30900    0.003
 4037.00    6.88604   1.39032    0.003
 4038.00    3.00453   1.35971    0.003
 4039.00    1.00000   1.27843    0.003
 4040.00    2.70606   1.23379    0.003
 4041.00    3.11974   1.26205    0.003
 4042.00    1.30700   1.22250    0.003
 4043.00   -0.15179   1.00672    0.000
 4044.00   -1.07663   0.73847    0.000
 4045.00   -1.50324   0.64975    0.000
 4046.00   -1.26940   0.82157    0.000
 4047.00   -0.04380   1.06908    0.000
 4048.00    2.33965   1.22539    0.003
 4049.00    2.59346   1.31431    0.003
 4050.00    0.65468   1.35221    0.003
 4051.00    0.38646   1.32637    0.003
 4052.00    1.63527   1.27251    0.003
 4053.00    2.02779   1.20003    0.003
 4054.00    1.73496   1.13411    0.003
 4055.00    1.26068   1.11605    0.003
 4056.00    0.65862   1.07063    0.003
 4057.00    1.01316   1.01171    0.003
 4058.00    1.95857   1.05821    0.003
 4059.00    1.59323   1.17753    0.003
 4060.00    0.52061   1.21268    0.003
 4061.00   -2.70749   1.06613    0.000
 4062.00   -6.94581   0.83472    0.000
 4063.00   -7.57467   0.76763    0.000
 4064.00   -6.74526   0.92703    0.000
 4065.00   -4.16832   1.06224    0.000
 4066.00   -0.98884   1.08318    0.000
 4067.00    0.74767   1.14870    0.003
 4068.00    2.06517   1.26847    0.003
 4069.00    2.05800   1.24410    0.003
 4070.00    1.73266   1.03760    0.003
 4071.00    0.74709   0.92939    0.003
 4072.00   -0.36641   1.07848    0.000
 4073.00    0.81794   1.24313    0.003
 4074.00    2.34856   1.22104    0.003
 4075.00    1.47911   1.06503    0.003
 4076.00    0.34420   0.92779    0.003
 4077.00   -0.63184   0.94072    0.000
 4078.00   -1.59625   1.08842    0.000
 4079.00    0.66201   1.27725    0.003
 4080.00    3.04364   1.42351    0.003
 4081.00    1.67863   1.43025    0.003
 4082.00    0.37135   1.32892    0.003
 4083.00    2.02238   1.26005    0.003
 4084.00    3.63904   1.25400    0.003
 4085.00    4.68924   1.30833    0.003
 4086.00    5.52993   1.43068    0.003
 4087.00    4.21474   1.55548    0.003
 4088.00    2.98256   1.59249    0.003
 4089.00    2.35953   1.53769    0.003
 4090.00    1.46364   1.46604    0.003
 4091.00   -0.96295   1.41115    0.000
 4092.00   -2.81332   1.41929    0.000
 4093.00   -2.08521   1.44105    0.000
 4094.00   -0.95717   1.33698    0.000
 4095.00    1.63962   1.19382    0.000
 4096.00    2.84927   1.15732    0.000
 4097.00   -0.20717   1.19192    0.000
 4098.00   -2.18732   1.21228    0.000
 4099.00   -1.35450   1.15107    0.000
 4100.00   -0.68849   1.04997    0.000
 4101.00   -0.39710   1.04921    0.000
 4102.00   -0.39484   1.13651    0.000
 4103.00   -0.95522   1.20303    0.000
 4104.00   -0.30043   1.27502    0.000
 4105.00    2.41621   1.37656    0.000
 4106.00    3.54110   1.41690    0.000
 4107.00    2.29988   1.38155    0.000
 4108.00    0.01639   1.31521    0.000
 4109.00   -3.62897   1.24408    0.000
 4110.00   -4.51166   1.19825    0.000
 4111.00   -2.21445   1.20677    0.000
 4112.00   -0.51320   1.27756    0.000
 4113.00    0.58309   1.34459    0.003
 4114.00    1.22339   1.36698    0.003
 4115.00    1.45544   1.38602    0.003
 4116.00    2.17440   1.38172    0.003
 4117.00    3.27755   1.28863    0.003
 4118.00    3.81787   1.19898    0.003
 4119.00    3.96760   1.22764    0.003
 4120.00    2.47150   1.27316    0.003
 4121.00   -0.02610   1.25667    0.000
 4122.00   -0.45675   1.24384    0.000
 4123.00    0.21069   1.30412    0.003
 4124.00   -0.22886   1.38450    0.000
 4125.00   -1.17883   1.37887    0.000
 4126.00   -1.45523   1.31461    0.000
 4127.00   -1.46416   1.26482    0.000
 4128.00   -2.35710   1.24065    0.000
 4129.00   -3.54922   1.20837    0.000
 4130.00   -1.95044   1.13104    0.000
 4131.00    0.44243   1.02605    0.003
 4132.00    1.74951   0.99358    0.003
 4133.00    2.80168   1.04362    0.003
 4134.00    1.83280   1.16943    0.003
 4135.00    0.48244   1.30750    0.003
 4136.00   -1.23011   1.34760    0.000
 4137.00   -2.99555   1.34812    0.000
 4138.00   -1.93885   1.36465    0.000
 4139.00   -0.58225   1.37060    0.000
 4140.00   -0.05877   1.31815    0.000
 4141.00    0.40708   1.13440    0.003
 4142.00    1.46197   0.89919    0.003
 4143.00    2.53716   0.84651    0.003
 4144.00    4.12724   1.01195    0.003
 4145.00    5.59427   1.18663    0.003
 4146.00    2.96272   1.25310    0.003
 4147.00    0.40653   1.24727    0.003
 4148.00   -0.98421   1.19319    0.000
 4149.00   -2.30727   1.13260    0.000
 4150.00   -2.96314   1.11884    0.000
 4151.00   -3.34376   1.12708    0.000
 4152.00   -1.77021   1.13144    0.000
 4153.00   -0.08181   1.11735    0.000
 4154.00    2.23362   1.10941    0.003
 4155.00    3.65352   1.10448    0.003
 4156.00    1.15910   1.11966    0.003
 4157.00   -0.87351   1.20593    0.000
 4158.00   -1.24511   1.31131    0.000
 4159.00   -1.87261   1.35462    0.000
 4160.00   -3.27232   1.35973    0.000
 4161.00   -3.41493   1.41439    0.000
 4162.00   -0.32922   1.45674    0.000
 4163.00    1.98981   1.39436    0.003
 4164.00    2.61526   1.30980    0.003
 4165.00    3.00865   1.25406    0.003
 4166.00    2.95750   1.19025    0.003
 4167.00    2.28739   1.19375    0.003
 4168.00    0.58277   1.28797    0.003
 4169.00   -1.33832   1.35338    0.000
 4170.00   -3.57653   1.29676    0.000
 4171.00   -2.50378   1.13500    0.000
 4172.00    2.83338   1.02954    0.003
 4173.00    4.01150   1.06389    0.003
 4174.00    0.46994   1.13473    0.003
 4175.00   -1.84053   1.16578    0.000
 4176.00   -2.91887   1.15239    0.000
 4177.00   -2.37161   1.15314    0.000
 4178.00   -0.38941   1.20885    0.000
 4179.00   -0.64408   1.24174    0.000
 4180.00   -2.63846   1.20757    0.000
 4181.00   -2.02461   1.18171    0.000
 4182.00    0.37295   1.23528    0.003
 4183.00    3.01688   1.34751    0.003
 4184.00    5.80850   1.44144    0.003
 4185.00    3.65854   1.37623    0.003
 4186.00   -1.07596   1.19232    0.000
 4187.00    0.23354   1.15630    0.003
 4188.00    4.28455   1.28462    0.003
 4189.00    4.88969   1.35548    0.003
 4190.00    4.15019   1.31836    0.003
 4191.00    3.77572   1.34218    0.003
 4192.00    3.52249   1.44888    0.003
 4193.00    1.09308   1.45137    0.003
 4194.00   -1.94289   1.31553    0.000
 4195.00   -1.74112   1.17490    0.000
 4196.00   -0.79655   1.10654    0.000
 4197.00    0.21173   1.08319    0.003
 4198.00    1.23171   1.10782    0.003
 4199.00    1.69907   1.16641    0.003
 4200.00    2.08828   1.14885    0.003
 4201.00    1.89396   1.10800    0.003
 4202.00    1.64015   1.18211    0.003
 4203.00   -0.36723   1.29541    0.000
 4204.00   -2.48887   1.37256    0.000
 4205.00    0.56595   1.44619    0.003
 4206.00    3.77116   1.50960    0.003
 4207.00    1.42633   1.54596    0.003
 4208.00   -0.78084   1.50885    0.000
 4209.00    1.05639   1.42532    0.003
 4210.00    2.62046   1.42786    0.003
 4211.00    0.20773   1.48836    0.003
 4212.00   -2.07977   1.46041    0.000
 4213.00   -3.18320   1.31370    0.000
 4214.00   -3.91115   1.14474    0.000
 4215.00   -2.05802   1.16920    0.000
 4216.00   -0.64602   1.43534    0.000
 4217.00   -1.57860   1.67291    0.000
 4218.00   -1.90134   1.74749    0.000
 4219.00    0.38053   1.76131    0.003
 4220.00    2.50070   1.74737    0.003
 4221.00    4.05116   1.62798    0.003
 4222.00    4.71847   1.42692    0.003
 4223.00    2.77049   1.20937    0.003
 4224.00    1.32643   0.95189    0.003
 4225.00    1.15408   0.68409    0.003
 4226.00    1.26116   0.60896    0.003
 4227.00    1.97546   0.85971    0.003
 4228.00    2.23888   1.21958    0.003
 4229.00    1.65204   1.48175    0.003
 4230.00    1.38059   1.63611    0.003
 4231.00    1.62839   1.61147    0.003
 4232.00    1.83358   1.46268    0.002
 4233.00    1.97728   1.40882    0.003
 4234.00    1.62690   1.40059    0.003
 4235.00    0.64922   1.34650    0.002
 4236.00    0.05366   1.37250    0.002
 4237.00   -0.11438   1.45073    0.000
 4238.00    0.43548   1.47991    0.002
 4239.00    1.69377   1.52563    0.002
 4240.00    2.59265   1.63457    0.002
 4241.00    3.17875   1.70438    0.002
 4242.00    2.46602   1.75069    0.002
 4243.00    0.75754   1.89281    0.003
 4244.00   -0.69192   1.99258    0.000
 4245.00   -1.96681   1.89906    0.000
 4246.00   -0.94051   1.70667    0.000
 4247.00    1.44448   1.55970    0.003
 4248.00    2.99667   1.44845    0.003
 4249.00    4.12008   1.30428    0.003
 4250.00    3.09239   1.28246    0.003
 4251.00    1.10496   1.43166    0.003
 4252.00    0.27301   1.46219    0.003
 4253.00   -0.11590   1.30334    0.000
 4254.00    0.38730   1.25824    0.003
 4255.00    1.18125   1.48161    0.003
 4256.00    0.81696   1.72660    0.003
 4257.00    0.13651   1.69756    0.003
 4258.00   -1.05180   1.46866    0.000
 4259.00   -2.35392   1.26519    0.000
 4260.00   -0.02478   1.25547    0.000
 4261.00    2.95381   1.49797    0.003
 4262.00    1.81486   1.78996    0.003
 4263.00    0.11255   1.93148    0.003
 4264.00   -0.52687   1.97869    0.000
 4265.00   -1.06246   1.99385    0.000
 4266.00    0.15632   1.89711    0.003
 4267.00    1.48240   1.73531    0.003
 4268.00    1.40560   1.59794    0.003
 4269.00    1.28408   1.39745    0.003
 4270.00   -0.17966   1.11243    0.000
 4271.00   -1.50000   0.98271    0.000
 4272.00    0.97036   1.08702    0.003
 4273.00    3.20604   1.15043    0.003
 4274.00    2.21548   1.18581    0.003
 4275.00    1.21420   1.40486    0.003
 4276.00    0.11548   1.69799    0.003
 4277.00   -0.41999   1.88691    0.000
 4278.00    2.79637   1.86937    0.003
 4279.00    5.22807   1.68201    0.003
 4280.00    3.59761   1.58243    0.003
 4281.00    2.12015   1.61321    0.003
 4282.00    1.28143   1.66996   -2.000
 4283.00    0.39002   1.70655   -2.000
 4284.00   -0.68331   1.64427   -2.000
 4285.00   -1.26847   1.58405   -2.000
 4286.00   -0.43466   1.61295   -2.000
 4287.00    1.40541   1.56325   -2.000
 4288.00    5.74126   1.33400   -2.000
 4289.00    8.80919   1.15901   -2.000
 4290.00    9.16655   1.23825   -2.000
 4291.00    8.51684   1.47584   -2.000
 4292.00    5.99728   1.64338   -2.000
 4293.00    4.16895   1.60802   -2.000
 4294.00    3.46167   1.57080   -2.000
 4295.00    1.46724   1.60665   -2.000
 4296.00   -2.35835   1.55319   -2.000
 4297.00   -3.25875   1.38000   -2.000
 4298.00   -0.49809   1.14075    0.000
 4299.00    1.50049   1.01672    0.003
 4300.00    2.65842   1.09512    0.003
 4301.00    3.15617   1.17815    0.003
 4302.00    3.01160   1.20247    0.003
 4303.00    1.89724   1.25105    0.003
 4304.00   -0.04919   1.23801    0.000
 4305.00    0.41281   1.13462    0.003
 4306.00    2.69483   0.99580    0.003
 4307.00    2.79201   0.88162    0.003
 4308.00    1.43831   0.90778    0.003
 4309.00    0.68335   1.06474    0.003
 4310.00    0.27660   1.25052    0.003
 4311.00   -0.28340   1.41859    0.000
 4312.00   -0.92106   1.55756    0.000
 4313.00   -0.66678   1.64716    0.000
 4314.00   -0.02111   1.83601    0.000
 4315.00    1.11360   2.20535    0.003
 4316.00    2.43252   2.44855    0.003
 4317.00    2.70459   2.42329    0.003
 4318.00    2.64197   2.32180    0.003
 4319.00    1.26546   2.22904    0.003
 4320.00   -0.46221   2.13445    0.000
 4321.00    0.08038   2.06002    0.002
 4322.00    1.11976   1.85490    0.003
 4323.00    2.45594   1.49316    0.003
 4324.00    3.84375   1.16736    0.003
 4325.00    3.08621   1.12530    0.003
 4326.00    2.04490   1.50386    0.003
 4327.00    2.88959   2.02814    0.003
 4328.00    3.91051   2.29613    0.003
 4329.00    4.64870   2.24859    0.003
 4330.00    5.37072   2.16992    0.000
 4331.00    5.02539   2.22471    0.000
 4332.00    4.66631   2.30685    0.000
 4333.00    5.58114   2.38907    0.000
 4334.00    6.30989   2.48923    0.000
 4335.00    2.57101   2.40926    0.000
 4336.00   -0.93585   2.03502    0.000
 4337.00   -1.42256   1.70296    0.000
 4338.00   -1.62587   1.59137    0.000
 4339.00    0.64689   1.54588    0.000
 4340.00    2.55280   1.64338    0.000
 4341.00    2.08916   1.92072    0.000
 4342.00    1.55345   2.07673    0.000
 4343.00    0.65411   2.07373    0.000
 4344.00   -0.00963   2.16420    0.000
 4345.00    0.28827   2.24142    0.000
 4346.00    0.57969   2.21357    0.000
 4347.00    0.84917   2.30835    0.000
 4348.00    1.50432   2.50701    0.000
 4349.00    3.25992   2.41636    0.000
 4350.00    4.32789   1.95791    0.000
 4351.00    3.71939   1.63153    0.002
 4352.00    2.95170   1.73263    0.002
 4353.00    1.84919   1.96038    0.002
 4354.00    1.37727   2.07313    0.002
 4355.00    2.05816   2.19461    0.002
 4356.00    2.35545   2.32455    0.002
 4357.00    2.03983   2.26054    0.002
 4358.00    1.17200   2.07561    0.002
 4359.00   -0.47009   2.07887    0.000
 4360.00   -0.97133   2.27874    0.000
 4361.00   -0.06502   2.40329    0.000
 4362.00    0.38948   2.39047    0.002
 4363.00    0.35261   2.46206    0.002
 4364.00    0.20831   2.59777    0.002
 4365.00   -0.03904   2.53596    0.000
 4366.00    0.95746   2.28413    0.002
 4367.00    3.00609   2.11853    0.002
 4368.00    3.33537   2.15053    0.002
 4369.00    2.38396   2.21317    0.002
 4370.00    1.53963   2.24060    0.002
 4371.00    0.76537   2.24705    0.002
 4372.00    1.23822   2.13335    0.002
 4373.00    2.42536   1.90068    0.002
 4374.00    2.81108   1.73951    0.002
 4375.00    2.79704   1.83450    0.002
 4376.00    2.23938   2.13143    0.002
 4377.00    1.44713   2.34490    0.002
 4378.00    2.38420   2.32807    0.002
 4379.00    3.96118   2.18458    0.002
 4380.00    4.40433   2.01904    0.002
 4381.00    4.49192   1.70813    0.002
 4382.00    3.21778   1.23165    0.002
 4383.00    1.58738   0.98878    0.002
 4384.00    1.69422   1.25019    0.002
 4385.00    2.17213   1.73338    0.002
 4386.00    2.02094   1.99061    0.002
 4387.00    1.76337   1.99128    0.002
 4388.00    3.33574   1.92994    0.002
 4389.00    5.14190   1.88213    0.002
 4390.00    4.32497   1.91989    0.002
 4391.00    3.27397   2.04445    0.002
 4392.00    2.20190   2.12223    0.002
 4393.00    1.12871   2.07554    0.002
 4394.00    2.23503   2.04091    0.002
 4395.00    3.36790   2.22079    0.002
 4396.00    3.18971   2.48896    0.002
 4397.00    3.00051   2.54832    0.002
 4398.00    2.56942   2.37988    0.002
 4399.00    2.03779   2.13658    0.002
 4400.00    0.26399   2.07663    0.002
 4401.00   -1.28181   2.24255    0.000
 4402.00   -0.90949   2.16149    0.000
 4403.00   -0.29002   1.68879    0.000
 4404.00    1.87845   1.40434    0.002
 4405.00    3.41875   1.58473    0.002
 4406.00    1.86936   1.80010    0.002
 4407.00    0.84840   1.83913    0.002
 4408.00    1.93694   1.99756    0.002
 4409.00    2.73013   2.32497    0.002
 4410.00    2.54387   2.54947    0.002
 4411.00    2.66500   2.62877    0.002
 4412.00    3.64738   2.57409    0.002
 4413.00    4.40266   2.24364    0.002
 4414.00    4.61365   1.86883    0.002
 4415.00    4.00927   1.88275    0.002
 4416.00    1.71728   2.15841    0.002
 4417.00    0.51100   2.41868    0.002
 4418.00    1.25917   2.61816    0.002
 4419.00    1.60684   2.67729    0.002
 4420.00    1.32410   2.51776    0.002
 4421.00    1.11096   2.25143    0.002
 4422.00    0.99400   2.15170    0.002
 4423.00    1.02396   2.26577    0.002
 4424.00    1.23264   2.34105    0.002
 4425.00    1.39398   2.31425    0.002
 4426.00    1.50457   2.32117    0.002
 4427.00    1.43926   2.41660    0.002
 4428.00    1.20759   2.43238    0.002
 4429.00    0.40939   2.27942    0.002
 4430.00   -0.86125   2.27277    0.000
 4431.00   -0.31501   2.43684    0.000
 4432.00    1.56512   2.40429    0.002
 4433.00    2.01565   2.13304    0.002
 4434.00    1.54446   1.90539    0.002
 4435.00    1.70876   1.98037    0.002
 4436.00    2.23149   2.31456    0.002
 4437.00    2.81187   2.64113    0.002
 4438.00    3.42056   2.81245    0.003
 4439.00    2.99590   2.73158    0.003
 4440.00    2.13276   2.44284    0.002
 4441.00    2.19282   2.18255    0.002
 4442.00    2.58839   2.13152    0.002
 4443.00    2.63333   2.32613    0.002
 4444.00    2.57044   2.64718    0.003
 4445.00    3.53903   2.80981    0.002
 4446.00    4.77170   2.74056    0.002
 4447.00    3.78881   2.73336    0.002
 4448.00    2.34417   2.77446    0.002
 4449.00    2.79844   2.68484    0.002
 4450.00    3.56470   2.64261    0.002
 4451.00    3.33897   2.66154    0.002
 4452.00    2.99095   2.53916    0.002
 4453.00    2.61154   2.26793    0.002
 4454.00    2.22946   2.03795    0.002
 4455.00    3.39338   2.05179    0.002
 4456.00    4.63359   2.17997    0.002
 4457.00    3.48288   2.18931    0.002
 4458.00    2.32424   2.12452    0.002
 4459.00    3.05609   2.08885    0.002
 4460.00    3.74646   2.00755    0.002
 4461.00    3.59669   2.00516    0.000
 4462.00    3.47718   2.29515    0.000
 4463.00    3.71324   2.56758    0.000
 4464.00    3.99344   2.55691    0.000
 4465.00    4.63163   2.48558    0.000
 4466.00    4.93468   2.50553    0.000
 4467.00    3.19813   2.50878    0.000
 4468.00    2.18587   2.42641    0.000
 4469.00    4.64822   2.41933    0.000
 4470.00    6.31107   2.53602    0.000
 4471.00    4.85147   2.68847    0.000
 4472.00    3.21934   2.85142    0.000
 4473.00    1.02625   2.91610    0.000
 4474.00   -0.31473   2.85440    0.000
 4475.00    0.68878   2.88825    0.000
 4476.00    1.47301   3.07349    0.000
 4477.00    1.74056   3.15034    0.000
 4478.00    1.38182   2.94762    0.000
 4479.00   -0.25254   2.61301    0.000
 4480.00    0.11632   2.38921    0.000
 4481.00    4.03637   2.36943    0.000
 4482.00    5.96016   2.59107    0.002
 4483.00    4.78789   2.89569    0.002
 4484.00    4.02397   3.09681    0.002
 4485.00    3.81619   3.17906    0.002
 4486.00    3.42904   3.09727    0.002
 4487.00    2.82682   2.85026    0.002
 4488.00    2.67945   2.58304    0.002
 4489.00    3.01297   2.49910    0.002
 4490.00    2.73394   2.66732    0.002
 4491.00    1.88371   2.88222    0.002
 4492.00    1.53704   2.86411    0.002
 4493.00    1.60436   2.58155    0.002
 4494.00    1.71900   2.37220    0.002
 4495.00    1.86787   2.41878    0.002
 4496.00    2.93083   2.62420    0.002
 4497.00    4.57443   2.87116    0.002
 4498.00    4.68599   3.03736    0.002
 4499.00    3.94658   3.03513    0.002
 4500.00    4.66309   2.87858    0.002
 4501.00    6.08297   2.88775    0.002
 4502.00    5.33035   3.19880    0.002
 4503.00    3.67137   3.44805    0.002
 4504.00    3.64664   3.44137    0.002
 4505.00    4.20517   3.29870    0.002
 4506.00    3.50432   3.16373    0.002
 4507.00    2.42376   3.13297    0.002
 4508.00    2.62134   3.19419    0.002
 4509.00    3.13906   3.28108    0.002
 4510.00    3.93533   3.28099    0.002
 4511.00    4.78823   3.12874    0.002
 4512.00    4.43342   2.94321    0.002
 4513.00    3.88596   2.85067    0.002
 4514.00    3.65894   2.89718    0.002
 4515.00    3.47000   3.00650    0.002
 4516.00    3.32708   2.98745    0.002
 4517.00    3.18788   2.90672    0.002
 4518.00    3.92405   3.00022    0.002
 4519.00    4.70003   3.20328    0.002
 4520.00    3.31447   3.33514    0.002
 4521.00    1.93383   3.23210    0.002
 4522.00    2.15890   3.02587    0.002
 4523.00    2.42065   2.95230    0.002
 4524.00    3.37098   2.85312    0.002
 4525.00    4.21860   2.63219    0.002
 4526.00    3.91562   2.41114    0.002
 4527.00    3.63719   2.27920    0.002
 4528.00    3.55091   2.29149    0.002
 4529.00    3.43389   2.40667    0.002
 4530.00    3.13519   2.53042    0.002
 4531.00    3.07747   2.69198    0.002
 4532.00    4.14777   2.72440    0.002
 4533.00    4.87405   2.54955    0.002
 4534.00    4.28550   2.39839    0.002
 4535.00    3.96746   2.58228    0.002
 4536.00    4.51196   3.05777    0.002
 4537.00    4.94603   3.29446    0.002
 4538.00    5.08171   3.16266    0.002
 4539.00    4.37078   2.93224    0.002
 4540.00    1.69818   2.82177    0.002
 4541.00    0.60857   2.93800    0.002
 4542.00    2.69217   3.10714    0.002
 4543.00    3.94619   3.05527    0.002
 4544.00    3.75190   2.88798    0.002
 4545.00    3.54477   2.88491    0.002
 4546.00    3.31804   2.98226    0.002
 4547.00    3.28127   2.97312    0.002
 4548.00    3.49951   2.84746    0.002
 4549.00    3.35689   2.85789    0.002
 4550.00    2.78770   3.00241    0.000
 4551.00    3.09018   2.98865    0.000
 4552.00    4.30124   2.87253    0.000
 4553.00    4.91420   2.79226    0.000
 4554.00    4.97723   2.78567    0.000
 4555.00    4.32913   2.95003    0.000
 4556.00    3.10470   3.23041    0.000
 4557.00    2.59317   3.41391    0.000
 4558.00    2.59006   3.44059    0.000
 4559.00    3.04739   3.37352    0.000
 4560.00    3.79288   3.35980    0.000
 4561.00    4.03865   3.38400    0.000
 4562.00    4.01111   3.23326    0.000
 4563.00    3.68418   2.97466    0.000
 4564.00    3.21493   2.85759    0.000
 4565.00    3.72202   3.00475    0.000
 4566.00    4.62954   3.32712    0.000
 4567.00    3.63368   3.51687    0.000
 4568.00    1.97084   3.49021    0.000
 4569.00    2.16778   3.33866    0.000
 4570.00    2.91437   3.07430    0.000
 4571.00    2.25000   3.02487    0.000
 4572.00    1.23999   3.31998    0.000
 4573.00    1.20112   3.47505    0.000
 4574.00    1.35471   3.38665    0.000
 4575.00    2.93212   3.35284    0.000
 4576.00    4.72993   3.35924    0.000
 4577.00    3.24553   3.26116    0.000
 4578.00    1.38552   3.03821    0.000
 4579.00    1.31287   2.83607    0.000
 4580.00    1.37750   2.85218    0.000
 4581.00    1.90283   3.06446    0.000
 4582.00    2.44733   3.19961    0.000
 4583.00    3.14094   3.14771    0.000
 4584.00    3.82385   3.03192    0.000
 4585.00    3.99142   2.97236    0.000
 4586.00    4.24828   3.11203    0.000
 4587.00    6.06563   3.38388    0.000
 4588.00    7.65759   3.55031    0.000
 4589.00    6.83826   3.49788    0.000
 4590.00    6.08345   3.28889    0.000
 4591.00    5.81627   3.11928    0.000
 4592.00    5.50153   3.08552    0.000
 4593.00    4.91337   3.06340    0.000
 4594.00    4.22029   3.00345    0.000
 4595.00    3.04781   3.00941    0.000
 4596.00    2.23036   3.05168    0.000
 4597.00    2.74110   3.11362    0.000
 4598.00    3.75347   3.19578    0.000
 4599.00    6.33471   3.13707    0.000
 4600.00    7.83450   3.07172    0.000
 4601.00    6.46368   3.14913    0.000
 4602.00    5.30696   3.18901    0.000
 4603.00    4.63806   3.14660    0.000
 4604.00    4.49767   3.07173    0.000
 4605.00    5.40001   3.09979    0.000
 4606.00    5.22345   3.32594    0.000
 4607.00    3.19177   3.65827    0.000
 4608.00    2.40250   3.86717    0.000
 4609.00    3.48397   3.80155    0.000
 4610.00    4.29086   3.60422    0.000
 4611.00    4.73442   3.46899    0.000
 4612.00    4.59997   3.39975    0.000
 4613.00    3.79187   3.46649    0.000
 4614.00    3.74309   3.62860    0.000
 4615.00    4.47469   3.67246    0.000
 4616.00    5.24687   3.70862    0.000
 4617.00    6.05584   3.71762    0.000
 4618.00    6.38366   3.57853    0.000
 4619.00    6.32710   3.56354    0.000
 4620.00    6.09023   3.70927    0.000
 4621.00    5.72664   3.70337    0.000
 4622.00    5.66167   3.64094    0.000
 4623.00    5.78081   3.65928    0.000
 4624.00    4.88603   3.60483    0.000
 4625.00    3.44520   3.52436    0.000
 4626.00    4.05460   3.57598    0.000
 4627.00    5.62295   3.63230    0.000
 4628.00    5.87772   3.55447    0.000
 4629.00    5.60293   3.55104    0.000
 4630.00    6.05281   3.71103    0.000
 4631.00    6.75198   3.71905    0.000
 4632.00    5.54382   3.51456    0.000
 4633.00    3.78320   3.40084    0.000
 4634.00    3.60761   3.43072    0.000
 4635.00    3.81165   3.43686    0.000
 4636.00    3.28011   3.32868    0.000
 4637.00    2.60651   3.20848    0.000
 4638.00    3.80115   3.13245    0.000
 4639.00    5.27622   3.09872    0.000
 4640.00    4.90127   3.25852    0.000
 4641.00    4.32271   3.45338    0.000
 4642.00    4.78884   3.42335    0.000
 4643.00    5.33093   3.28528    0.000
 4644.00    4.37624   3.11870    0.000
 4645.00    3.36495   2.86683    0.000
 4646.00    5.17309   2.73730    0.000
 4647.00    6.94147   2.84804    0.000
 4648.00    6.70563   3.06154    0.000
 4649.00    6.46794   3.27363    0.000
 4650.00    6.19997   3.42660    0.000
 4651.00    5.84410   3.52685    0.000
 4652.00    4.58865   3.55059    0.000
 4653.00    3.64640   3.38831    0.000
 4654.00    4.99298   3.20251    0.000
 4655.00    5.97068   3.17046    0.000
 4656.00    4.88623   3.31992    0.000
 4657.00    4.00535   3.63351    0.000
 4658.00    4.03279   3.92324    0.000
 4659.00    4.09544   4.00931    0.000
 4660.00    4.28702   3.86634    0.000
 4661.00    4.68553   3.60925    0.000
 4662.00    5.71887   3.39398    0.000
 4663.00    6.13438   3.34492    0.000
 4664.00    4.93869   3.32717    0.000
 4665.00    4.49337   3.06561    0.000
 4666.00    5.72972   2.68482    0.000
 4667.00    6.35222   2.61188    0.000
 4668.00    5.78253   2.91874    0.000
 4669.00    5.01573   3.29709    0.000
 4670.00    3.91513   3.52474    0.000
 4671.00    3.35181   3.54405    0.000
 4672.00    3.58569   3.44472    0.000
 4673.00    4.52168   3.37309    0.000
 4674.00    6.37342   3.43075    0.000
 4675.00    6.72096   3.61213    0.000
 4676.00    5.34021   3.66651    0.000
 4677.00    3.91629   3.50831    0.000
 4678.00    2.44862   3.33793    0.000
 4679.00    2.71230   3.23729    0.000
 4680.00    4.52335   3.17916    0.000
 4681.00    5.58154   3.22864    0.000
 4682.00    6.04680   3.41420    0.000
 4683.00    5.50426   3.54142    0.000
 4684.00    4.26363   3.54650    0.000
 4685.00    4.31189   3.52975    0.000
 4686.00    5.14297   3.45190    0.000
 4687.00    5.63286   3.37803    0.000
 4688.00    5.94185   3.42687    0.000
 4689.00    5.64243   3.45555    0.000
 4690.00    5.06306   3.38977    0.000
 4691.00    3.99477   3.37672    0.000
 4692.00    2.73275   3.43285    0.000
 4693.00    3.19965   3.51993    0.000
 4694.00    4.25032   3.66803    0.000
 4695.00    5.19380   3.77156    0.000
 4696.00    6.10687   3.65863    0.000
 4697.00    5.84190   3.37111    0.000
 4698.00    5.30115   3.20645    0.000
 4699.00    4.86804   3.26818    0.000
 4700.00    4.45519   3.30934    0.000
 4701.00    4.53705   3.23571    0.000
 4702.00    4.69087   3.18791    0.000
 4703.00    5.55171   3.31945    0.000
 4704.00    6.48730   3.48348    0.000
 4705.00    5.82549   3.46991    0.000
 4706.00    5.05399   3.33207    0.000
 4707.00    5.56173   3.25685    0.000
 4708.00    6.11299   3.26531    0.000
 4709.00    6.04104   3.39578    0.000
 4710.00    5.96863   3.63444    0.000
 4711.00    5.91256   3.70594    0.000
 4712.00    5.87708   3.55190    0.000
 4713.00    6.15752   3.33344    0.000
 4714.00    6.43204   3.31985    0.000
 4715.00    6.64855   3.59293    0.000
 4716.00    6.79415   3.83321    0.000
 4717.00    6.43835   3.92975    0.000
 4718.00    6.05397   4.04382    0.000
 4719.00    5.51403   4.13261    0.000
 4720.00    5.04147   4.08721    0.000
 4721.00    4.86260   3.94218    0.000
 4722.00    5.03992   3.88477    0.000
 4723.00    6.49505   4.02335    0.000
 4724.00    7.64380   4.15673    0.000
 4725.00    7.87016   4.02878    0.000
 4726.00    7.66583   3.61516    0.000
 4727.00    6.35788   3.24681    0.000
 4728.00    5.28627   3.17694    0.000
 4729.00    4.73566   3.28292    0.000
 4730.00    4.61344   3.42178    0.000
 4731.00    5.31020   3.58710    0.000
 4732.00    5.55093   3.69160    0.000
 4733.00    5.03091   3.73188    0.000
 4734.00    4.81166   3.78281    0.000
 4735.00    5.03216   3.67705    0.000
 4736.00    5.55398   3.59164    0.000
 4737.00    6.46317   3.82868    0.000
 4738.00    6.81553   4.03424    0.000
 4739.00    6.53712   3.94377    0.000
 4740.00    6.17139   3.81472    0.000
 4741.00    5.71843   3.84152    0.000
 4742.00    5.60097   3.95214    0.000
 4743.00    5.77915   3.96360    0.000
 4744.00    6.36871   3.90463    0.000
 4745.00    7.27764   4.00005    0.000
 4746.00    7.60934   4.13686    0.000
 4747.00    7.54702   4.12323    0.000
 4748.00    6.51817   4.08985    0.000
 4749.00    4.91106   4.11828    0.000
 4750.00    4.78483   4.08507    0.000
 4751.00    5.43161   3.94945    0.000
 4752.00    6.34459   3.83657    0.000
 4753.00    7.37808   3.77339    0.000
 4754.00    7.45307   3.77672    0.000
 4755.00    7.15486   3.81686    0.000
 4756.00    7.13098   3.85085    0.000
 4757.00    7.19799   3.88266    0.000
 4758.00    7.66285   3.94999    0.000
 4759.00    8.23831   4.01442    0.000
 4760.00    7.97993   3.90383    0.000
 4761.00    7.53080   3.69160    0.002
 4762.00    7.17888   3.61369    0.002
 4763.00    6.84475   3.57266    0.002
 4764.00    5.55595   3.42168    0.002
 4765.00    4.13270   3.31545    0.002
 4766.00    5.08147   3.43766    0.002
 4767.00    6.27083   3.68361    0.002
 4768.00    6.04923   3.92232    0.002
 4769.00    5.73643   4.03949    0.002
 4770.00    6.04841   3.91430    0.002
 4771.00    6.37983   3.77108    0.002
 4772.00    6.97590   3.85668    0.002
 4773.00    7.53438   4.09863    0.002
 4774.00    7.00303   4.21243    0.002
 4775.00    6.49801   4.15308    0.002
 4776.00    6.37328   4.18218    0.002
 4777.00    6.24281   4.24282    0.002
 4778.00    6.05838   4.17900    0.002
 4779.00    5.81254   4.10719    0.002
 4780.00    5.14627   4.06028    0.002
 4781.00    4.79982   3.91477    0.002
 4782.00    6.14750   3.72502    0.002
 4783.00    7.10374   3.74793    0.002
 4784.00    6.39291   3.87494    0.002
 4785.00    5.57795   3.80057    0.002
 4786.00    4.39703   3.76379    0.002
 4787.00    3.80711   3.86775    0.002
 4788.00    4.96321   3.85485    0.002
 4789.00    6.18579   3.81675    0.002
 4790.00    7.57573   3.89854    0.002
 4791.00    8.34592   4.03175    0.002
 4792.00    7.77217   4.24053    0.002
 4793.00    7.54047   4.49043    0.002
 4794.00    7.95260   4.58912    0.002
 4795.00    7.81151   4.47125    0.002
 4796.00    6.76136   4.28102    0.002
 4797.00    6.11188   4.09085    0.002
 4798.00    6.03973   3.92752    0.002
 4799.00    6.22210   3.91551    0.002
 4800.00    6.72704   4.12672    0.002
 4801.00    6.91697   4.40025    0.002
 4802.00    6.75507   4.49861    0.002
 4803.00    6.96823   4.35980    0.002
 4804.00    7.55084   4.14124    0.002
 4805.00    7.80511   4.04421    0.002
 4806.00    7.77416   3.96718    0.002
 4807.00    7.31243   3.89427    0.002
 4808.00    6.52103   3.98989    0.002
 4809.00    6.42429   4.16396    0.002
 4810.00    6.79482   4.23070    0.002
 4811.00    7.30795   4.20622    0.002
 4812.00    7.90513   4.17575    0.002
 4813.00    7.11682   4.18035    0.002
 4814.00    5.61657   4.22400    0.002
 4815.00    4.77609   4.31669    0.002
 4816.00    4.22936   4.43028    0.002
 4817.00    4.42147   4.50886    0.002
 4818.00    4.89625   4.57628    0.002
 4819.00    5.63035   4.58129    0.002
 4820.00    6.44877   4.49650    0.002
 4821.00    7.40058   4.29871    0.002
 4822.00    8.38870   3.97967    0.002
 4823.00    7.80037   3.87727    0.002
 4824.00    6.85979   4.11915    0.002
 4825.00    6.30479   4.33458    0.002
 4826.00    5.81851   4.31269    0.002
 4827.00    6.17669   4.18443    0.002
 4828.00    6.64994   4.15581    0.002
 4829.00    6.06692   4.22452    0.002
 4830.00    5.38129   4.12535    0.002
 4831.00    5.11471   3.93349    0.002
 4832.00    4.87356   4.01636    0.002
 4833.00    4.92693   4.27022    0.002
 4834.00    4.99335   4.38183    0.002
 4835.00    6.00269   4.35080    0.002
 4836.00    6.99473   4.34328    0.002
 4837.00    7.53529   4.28526    0.002
 4838.00    8.03275   4.10363    0.002
 4839.00    7.94191   3.99795    0.002
 4840.00    7.88864   4.08287    0.002
 4841.00    8.17495   4.14322    0.002
 4842.00    8.30203   4.05464    0.002
 4843.00    7.37251   4.11107    0.002
 4844.00    6.50747   4.37282    0.002
 4845.00    5.97512   4.52342    0.002
 4846.00    5.88962   4.41247    0.002
 4847.00    7.66421   4.16029    0.002
 4848.00    8.79716   4.07803    0.000
 4849.00    7.72073   4.25996    0.000
 4850.00    6.86774   4.37222    0.000
 4851.00    6.66266   4.35215    0.000
 4852.00    6.22410   4.32888    0.000
 4853.00    5.20769   4.12232    0.000
 4854.00    4.94088   3.79452    0.000
 4855.00    6.27329   3.78060    0.000
 4856.00    7.58526   4.04890    0.000
 4857.00    8.85936   4.11710    0.000
 4858.00    9.22689   3.85038    0.000
 4859.00    8.12687   3.42840    0.000
 4860.00    7.57033   3.12974    0.000
 4861.00    7.78554   3.28135    0.000
 4862.00    7.77184   3.67576    0.000
 4863.00    7.47214   3.84711    0.000
 4864.00    7.02456   3.93571    0.000
 4865.00    6.41413   4.08529    0.000
 4866.00    5.98804   4.13867    0.000
 4867.00    5.74097   4.10519    0.000
 4868.00    5.69874   4.10245    0.000
 4869.00    5.83194   3.89371    0.000
 4870.00    5.63149   3.45398    0.000
 4871.00    5.17936   3.35681    0.000
 4872.00    5.32381   3.72300    0.000
 4873.00    5.86369   4.00828    0.000
 4874.00    6.37304   4.02925    0.000
 4875.00    6.86465   4.09136    0.002
 4876.00    7.49738   4.22404    0.002
 4877.00    8.20148   4.33044    0.002
 4878.00    8.68522   4.53728    0.002
 4879.00    9.07246   4.55135    0.002
 4880.00    8.61292   4.23821    0.002
 4881.00    7.83512   4.11348    0.002
 4882.00    7.66707   4.28275    0.002
 4883.00    7.69350   4.26847    0.002
 4884.00    8.24669   3.97204    0.002
 4885.00    8.94029   3.76435    0.002
 4886.00    8.77660   3.84090    0.002
 4887.00    8.42588   4.00207    0.002
 4888.00    8.30524   3.99144    0.002
 4889.00    8.22449   3.70704    0.002
 4890.00    8.56475   3.42684    0.002
 4891.00    8.96045   3.70614    0.002
 4892.00    9.26982   4.31615    0.002
 4893.00    9.57117   4.74555    0.002
 4894.00    8.89645   4.96199    0.002
 4895.00    8.16638   4.99867    0.002
 4896.00    7.17548   4.94609    0.002
 4897.00    6.20010   4.88203    0.002
 4898.00    7.57158   4.68664    0.002
 4899.00    8.86561   4.48797    0.002
 4900.00    8.32089   4.52608    0.002
 4901.00    7.85265   4.54384    0.002
 4902.00    8.37319   4.38884    0.002
 4903.00    8.83757   4.38274    0.002
 4904.00    8.81364   4.65892    0.002
 4905.00    8.66368   4.91690    0.002
 4906.00    7.70274   4.85901    0.002
 4907.00    7.16049   4.57765    0.002
 4908.00    8.72382   4.27796    0.002
 4909.00    9.90947   4.09524    0.002
 4910.00    9.55781   4.15123    0.002
 4911.00    9.09259   4.35755    0.002
 4912.00    8.24412   4.52176    0.002
 4913.00    7.85389   4.65080    0.002
 4914.00    8.76822   4.81192    0.002
 4915.00    9.35562   4.85569    0.002
 4916.00    9.14768   4.59789    0.002
 4917.00    9.05087   4.04165    0.002
 4918.00    9.18733   3.45993    0.002
 4919.00    9.13279   3.20946    0.002
 4920.00    8.72972   3.45822    0.002
 4921.00    8.41530   3.98249    0.002
 4922.00    8.24226   4.28345    0.002
 4923.00    8.31904   4.22466    0.002
 4924.00    8.74546   4.19773    0.002
 4925.00    9.30569   4.45654    0.002
 4926.00   10.03072   4.70859    0.002
 4927.00   10.02660   4.85262    0.002
 4928.00    9.23089   5.02436    0.002
 4929.00    7.94021   5.08124    0.002
 4930.00    6.17556   5.03882    0.002
 4931.00    6.51200   4.88028    0.002
 4932.00    8.62251   4.50742    0.002
 4933.00    9.37968   4.33580    0.002
 4934.00    9.13060   4.56427    0.002
 4935.00    9.18012   4.65317    0.002
 4936.00    9.42465   4.32381    0.002
 4937.00    9.46288   3.88461    0.002
 4938.00    9.38316   3.79666    0.002
 4939.00    8.27081   4.19271    0.002
 4940.00    6.64438   4.66234    0.000
 4941.00    6.20418   4.86141    0.000
 4942.00    6.27480   4.97853    0.000
 4943.00    7.26938   5.05483    0.000
 4944.00    8.60509   4.92278    0.000
 4945.00    8.57881   4.79756    0.000
 4946.00    8.12647   4.90962    0.000
 4947.00    7.19896   5.05142    0.000
 4948.00    6.14746   5.08569    0.000
 4949.00    5.44528   5.12783    0.000
 4950.00    4.81748   5.20969    0.000
 4951.00    5.66786   5.15291    0.000
 4952.00    6.76732   4.96710    0.000
 4953.00    7.32793   4.83827    0.000
 4954.00    7.82000   4.72611    0.000
 4955.00    8.21856   4.33057    0.000
 4956.00    8.60883   3.66305    0.000
 4957.00    8.96725   3.54717    0.000
 4958.00    9.32399   4.20298    0.000
 4959.00    8.59829   4.78765    0.000
 4960.00    7.84967   4.89554    0.000
 4961.00    6.92630   4.83405    0.000
 4962.00    6.07854   4.86561    0.000
 4963.00    6.87521   4.77098    0.000
 4964.00    7.68871   4.44527    0.000
 4965.00    8.70894   4.24436    0.000
 4966.00    9.69951   4.28954    0.000
 4967.00   10.44160   4.36874    0.000
 4968.00   10.77285   4.47240    0.000
 4969.00    8.53868   4.57409    0.000
 4970.00    6.89325   4.69199    0.000
 4971.00    8.13445   4.84150    0.000
 4972.00    9.02773   4.92925    0.000
 4973.00    8.53598   4.98538    0.000
 4974.00    8.18201   4.96550    0.000
 4975.00    8.28384   4.86835    0.000
 4976.00    8.51726   4.73251    0.000
 4977.00    9.11850   4.50385    0.000
 4978.00    9.73384   4.36636    0.000
 4979.00   10.38289   4.37782    0.000
 4980.00   10.43655   4.21390    0.000
 4981.00    9.26041   3.81116    0.000
 4982.00    7.92620   3.60830    0.000
 4983.00    6.30798   3.78734    0.000
 4984.00    5.75994   4.04370    0.000
 4985.00    6.89334   4.28582    0.000
 4986.00    7.70726   4.58300    0.000
 4987.00    8.08053   4.72641    0.000
 4988.00    7.99127   4.66958    0.000
 4989.00    7.34041   4.55010    0.000
 4990.00    7.54912   4.48567    0.000
 4991.00    8.67787   4.60782    0.000
 4992.00    9.59803   4.66308    0.000
 4993.00   10.32125   4.57004    0.000
 4994.00    9.70637   4.63724    0.000
 4995.00    7.97763   4.74156    0.000
 4996.00    7.73397   4.72517    0.000
 4997.00    8.57864   4.62971    0.000
 4998.00    8.49498   4.37656    0.000
 4999.00    7.81393   4.14634    0.000
 5000.00    7.99668   4.11968    0.000
 5001.00    8.66574   4.17480    0.000
 5002.00    9.07323   4.22049    0.000
 5003.00    9.35258   4.15909    0.000
 5004.00    9.44733   3.90931    0.000
 5005.00    9.46392   3.69345    0.000
 5006.00    9.30743   3.87781    0.000
 5007.00    9.08819   4.33838    0.000
 5008.00    8.79106   4.57921    0.000
 5009.00    8.47003   4.53083    0.000
 5010.00    8.99015   4.35433    0.000
 5011.00    9.72502   4.03902    0.000
 5012.00    9.73804   3.75335    0.000
 5013.00    9.60107   3.65160    0.000
 5014.00    9.07699   3.82439    0.000
 5015.00    8.48954   4.09894    0.000
 5016.00    8.50279   4.15452    0.000
 5017.00    8.58976   4.10813    0.000
 5018.00    7.57629   4.19380    0.000
 5019.00    6.46979   4.28668    0.000
 5020.00    7.21351   4.21310    0.000
 5021.00    8.04764   4.06778    0.000
 5022.00    8.02528   4.15604    0.000
 5023.00    7.98944   4.41978    0.000
 5024.00    7.93919   4.54578    0.000
 5025.00    7.94929   4.49991    0.000
 5026.00    9.16984   4.29746    0.000
 5027.00   10.32984   4.23738    0.000
 5028.00   10.78257   4.49594    0.000
 5029.00   11.07668   4.70726    0.002
 5030.00   10.09013   4.81420    0.002
 5031.00    9.24273   4.99161    0.002
 5032.00    9.23895   5.15919    0.002
 5033.00    9.09392   5.07502    0.002
 5034.00    8.27338   4.65262    0.002
 5035.00    7.58196   4.29323    0.002
 5036.00    7.39345   4.36788    0.001
 5037.00    7.27134   4.44485    0.001
 5038.00    7.36463   4.15182    0.001
 5039.00    7.52103   3.68097    0.001
 5040.00    7.85066   3.41673    0.001
 5041.00    8.29485   3.76364    0.001
 5042.00    9.00841   4.41171    0.001
 5043.00    9.49222   4.82967    0.001
 5044.00    9.50902   5.10624    0.001
 5045.00    9.24379   5.28085    0.001
 5046.00    8.47955   5.11506    0.001
 5047.00    8.28738   4.64281    0.002
 5048.00    8.98082   4.28578    0.002
 5049.00    9.21218   4.25229    0.002
 5050.00    8.81536   4.33172    0.002
 5051.00    8.08266   4.39843    0.002
 5052.00    6.94794   4.57614    0.002
 5053.00    6.89214   4.83485    0.002
 5054.00    7.97494   5.00568    0.002
 5055.00    9.07102   5.01968    0.002
 5056.00   10.17944   5.01889    0.002
 5057.00   10.20771   5.08386    0.002
 5058.00    9.34958   5.11460    0.002
 5059.00    9.45878   5.16938    0.002
 5060.00   10.26668   5.30902    0.002
 5061.00    9.93353   5.34489    0.002
 5062.00    8.87692   5.11025    0.002
 5063.00    8.69126   4.62520    0.002
 5064.00    8.98843   4.31606    0.002
 5065.00    9.46883   4.45895    0.002
 5066.00   10.03757   4.59234    0.002
 5067.00    9.28698   4.51404    0.002
 5068.00    7.98715   4.57206    0.002
 5069.00    7.58620   4.79709    0.002
 5070.00    7.50532   4.79003    0.002
 5071.00    7.67114   4.56897    0.002
 5072.00    7.91116   4.60464    0.002
 5073.00    7.23644   4.80970    0.002
 5074.00    6.33323   4.78716    0.002
 5075.00    6.86425   4.69502    0.002
 5076.00    7.68590   4.77196    0.002
 5077.00    8.27054   4.67102    0.002
 5078.00    8.81752   4.16081    0.002
 5079.00    9.07492   3.82482    0.002
 5080.00    9.29807   4.00498    0.002
 5081.00    8.20621   4.26829    0.002
 5082.00    7.00863   4.33060    0.002
 5083.00    7.83504   4.42346    0.002
 5084.00    8.75250   4.64230    0.002
 5085.00    8.72398   4.78264    0.002
 5086.00    8.67367   4.79247    0.002
 5087.00    8.09510   4.80729    0.002
 5088.00    7.61745   4.88774    0.002
 5089.00    9.01663   4.94100    0.002
 5090.00   10.13125   4.95736    0.002
 5091.00    8.07651   5.07257    0.002
 5092.00    6.39936   5.23649    0.002
 5093.00    7.66405   5.21635    0.002
 5094.00    8.85176   5.00738    0.002
 5095.00    9.58584   4.79661    0.002
 5096.00   10.10782   4.60393    0.002
 5097.00    9.63997   4.33578    0.002
 5098.00    9.12978   4.15554    0.002
 5099.00    8.45823   4.37887    0.002
 5100.00    8.09270   4.78451    0.002
 5101.00    8.70056   4.95396    0.002
 5102.00    9.27121   4.86189    0.002
 5103.00    9.74156   4.72763    0.002
 5104.00    9.53805   4.68176    0.002
 5105.00    7.77643   4.63364    0.002
 5106.00    6.97317   4.48566    0.002
 5107.00    8.08719   4.40432    0.002
 5108.00    8.99135   4.41304    0.002
 5109.00    9.52984   4.38801    0.002
 5110.00    9.27765   4.52500    0.002
 5111.00    7.81943   4.75543    0.002
 5112.00    7.41402   4.84726    0.002
 5113.00    8.41936   4.93863    0.002
 5114.00    9.08819   5.04164    0.002
 5115.00    9.35991   5.11272    0.002
 5116.00    8.83626   5.25081    0.002
 5117.00    7.48502   5.33172    0.002
 5118.00    8.02502   5.24050    0.002
 5119.00   10.30077   5.04963    0.002
 5120.00   11.08628   4.84944    0.002
 5121.00   10.66619   4.64599    0.002
 5122.00   10.13832   4.34828    0.002
 5123.00    9.53371   4.16042    0.002
 5124.00    8.79440   4.26662    0.002
 5125.00    7.97094   4.40810    0.002
 5126.00    8.40885   4.39821    0.002
 5127.00    9.53534   4.34963    0.002
 5128.00    9.35368   4.35654    0.002
 5129.00    8.55143   4.46979    0.002
 5130.00    7.86870   4.70267    0.002
 5131.00    7.23490   4.87235    0.002
 5132.00    7.22658   4.88775    0.002
 5133.00    7.43693   4.93624    0.002
 5134.00    8.39501   5.09604    0.002
 5135.00    9.57354   5.04949    0.002
 5136.00    8.97647   4.77335    0.002
 5137.00    7.94566   4.52843    0.002
 5138.00    7.89086   4.41149    0.002
 5139.00    8.02887   4.60843    0.002
 5140.00    7.62708   4.79532    0.002
 5141.00    7.14205   4.56649    0.002
 5142.00    6.91701   4.44217    0.002
 5143.00    6.72158   4.64524    0.002
 5144.00    7.51660   4.67372    0.002
 5145.00    8.38719   4.49057    0.002
 5146.00    8.19394   4.39111    0.002
 5147.00    7.95692   4.46414    0.002
 5148.00    7.35027   4.61938    0.002
 5149.00    6.77658   4.62362    0.002
 5150.00    7.71850   4.49044    0.002
 5151.00    8.63865   4.40814    0.002
 5152.00    9.18171   4.40121    0.002
 5153.00    9.65441   4.47286    0.002
 5154.00    9.37863   4.68446    0.002
 5155.00    9.05035   4.95697    0.002
 5156.00    8.32701   5.18511    0.002
 5157.00    7.83662   5.26852    0.002
 5158.00    8.68051   5.20628    0.002
 5159.00    9.44535   5.21160    0.002
 5160.00    9.85004   5.19206    0.002
 5161.00   10.07506   4.96287    0.002
 5162.00    9.62971   4.76097    0.002
 5163.00    9.24612   4.57272    0.002
 5164.00    9.05520   4.09413    0.002
 5165.00    9.21842   3.39649    0.002
 5166.00   10.31954   2.86008    0.002
 5167.00   10.37196   2.87793    0.002
 5168.00    8.03972   3.39993    0.002
 5169.00    6.88530   3.80449    0.002
 5170.00    8.05014   3.49548    0.002
 5171.00    8.50300   2.80860    0.002
 5172.00    7.73398   2.72285    0.002
 5173.00    6.67730   3.46957    0.003
 5174.00    5.18828   4.26165    0.003
 5175.00    4.93469   4.55758    0.003
 5176.00    6.31286   4.63481    0.003
 5177.00    7.59898   4.72068    0.002
 5178.00    8.77800   4.68856    0.002
 5179.00    9.67227   4.48877    0.002
 5180.00   10.27443   4.11939    0.002
 5181.00   10.32168   3.48950    0.002
 5182.00    9.86680   2.81184    0.002
 5183.00    9.62600   2.78788    0.002
 5184.00    9.55593   3.60131    0.002
 5185.00    8.81657   4.49463    0.002
 5186.00    7.60763   4.90930    0.002
 5187.00    7.47268   4.96282    0.002
 5188.00    7.99865   5.06793    0.002
 5189.00    8.15689   5.15584    0.002
 5190.00    8.11747   4.74033    0.000
 5191.00    7.75601   4.17566    0.000
 5192.00    7.24424   4.19203    0.000
 5193.00    7.38192   4.51506    0.000
 5194.00    7.78086   4.61814    0.000
 5195.00    8.18492   4.71973    0.000
 5196.00    8.59073   4.97285    0.000
 5197.00    8.43829   5.17192    0.000
 5198.00    8.12456   5.28608    0.000
 5199.00    7.60501   5.31785    0.000
 5200.00    7.03630   5.22939    0.000
 5201.00    8.38227   5.09365    0.000
 5202.00   10.09683   4.92875    0.000
 5203.00    9.60877   4.53218    0.000
 5204.00    8.79137   4.02324    0.000
 5205.00    9.83699   3.85355    0.000
 5206.00   11.08665   3.91386    0.000
 5207.00   10.84638   3.82873    0.000
 5208.00   10.49853   3.88035    0.000
 5209.00   10.47857   4.27103    0.000
 5210.00   10.47085   4.77880    0.000
 5211.00   10.25941   5.23400    0.002
 5212.00   10.04097   5.46266    0.002
 5213.00    9.60167   5.37433    0.002
 5214.00    9.16316   5.06193    0.002
 5215.00    8.73744   4.86189    0.002
 5216.00    8.30081   4.98763    0.002
 5217.00    7.75323   5.30404    0.002
 5218.00    7.27702   5.54973    0.002
 5219.00    7.32022   5.63441    0.002
 5220.00    7.50259   5.66648    0.002
 5221.00    8.46031   5.59413    0.002
 5222.00    9.27248   5.30657    0.002
 5223.00    9.43715   4.86312    0.002
 5224.00    9.56431   4.40253    0.002
 5225.00    9.55445   4.03120    0.002
 5226.00    9.72508   4.02517    0.002
 5227.00   10.44819   4.61924    0.002
 5228.00   10.67822   5.28728    0.002
 5229.00    9.62518   5.55266    0.002
 5230.00    8.73434   5.56427    0.002
 5231.00    8.20624   5.31661    0.002
 5232.00    8.44963   4.98064    0.002
 5233.00   10.18834   4.97113    0.002
 5234.00   10.76687   5.23186    0.002
 5235.00    9.38430   5.59133    0.002
 5236.00    8.78680   5.87617    0.002
 5237.00    9.35200   5.92037    0.002
 5238.00    9.53706   5.80990    0.002
 5239.00    9.22720   5.74299    0.002
 5240.00    8.80505   5.77006    0.002
 5241.00    8.25412   5.76909    0.002
 5242.00    8.15505   5.78278    0.002
 5243.00    8.51302   5.94933    0.002
 5244.00    8.37956   5.97912    0.002
 5245.00    7.80768   5.52956    0.002
 5246.00    7.43168   5.01962    0.002
 5247.00    7.20969   5.03396    0.002
 5248.00    7.33376   5.18948    0.002
 5249.00    7.69710   5.03182    0.002
 5250.00    7.91988   4.98413    0.002
 5251.00    8.05745   5.25239    0.002
 5252.00    9.16436   5.45076    0.002
 5253.00   10.78424   5.34161    0.002
 5254.00   10.04600   5.18219    0.002
 5255.00    8.22491   5.45502    0.002
 5256.00    7.54453   5.96437    0.002
 5257.00    7.31514   6.22526    0.002
 5258.00    7.49764   6.17656    0.002
 5259.00    7.81887   5.90827    0.002
 5260.00    8.09226   5.50568    0.002
 5261.00    8.35210   5.02277    0.002
 5262.00    9.11871   4.58022    0.002
 5263.00   10.00362   4.27617    0.002
 5264.00    9.57938   4.07585    0.002
 5265.00    8.90966   4.09762    0.002
 5266.00    8.82469   4.47048    0.002
 5267.00    8.82443   4.51503    0.002
 5268.00    9.26878   3.86315    0.002
 5269.00    9.75991   3.58450    0.002
 5270.00   10.25032   4.29020    0.002
 5271.00   10.74069   5.08109    0.002
 5272.00    9.39498   5.32354    0.002
 5273.00    7.98768   5.27686    0.002
 5274.00    8.31134   5.17519    0.002
 5275.00    8.61201   5.32921    0.002
 5276.00    8.11548   5.83443    0.002
 5277.00    7.66999   6.19750    0.002
 5278.00    8.00161   6.14989    0.002
 5279.00    8.34800   5.84074    0.002
 5280.00    8.83847   5.51660    0.002
 5281.00    9.34786   5.30310    0.002
 5282.00    9.99043   5.17856    0.002
 5283.00   10.42096   5.28871    0.002
 5284.00    9.70177   5.80685    0.002
 5285.00    8.82976   6.35527    0.002
 5286.00    7.29373   6.48641    0.002
 5287.00    6.33276   6.33083    0.002
 5288.00    7.42948   6.28790    0.002
 5289.00    8.38209   6.43624    0.002
 5290.00    8.90188   6.52820    0.002
 5291.00    9.35629   6.41795    0.002
 5292.00    9.64357   6.24209    0.002
 5293.00    9.54468   6.17802    0.002
 5294.00    8.59628   6.06212    0.002
 5295.00    7.78652   5.62048    0.002
 5296.00    7.24129   5.02859    0.002
 5297.00    6.93310   4.85676    0.002
 5298.00    7.01959   5.28101    0.002
 5299.00    7.02406   5.67164    0.002
 5300.00    6.90880   5.65757    0.002
 5301.00    7.22463   5.68134    0.002
 5302.00    8.09369   6.01816    0.002
 5303.00    8.71590   6.43634    0.002
 5304.00    9.05900   6.64843    0.002
 5305.00    9.17753   6.56794    0.002
 5306.00    9.07209   6.37067    0.002
 5307.00    8.86927   6.36376    0.002
 5308.00    8.58079   6.55288    0.002
 5309.00    8.05342   6.66758    0.002
 5310.00    7.34093   6.61767    0.002
 5311.00    7.34452   6.49244    0.002
 5312.00    7.83602   6.37904    0.002
 5313.00    8.55148   6.33848    0.002
 5314.00    9.40069   6.31116    0.002
 5315.00   10.16075   6.22031    0.002
 5316.00   10.87438   6.17709    0.002
 5317.00   10.33276   6.22214    0.002
 5318.00    9.22412   6.22128    0.002
 5319.00    8.98810   6.19725    0.002
 5320.00    9.09110   6.19041    0.002
 5321.00    9.54587   6.09941    0.002
 5322.00   10.11692   5.82898    0.002
 5323.00   10.23770   5.55730    0.002
 5324.00   10.23364   5.60322    0.002
 5325.00    9.85723   5.58351    0.002
 5326.00    9.39589   4.93933    0.002
 5327.00    8.78720   4.19381    0.002
 5328.00    8.15161   4.38622    0.002
 5329.00    7.95704   5.29266    0.002
 5330.00    7.82431   5.91559    0.002
 5331.00    7.71577   5.99670    0.002
 5332.00    7.60967   5.99245    0.002
 5333.00    8.55559   6.24694    0.002
 5334.00    9.56898   6.50300    0.002
 5335.00    8.56796   6.50543    0.002
 5336.00    7.51002   6.40421    0.002
 5337.00    7.70387   6.29475    0.002
 5338.00    7.89216   5.94933    0.002
 5339.00    7.92137   5.45043    0.002
 5340.00    7.95717   5.39858    0.002
 5341.00    8.08743   5.87351    0.002
 5342.00    8.35121   6.25354    0.002
 5343.00    9.86479   6.29351    0.002
 5344.00   11.16577   6.12214    0.002
 5345.00   11.01684   5.99275    0.002
 5346.00   10.59438   6.02547    0.002
 5347.00    8.72775   5.91305    0.002
 5348.00    7.37999   5.75285    0.002
 5349.00    8.23562   5.94022    0.002
 5350.00    9.00679   6.34847    0.002
 5351.00    9.48196   6.59158    0.002
 5352.00    9.75606   6.64731    0.002
 5353.00    9.43753   6.78996    0.002
 5354.00    9.31409   6.99695    0.002
 5355.00    9.68082   7.05236    0.002
 5356.00   10.06333   7.03536    0.002
 5357.00   10.47999   7.01569    0.002
 5358.00   10.52244   6.97772    0.002
 5359.00    9.86195   6.88264    0.002
 5360.00    9.15048   6.67738    0.002
 5361.00    8.35536   6.49318    0.002
 5362.00    7.68011   6.44999    0.002
 5363.00    7.17724   6.37286    0.002
 5364.00    7.16451   6.21978    0.002
 5365.00    7.77187   6.18789    0.002
 5366.00    8.55275   6.20730    0.002
 5367.00    9.52708   6.14832    0.002
 5368.00    9.88218   5.85586   -2.000
 5369.00    9.62837   5.32128   -2.000
 5370.00    8.86532   5.02372   -2.000
 5371.00    7.66067   5.40016   -2.000
 5372.00    7.43308   6.16733   -2.000
 5373.00    7.95186   6.67870   -2.000
 5374.00    8.64987   6.81917   -2.000
 5375.00    9.46821   6.70433   -2.000
 5376.00    9.39001   6.55987   -2.000
 5377.00    8.78448   6.63809   -2.000
 5378.00    8.79071   6.76742   -2.000
 5379.00    9.11066   6.70978   -2.000
 5380.00    9.19755   6.56963   -2.000
 5381.00    9.18088   6.44402   -2.000
 5382.00    8.68440   6.34842   -2.000
 5383.00    8.00477   6.43596    0.002
 5384.00    7.73592   6.62888    0.002
 5385.00    7.60029   6.67438    0.002
 5386.00    8.56746   6.59596    0.002
 5387.00    9.83406   6.46516    0.002
 5388.00    9.91577   6.24672    0.002
 5389.00    9.73351   6.03916    0.002
 5390.00    8.66307   5.96966    0.002
 5391.00    7.43488   5.99668    0.002
 5392.00    7.25960   6.02164    0.002
 5393.00    7.22717   6.02305    0.002
 5394.00    7.98383   5.95595    0.002
 5395.00    8.81673   5.63045    0.002
 5396.00    9.12703   5.31469    0.002
 5397.00    9.40589   5.60308    0.002
 5398.00    9.83551   6.12325    0.002
 5399.00   10.27144   6.27190    0.002
 5400.00   11.10454   6.28868    0.002
 5401.00   11.85223   6.37277    0.002
 5402.00   10.39781   6.17039    0.002
 5403.00    9.04900   5.58452    0.002
 5404.00    9.13188   5.06344    0.002
 5405.00    9.25004   5.05880    0.002
 5406.00    9.68559   5.52115    0.002
 5407.00   10.02103   5.84892    0.002
 5408.00    9.69482   5.71276    0.002
 5409.00    9.50247   5.57542    0.002
 5410.00    9.99862   5.91653    0.002
 5411.00   10.31854   6.40758    0.002
 5412.00    9.90691   6.59599    0.002
 5413.00    9.48992   6.53281    0.002
 5414.00    9.05459   6.53210    0.002
 5415.00    8.58931   6.74875    0.002
 5416.00    8.03740   6.95677    0.002
 5417.00    7.67624   6.92226    0.002
 5418.00    7.78616   6.70675    0.002
 5419.00    8.24323   6.49303    0.002
 5420.00    9.43941   6.49438    0.002
 5421.00    9.88975   6.63313    0.002
 5422.00    8.96068   6.51574    0.002
 5423.00    8.08703   6.26262    0.002
 5424.00    7.30293   6.40282    0.002
 5425.00    7.31135   6.81973    0.002
 5426.00    8.44314   7.00584    0.002
 5427.00    8.91982   6.61719    0.002
 5428.00    8.57954   5.88177    0.002
 5429.00    8.20648   5.70842    0.002
 5430.00    7.79739   6.15408    0.002
 5431.00    7.85975   6.27508    0.002
 5432.00    8.37918   5.96687    0.002
 5433.00    9.06483   5.71521    0.002
 5434.00    9.89259   5.71116    0.002
 5435.00    9.90488   5.94490    0.002
 5436.00    9.30315   6.31736    0.002
 5437.00    9.16969   6.75776    0.002
 5438.00    9.34607   7.08841    0.002
 5439.00    9.40339   7.22549    0.002
 5440.00    9.39173   7.24106    0.002
 5441.00    9.33976   7.22452    0.002
 5442.00    9.26742   7.17976    0.002
 5443.00    9.16148   6.93795    0.002
 5444.00    9.04085   6.40841    0.002
 5445.00    9.07622   5.77526    0.002
 5446.00    9.17010   5.56600    0.002
 5447.00    9.02791   6.02693    0.002
 5448.00    8.81062   6.58534    0.002
 5449.00    8.44593   6.80544    0.002
 5450.00    8.04205   6.76951    0.002
 5451.00    7.68779   6.64387    0.002
 5452.00    7.34433   6.43899    0.002
 5453.00    7.90124   6.05431    0.002
 5454.00    8.61369   5.63904    0.002
 5455.00    8.72161   5.69270    0.002
 5456.00    8.75027   6.26560    0.002
 5457.00    8.88252   6.77582    0.002
 5458.00    9.02433   6.88602    0.002
 5459.00    9.15785   6.69666    0.002
 5460.00    9.29090   6.46341    0.002
 5461.00    9.05913   6.24123    0.002
 5462.00    8.82174   6.09265    0.002
 5463.00    8.84795   6.27683    0.002
 5464.00    8.90980   6.56996    0.002
 5465.00    9.80797   6.62519    0.002
 5466.00   10.58539   6.63009    0.002
 5467.00    9.81189   6.69551    0.002
 5468.00    9.13976   6.61146    0.002
 5469.00    9.34476   6.42330    0.002
 5470.00    9.49182   6.40130    0.002
 5471.00    9.26745   6.43473    0.002
 5472.00    9.04282   6.28725    0.002
 5473.00    8.81688   6.18272    0.002
 5474.00    8.67584   6.09536    0.002
 5475.00    8.87944   5.73950    0.002
 5476.00    9.00034   5.59928    0.002
 5477.00    8.84285   6.08253    0.002
 5478.00    8.98293   6.54684   -2.000
 5479.00    9.96822   6.41008   -2.000
 5480.00   10.65761   6.00884   -2.000
 5481.00   10.62869   5.97011   -2.000
 5482.00   10.78823   6.29380   -2.000
 5483.00   11.34258   6.68394   -2.000
 5484.00   10.37396   6.92974   -2.000
 5485.00    6.63188   6.80182   -2.000
 5486.00    4.10782   6.43110   -2.000
 5487.00    3.52258   6.30444   -2.000
 5488.00    4.25906   6.45933   -2.000
 5489.00    6.84192   6.56201   -2.000
 5490.00    8.92736   6.66539   -2.000
 5491.00   10.40127   6.73367   -2.000
 5492.00   10.37310   6.61125   -2.000
 5493.00    8.71712   6.55289   -2.000
 5494.00    8.12778   6.67215   -2.000
 5495.00    8.55801   6.62984   -2.000
 5496.00    9.37938   6.42930   -2.000
 5497.00   10.53041   6.53795   -2.000
 5498.00   10.75180   6.87124   -2.000
 5499.00   10.28324   6.86307   -2.000
 5500.00   10.06585   6.53509   -2.000
 5501.00   10.01221   6.36049   -2.000
 5502.00    9.82946   6.43269    0.002
 5503.00    9.57305   6.50538    0.002
 5504.00    9.21983   6.39143    0.002
 5505.00    8.81851   6.16902    0.002
 5506.00    8.57914   6.25436    0.002
 5507.00    8.40936   6.60812    0.002
 5508.00    7.97627   6.74896    0.002
 5509.00    7.44619   6.63207    0.002
 5510.00    7.93894   6.38025    0.002
 5511.00    8.75088   6.07629    0.002
 5512.00    8.96440   5.98272    0.002
 5513.00    9.02220   6.09756    0.002
 5514.00    9.32798   6.25579    0.002
 5515.00    9.68640   6.42151    0.002
 5516.00    9.67595   6.64621    0.002
 5517.00    9.60356   6.95864    0.002
 5518.00    9.72583   7.12502    0.002
 5519.00    9.87275   7.06055    0.002
 5520.00    9.72573   6.97448    0.002
 5521.00    9.55280   6.96708    0.002
 5522.00    9.20699   6.97993    0.002
 5523.00    8.85215   6.95501    0.002
 5524.00    7.67487   6.85613    0.002
 5525.00    6.50434   6.66081    0.002
 5526.00    7.00560   6.34157    0.002
 5527.00    7.54580   6.10750    0.002
 5528.00    8.92392   6.31111    0.002
 5529.00   10.19604   6.74180    0.002
 5530.00   10.17509   6.92601    0.002
 5531.00   10.13621   6.86667    0.002
 5532.00    9.94793   6.79566    0.002
 5533.00    9.76875   6.72951    0.002
 5534.00    9.64616   6.65254    0.002
 5535.00    9.54163   6.69588    0.002
 5536.00    9.52536   6.75680    0.004
 5537.00    9.47197   6.76577   -1.000
 5538.00    9.27126   6.89900   -1.000
 5539.00    9.10626   7.11586   -1.000
 5540.00    9.05906   7.20848   -1.000
 5541.00    8.97796   7.08551   -1.000
 5542.00    8.80228   6.90334   -1.000
 5543.00    8.79588   6.89007    0.012
 5544.00    9.19349   6.92798    0.003
 5545.00    9.32087   6.88510    0.002
 5546.00    8.89121   6.98493    0.002
 5547.00    8.61834   7.24815    0.002
 5548.00    8.62663   7.39212    0.002
 5549.00    8.95392   7.38964    0.002
 5550.00    9.78148   7.35288    0.002
 5551.00   10.11623   7.24645    0.002
 5552.00    9.77245   7.06795    0.002
 5553.00    9.44734   6.93729    0.002
 5554.00    9.14485   6.96690    0.002
 5555.00    8.95067   7.04960    0.002
 5556.00    8.87221   7.02703    0.002
 5557.00    9.06570   6.99088    0.002
 5558.00    9.51551   7.04246    0.002
 5559.00    9.76083   7.05761    0.002
 5560.00    9.83625   6.96594    0.002
 5561.00    9.44821   6.82564    0.002
 5562.00    8.72115   6.78535    0.002
 5563.00    8.26647   6.86192    0.002
 5564.00    7.98675   6.81032    0.002
 5565.00    7.90763   6.66220    0.002
 5566.00    7.94121   6.66118    0.002
 5567.00    8.44696   6.71409    0.002
 5568.00    9.18357   6.68610    0.002
 5569.00   10.01635   6.77066    0.002
 5570.00   10.88975   6.92399    0.002
 5571.00   10.99607   6.77357    0.002
 5572.00   10.82488   6.63214    0.002
 5573.00    9.71781   6.87147    0.002
 5574.00    8.32435   7.05254    0.002
 5575.00    7.88555   7.01805    0.002
 5576.00    7.68982   7.06317    0.002
 5577.00    8.40370   7.09410    0.002
 5578.00    9.30599   7.07320    0.002
 5579.00    9.44171   7.13511    0.002
 5580.00    9.45240   7.11649    0.002
 5581.00    9.68257   7.00519    0.002
 5582.00    9.93956   6.97194    0.002
 5583.00    9.91354   6.88729    0.002
 5584.00    9.86373   6.63674    0.002
 5585.00    9.78673   6.27503    0.002
 5586.00    9.70841   5.95680    0.002
 5587.00    9.39870   5.87538    0.002
 5588.00    9.07848   6.01286    0.002
 5589.00    8.34119   6.28261    0.002
 5590.00    7.64117   6.53196    0.002
 5591.00    7.68130   6.61063    0.002
 5592.00    7.72339   6.57317    0.002
 5593.00    7.78835   6.57194    0.002
 5594.00    7.85608   6.82965    0.002
 5595.00    7.94616   7.19283    0.002
 5596.00    8.13489   7.13147    0.002
 5597.00    8.91962   6.75542    0.002
 5598.00    9.63045   6.57238    0.002
 5599.00    9.98892   6.52697    0.002
 5600.00   10.01132   6.39266    0.002
 5601.00    8.72834   6.29919    0.002
 5602.00    7.76095   6.44481    0.002
 5603.00    7.81464   6.85475    0.002
 5604.00    7.97098   7.26212    0.002
 5605.00    8.40849   7.48515    0.002
 5606.00    8.89223   7.52952    0.002
 5607.00    9.48442   7.46291    0.002
 5608.00    9.72501   7.39252    0.002
 5609.00    9.25233   7.38572    0.002
 5610.00    8.98470   7.47175    0.002
 5611.00    9.07920   7.57017    0.002
 5612.00    8.99124   7.44393    0.002
 5613.00    8.62137   6.87387    0.002
 5614.00    8.54479   6.19851    0.002
 5615.00    8.86623   6.16240    0.002
 5616.00    9.03095   6.64395    0.002
 5617.00    9.00842   6.90579    0.002
 5618.00    8.94003   6.85956    0.002
 5619.00    8.82334   6.86211    0.002
 5620.00    8.47395   7.04389    0.002
 5621.00    7.90833   7.15804    0.002
 5622.00    7.73028   6.92297    0.002
 5623.00    7.86972   6.46447    0.002
 5624.00    7.93105   6.30314    0.002
 5625.00    7.93608   6.58334    0.002
 5626.00    8.04314   6.88276    0.002
 5627.00    8.21477   7.05061    0.002
 5628.00    8.72498   7.25443    0.002
 5629.00    9.42251   7.42502    0.002
 5630.00    9.34085   7.45340    0.002
 5631.00    8.88426   7.38791    0.002
 5632.00    8.64596   7.28746    0.002
 5633.00    8.49835   7.15851    0.002
 5634.00    8.54299   7.02667    0.002
 5635.00    8.65594   6.89357    0.002
 5636.00    8.47014   6.81175    0.002
 5637.00    8.19472   6.87909    0.002
 5638.00    8.24606   7.01410    0.002
 5639.00    8.37880   6.99042    0.002
 5640.00    8.02096   6.83264    0.002
 5641.00    7.56403   6.81219    0.002
 5642.00    5.63772   6.92063    0.002
 5643.00    3.47875   7.00055    0.002
 5644.00    4.84961   7.07132    0.002
 5645.00    6.63606   7.14462    0.002
 5646.00    7.82125   7.20450    0.002
 5647.00    8.95841   7.18797    0.002
 5648.00    9.33329   7.10325    0.002
 5649.00    9.67425   7.11800    0.002
 5650.00    9.75741   7.29408    0.002
 5651.00    9.83916   7.44915    0.002
 5652.00    9.99518   7.39292    0.002
 5653.00   10.11679   7.15216    0.002
 5654.00    9.60401   7.04379    0.002
 5655.00    9.09722   7.14067    0.002
 5656.00    8.65663   6.94278    0.002
 5657.00    8.26591   6.43961    0.002
 5658.00    8.26202   6.38642    0.002
 5659.00    8.31698   6.79653    0.002
 5660.00    8.71742   6.93775    0.002
 5661.00    8.93649   6.78513    0.002
 5662.00    8.31178   6.84009    0.002
 5663.00    7.92803   7.14542    0.002
 5664.00    8.46030   7.36791    0.002
 5665.00    8.92898   7.33609    0.002
 5666.00    9.19589   7.14182    0.002
 5667.00    9.49875   7.03443    0.002
 5668.00    9.89828   7.07653    0.002
 5669.00   10.03683   7.14036    0.002
 5670.00    9.57324   7.22689    0.002
 5671.00    9.24842   7.45217    0.002
 5672.00    9.20068   7.68941    0.002
 5673.00    8.99776   7.70456    0.002
 5674.00    8.52495   7.60345    0.002
 5675.00    8.56217   7.64520    0.002
 5676.00    9.37591   7.72514    0.002
 5677.00   10.12362   7.63967    0.002
 5678.00   10.78303   7.51167    0.002
 5679.00   10.85415   7.47168    0.002
 5680.00   10.23233   7.36839    0.002
 5681.00    9.73853   7.13356    0.002
 5682.00    9.37770   7.06615    0.002
 5683.00    9.16468   7.26281    0.002
 5684.00    9.08708   7.38687    0.002
 5685.00    8.93567   7.22945    0.002
 5686.00    8.72466   6.99756    0.002
 5687.00    8.37040   6.97120    0.002
 5688.00    7.91434   7.16857    0.002
 5689.00    7.68414   7.42389    0.002
 5690.00    7.59477   7.61558    0.002
 5691.00    7.87126   7.76261    0.002
 5692.00    8.34708   7.79449    0.002
 5693.00    8.76614   7.68815    0.002
 5694.00    9.15831   7.60716    0.002
 5695.00    9.50073   7.61349    0.002
 5696.00    9.82283   7.53704    0.002
 5697.00    9.98885   7.32267    0.002
 5698.00   10.10044   7.19835    0.002
 5699.00    9.70302   7.12841    0.002
 5700.00    9.15593   6.95921    0.002
 5701.00    8.69543   6.89839    0.002
 5702.00    8.25602   7.08192    0.002
 5703.00    8.52413   7.29691    0.002
 5704.00    8.93156   7.27001    0.002
 5705.00    9.47097   7.01796    0.002
 5706.00   10.03064   6.77379    0.002
 5707.00    9.79163   6.59542    0.002
 5708.00    9.46210   6.52713    0.002
 5709.00    9.20638   6.64263    0.002
 5710.00    8.95625   6.72282    0.002
 5711.00    8.87674   6.81472    0.002
 5712.00    8.80418   7.15274    0.002
 5713.00    9.45184   7.46498    0.002
 5714.00   10.07712   7.58658    0.002
 5715.00    9.54682   7.65881    0.002
 5716.00    9.05514   7.67023    0.002
 5717.00    9.22698   7.66972    0.002
 5718.00    9.38725   7.74760    0.002
 5719.00    9.42511   7.82335    0.002
 5720.00    9.41196   7.90859    0.002
 5721.00    9.01641   8.03465    0.002
 5722.00    8.72972   8.10147    0.002
 5723.00    9.06428   8.07039    0.002
 5724.00    9.35883   7.97124    0.002
 5725.00    9.47160   7.73298    0.002
 5726.00    9.44159   7.50053    0.002
 5727.00    8.88019   7.59571    0.002
 5728.00    8.53857   7.85293    0.002
 5729.00    8.88098   7.80986    0.002
 5730.00    9.23792   7.53739    0.002
 5731.00    9.63327   7.51303    0.002
 5732.00    9.77218   7.77626    0.002
 5733.00    9.32918   7.97120    0.002
 5734.00    9.15061   7.98737    0.002
 5735.00    9.49171   7.89642    0.002
 5736.00    9.83288   7.79960    0.002
 5737.00   10.17419   7.78144    0.002
 5738.00   10.27279   7.80656    0.002
 5739.00   10.00730   7.82767    0.002
 5740.00    9.61022   7.81720    0.000
 5741.00    9.03966   7.74314    0.000
 5742.00    8.79012   7.71143    0.000
 5743.00    8.91335   7.85631    0.000
 5744.00    9.13177   8.07398    0.000
 5745.00    9.44769   8.08640    0.000
 5746.00    9.64178   7.80610    0.000
 5747.00    9.72584   7.54300    0.000
 5748.00   10.08418   7.65941    0.000
 5749.00   10.66086   7.95582    0.000
 5750.00   10.59412   7.98511    0.000
 5751.00   10.07679   7.67543    0.000
 5752.00    9.64877   7.30081    0.000
 5753.00    9.27561   7.20580    0.000
 5754.00    8.87165   7.51563    0.000
 5755.00    8.45116   7.94217    0.000
 5756.00    8.65236   8.16477    0.000
 5757.00    9.14317   8.15236    0.000
 5758.00    9.78484   7.94873    0.000
 5759.00   10.48708   7.63414    0.000
 5760.00   10.58333   7.33113    0.000
 5761.00   10.47210   7.17538    0.000
 5762.00   10.29838   7.33868    0.000
 5763.00   10.10664   7.78114    0.000
 5764.00   10.16537   8.12013    0.000
 5765.00   10.28374   8.20737    0.000
 5766.00   10.32978   8.21620    0.000
 5767.00   10.36194   8.19980    0.000
 5768.00   10.25859   8.12855    0.000
 5769.00   10.13506   8.05178    0.000
 5770.00   10.13914   7.96919    0.000
 5771.00   10.15713   7.89077    0.000
 5772.00   10.26776   7.87659    0.000
 5773.00   10.38504   7.86547    0.000
 5774.00    9.92344   7.88761    0.000
 5775.00    9.44051   8.00354    0.000
 5776.00    9.60934   8.08292    0.000
 5777.00    9.78381   8.04546    0.000
 5778.00   10.06234   7.84019    0.000
 5779.00   10.31140   7.38581    0.000
 5780.00   10.08667   6.94714    0.000
 5781.00    9.93748   6.89357    0.000
 5782.00   10.55314   7.05909    0.000
 5783.00   11.00792   7.02375    0.000
 5784.00   10.29691   6.88650    0.000
 5785.00    9.65157   7.08426    0.000
 5786.00    9.37095   7.51806    0.000
 5787.00    9.15838   7.80148    0.000
 5788.00    9.24771   7.87217    0.000
 5789.00    9.25735   7.73438    0.000
 5790.00    8.97665   7.60845    0.000
 5791.00    8.64320   7.75812   -2.000
 5792.00    8.14865   7.99962   -2.000
 5793.00    7.81728   8.17656   -2.000
 5794.00    7.90960   8.27355   -2.000
 5795.00    8.22161   8.13411   -2.000
 5796.00    9.02395   7.81852   -2.000
 5797.00    9.60874   7.72479   -2.000
 5798.00    9.77267   8.04781   -2.000
 5799.00    9.81447   8.41455   -2.000
 5800.00    9.65024   8.56169   -2.000
 5801.00    9.74372   8.55012   -2.000
 5802.00   10.21821   8.35566   -2.000
 5803.00   10.72696   8.04659   -2.000
 5804.00   11.28024   7.90624   -2.000
 5805.00   11.58106   7.95600   -2.000
 5806.00   11.59285   8.04493   -2.000
 5807.00   11.20866   8.10188   -2.000
 5808.00   10.42467   8.15194   -2.000
 5809.00    9.74312   8.23689   -2.000
 5810.00    9.15280   8.29642   -2.000
 5811.00    8.78620   8.28669    0.000
 5812.00    8.59516   8.24684    0.000
 5813.00    9.01635   8.11853    0.000
 5814.00    9.86006   7.88768    0.000
 5815.00   10.25065   7.75422    0.000
 5816.00   10.36707   7.91288    0.000
 5817.00   10.03301   8.24541    0.000
 5818.00    9.46104   8.46787    0.000
 5819.00    9.57697   8.52265    0.000
 5820.00   10.00814   8.47837    0.000
 5821.00    9.78493   8.37785    0.000
 5822.00    9.30358   8.30793    0.000
 5823.00    9.34293   8.32559    0.000
 5824.00    9.55727   8.39060    0.000
 5825.00    9.45562   8.41014    0.000
 5826.00    9.26475   8.39327    0.000
 5827.00    9.45323   8.41117    0.000
 5828.00    9.73001   8.48090    0.000
 5829.00    9.31001   8.50071    0.000
 5830.00    8.75981   8.44516    0.000
 5831.00    8.86086   8.41394    0.000
 5832.00    9.05588   8.36311    0.000
 5833.00    9.23449   8.22703    0.000
 5834.00    9.41138   8.18416    0.000
 5835.00    9.19013   8.30798    0.000
 5836.00    8.94195   8.33198    0.000
 5837.00    9.28015   8.21271    0.000
 5838.00    9.63773   8.24077    0.000
 5839.00    9.69013   8.43874    0.000
 5840.00    9.73947   8.59810    0.000
 5841.00    9.69876   8.65641    0.000
 5842.00    9.68964   8.64410    0.000
 5843.00   10.15775   8.54939    0.000
 5844.00   10.51749   8.39150    0.000
 5845.00    9.82583   8.22140    0.000
 5846.00    9.19224   8.08758    0.000
 5847.00    8.96596   8.07994    0.000
 5848.00    8.79548   8.16241    0.000
 5849.00    8.92659   8.21326    0.000
 5850.00    8.99895   8.13106    0.000
 5851.00    8.81675   7.90307    0.000
 5852.00    8.65833   7.71917    0.000
 5853.00    8.58480   7.78804    0.000
 5854.00    8.60360   7.91887    0.000
 5855.00    8.89900   7.76596    0.000
 5856.00    9.33224   7.42624    0.000
 5857.00   10.11710   7.33465    0.000
 5858.00   10.45175   7.58830    0.000
 5859.00    9.79797   7.89317    0.000
 5860.00    9.21156   8.03848    0.000
 5861.00    8.75344   7.97690    0.000
 5862.00    8.44966   7.92839    0.000
 5863.00    8.40240   8.02225    0.000
 5864.00    8.51344   8.05104    0.000
 5865.00    8.85510   7.90496    0.000
 5866.00    9.25471   7.85420    0.000
 5867.00    9.72855   8.06059    0.000
 5868.00    9.85547   8.29870    0.000
 5869.00    9.59080   8.39213    0.000
 5870.00    9.08175   8.33938    0.000
 5871.00    8.32942   8.20922    0.000
 5872.00    8.15332   8.12707    0.000
 5873.00    8.48314   8.20877    0.000
 5874.00    8.87906   8.31022    0.000
 5875.00    9.32611   8.24999    0.000
 5876.00    9.60270   8.11205    0.000
 5877.00    9.76335   7.98560    0.000
 5878.00    9.89234   7.81885    0.000
 5879.00   10.00245   7.66473    0.000
 5880.00   10.05556   7.72145    0.000
 5881.00   10.07903   7.88710    0.000
 5882.00   10.17801   7.87234    0.000
 5883.00   10.31103   7.76029    0.000
 5884.00   10.10087   7.76574    0.000
 5885.00    9.75768   7.73681    0.000
 5886.00    9.43232   7.30848    0.000
 5887.00    9.11284   6.23912    0.000
 5888.00    9.07782   4.85470    0.000
 5889.00    9.12146   4.23411    0.000
 5890.00    8.75146   4.90463    0.000
 5891.00    8.28739   5.94490    0.000
 5892.00    8.09571   6.44008    0.000
 5893.00    7.95357   6.19008    0.000
 5894.00    7.96930   5.35862    0.000
 5895.00    8.00708   4.94557    0.000
 5896.00    8.39005   5.68709    0.000
 5897.00    8.80765   6.71752    0.000
 5898.00    9.29262   7.25242    0.000
 5899.00    9.78188   7.55537    0.000
 5900.00    9.71067   7.80459    0.000
 5901.00    9.62307   7.91148   -1.000
 5902.00    9.54742   7.95768   -1.000
 5903.00    9.46518   7.96728   -1.000
 5904.00    9.19724   7.89524   -1.000
 5905.00    8.92196   7.86498   -1.000
 5906.00    8.54231   7.96723   -1.000
 5907.00    8.17385   8.08670   -1.000
 5908.00    7.90962   8.12897   -1.000
 5909.00    7.67880   8.15377   -1.000
 5910.00    7.67491   8.22188   -1.000
 5911.00    7.74349   8.20335   -1.000
 5912.00    8.19342   7.98557   -1.000
 5913.00    8.54540   7.72176    0.016
 5914.00    8.48261   7.62936    0.003
 5915.00    8.48124   7.70801    0.002
 5916.00    8.69462   7.89388    0.002
 5917.00    8.80318   8.06378    0.002
 5918.00    8.60351   8.16256    0.002
 5919.00    8.45150   8.22147    0.002
 5920.00    8.41899   8.16813    0.002
 5921.00    8.44184   8.06926    0.002
 5922.00    8.58428   8.09016    0.002
 5923.00    8.66161   8.19183    0.002
 5924.00    8.61686   8.28292    0.002
 5925.00    8.71715   8.34164    0.002
 5926.00    9.05490   8.29346    0.002
 5927.00    9.37602   8.13873    0.002
 5928.00    9.67328   7.95828    0.002
 5929.00    9.98799   7.91473    0.002
 5930.00   10.32473   8.13140    0.002
 5931.00   10.58256   8.35220    0.002
 5932.00   10.75257   8.27887    0.002
 5933.00   10.66432   8.02419    0.002
 5934.00   10.32256   7.94383    0.002
 5935.00   10.18225   8.12170    0.002
 5936.00   10.21631   8.28762    0.002
 5937.00   10.20092   8.37599    0.001
 5938.00   10.14783   8.42482    0.001
 5939.00    9.79873   8.28643    0.001
 5940.00    9.25126   8.04796    0.001
 5941.00    9.14541   7.99930    0.002
 5942.00    9.29880   8.14834    0.002
 5943.00    9.22935   8.34299    0.002
 5944.00    9.04585   8.50757    0.002
 5945.00    8.25680   8.56770    0.002
 5946.00    7.19925   8.44238    0.002
 5947.00    6.72089   8.18248    0.002
 5948.00    6.46313   8.04661    0.002
 5949.00    7.00501   8.18270    0.002
 5950.00    7.80562   8.30522    0.002
 5951.00    7.51552   8.15405    0.002
 5952.00    6.93004   8.01342    0.002
 5953.00    7.03203   8.15099    0.002
 5954.00    7.28671   8.27195    0.002
 5955.00    7.96958   8.14418    0.002
 5956.00    8.72824   7.99850    0.002
 5957.00    9.36111   8.05425    0.002
 5958.00    9.97700   8.25026    0.002
 5959.00    9.95387   8.45960    0.002
 5960.00    9.86934   8.60069    0.002
 5961.00    9.23954   8.62977    0.002
 5962.00    8.57720   8.58902    0.001
 5963.00    8.50597   8.52001    0.002
 5964.00    8.45047   8.39322    0.002
 5965.00    8.48756   8.34114    0.002
 5966.00    8.52546   8.47512    0.002
 5967.00    8.58396   8.61458    0.001
 5968.00    8.66577   8.68238    0.001
 5969.00    9.06128   8.74561    0.001
 5970.00    9.42715   8.78477    0.001
 5971.00    9.52770   8.76525    0.001
 5972.00    9.58634   8.72277    0.001
 5973.00    9.36903   8.61492    0.001
 5974.00    9.18112   8.39521    0.001
 5975.00    9.14385   8.17023    0.002
 5976.00    9.14007   8.08806    0.002
 5977.00    9.27492   8.15975    0.002
 5978.00    9.46584   8.33729    0.002
 5979.00    9.84891   8.53606    0.002
 5980.00   10.07732   8.58878    0.002
 5981.00    9.85933   8.42376    0.002
 5982.00    9.64653   8.09586    0.002
 5983.00    9.44655   7.85182    0.002
 5984.00    9.25363   7.96688    0.002
 5985.00    9.07571   8.24985    0.002
 5986.00    8.93030   8.38764    0.002
 5987.00    8.84487   8.46212    0.002
 5988.00    8.87240   8.56686    0.002
 5989.00    9.08209   8.57544    0.002
 5990.00    9.32268   8.45494    0.002
 5991.00    9.60697   8.44191    0.002
 5992.00    9.78963   8.63708    0.002
 5993.00    9.84577   8.79139    0.002
 5994.00    9.60411   8.74122    0.002
 5995.00    9.03570   8.53100    0.001
 5996.00    8.76042   8.29891    0.001
 5997.00    8.76882   8.22036    0.001
 5998.00    8.97978   8.32841    0.001
 5999.00    9.36361   8.48850    0.001
 6000.00    9.38229   8.52652    0.001
 6001.00    9.12650   8.38677    0.001
 6002.00    8.83581   8.30340    0.001
 6003.00    8.52207   8.41870    0.001
 6004.00    8.17489   8.46287    0.001
 6005.00    7.80838   8.28423    0.001
 6006.00    7.93822   8.01247    0.002
 6007.00    8.31811   7.90009    0.002
 6008.00    8.74920   8.17803    0.002
 6009.00    9.20263   8.57992    0.002
 6010.00    8.74157   8.65511    0.002
 6011.00    7.93833   8.40570    0.002
 6012.00    7.97081   8.17891    0.002
 6013.00    8.26856   8.21523    0.002
 6014.00    8.84571   8.32589    0.002
 6015.00    9.49695   8.27741    0.002
 6016.00    9.73381   8.23122    0.002
 6017.00    9.88082   8.28785    0.002
 6018.00    9.84876   8.25774    0.002
 6019.00    9.78588   8.15285    0.002
 6020.00    9.62531   8.15968    0.002
 6021.00    9.45199   8.26552    0.002
 6022.00    9.25361   8.35714    0.002
 6023.00    9.05293   8.44279    0.001
 6024.00    8.85042   8.57917    0.001
 6025.00    8.64781   8.64427    0.001
 6026.00    8.49029   8.64677    0.001
 6027.00    8.33714   8.75468    0.001
 6028.00    8.51971   8.87148    0.001
 6029.00    8.70618   8.86318    0.001
 6030.00    8.98319   8.83314    0.001
 6031.00    9.25737   8.90000    0.001
 6032.00    9.49547   8.98252    0.001
 6033.00    9.70261   8.99451    0.001
 6034.00    9.64314   8.97978    0.001
 6035.00    9.56499   8.98867    0.001
 6036.00    9.36757   9.00354    0.001
 6037.00    9.24013   8.98343    0.002
 6038.00    9.46237   8.90440    0.002
 6039.00    9.65007   8.82852    0.002
 6040.00    9.69792   8.82032    0.002
 6041.00    9.74864   8.87090    0.002
 6042.00    9.80903   8.99995    0.002
 6043.00    9.80162   9.12100    0.002
 6044.00    9.60210   9.17108    0.002
 6045.00    9.36349   9.20338    0.002
 6046.00    9.03022   9.19795    0.002
 6047.00    8.81120   9.12774    0.002
 6048.00    8.83101   9.09226    0.002
 6049.00    8.89278   9.17462    0.002
 6050.00    9.03082   9.20156    0.002
 6051.00    9.03223   9.08691    0.002
 6052.00    8.81658   8.94234    0.002
 6053.00    8.68175   8.86804    0.002
 6054.00    8.65963   8.79662    0.001
 6055.00    8.52730   8.70297    0.001
 6056.00    8.25973   8.69583    0.001
 6057.00    8.15409   8.81896    0.001
 6058.00    8.22365   8.99231    0.001
 6059.00    8.63938   9.09252    0.001
 6060.00    9.38542   9.05988    0.001
 6061.00    9.68732   8.91485    0.001
 6062.00    9.61552   8.70933    0.001
 6063.00    9.28583   8.46661    0.001
 6064.00    8.76507   8.32251    0.001
 6065.00    8.66539   8.56266    0.001
 6066.00    8.83971   9.04283    0.002
 6067.00    8.76554   9.32103    0.002
 6068.00    8.54988   9.35355    0.002
 6069.00    8.57654   9.33283    0.002
 6070.00    8.72336   9.35086    0.002
 6071.00    8.83885   9.39259    0.002
 6072.00    8.94091   9.41343    0.002
 6073.00    9.01807   9.40155    0.002
 6074.00    9.08609   9.33610    0.002
 6075.00    9.55988   9.21410    0.002
 6076.00   10.15998   9.04521    0.002
 6077.00   10.17932   8.84475    0.002
 6078.00   10.04795   8.77479    0.002
 6079.00    9.42272   8.82019    0.002
 6080.00    8.69296   8.72019    0.002
 6081.00    8.47083   8.59481    0.001
 6082.00    8.33363   8.69384    0.001
 6083.00    7.76475   8.82213    0.001
 6084.00    7.14145   8.79716    0.001
 6085.00    7.41277   8.79441    0.001
 6086.00    7.76251   8.90544    0.001
 6087.00    8.71478   8.96944    0.001
 6088.00    9.69825   8.82819    0.001
 6089.00    9.58391   8.61034    0.001
 6090.00    9.44763   8.57456    0.001
 6091.00    9.16808   8.65525    0.001
 6092.00    8.88966   8.73586    0.001
 6093.00    8.63534   8.91799    0.001
 6094.00    8.43757   9.10786    0.001
 6095.00    8.92539   9.08243    0.001
 6096.00    9.40011   8.97073    0.001
 6097.00    9.76615   8.99828    0.001
 6098.00   10.09110   9.14787    0.002
 6099.00   10.16138   9.17138    0.002
 6100.00   10.17809   8.78037    0.002
 6101.00    9.93384   8.12582    0.002
 6102.00    9.69470   7.94736    0.002
 6103.00    9.47581   8.46204    0.002
 6104.00    9.28125   8.96615    0.002
 6105.00    9.16681   9.07588    0.002
 6106.00    9.07842   8.97585    0.002
 6107.00    9.06253   8.96356    0.002
 6108.00    9.07472   9.12666    0.002
 6109.00    9.15381   9.16830    0.001
 6110.00    9.26207   9.01171    0.001
 6111.00    9.43037   9.00816    0.001
 6112.00    9.42565   9.23624    0.001
 6113.00    9.11129   9.39835    0.001
 6114.00    8.91990   9.29905    0.001
 6115.00    8.92101   9.08985    0.001
 6116.00    9.04738   9.05633    0.001
 6117.00    9.34589   9.10565    0.001
 6118.00    9.58842   8.93378    0.001
 6119.00    9.76324   8.58445    0.001
 6120.00    9.62742   8.21362    0.001
 6121.00    9.16030   8.06323    0.001
 6122.00    8.79272   8.44181    0.001
 6123.00    8.51878   8.97390    0.001
 6124.00    8.57697   9.09891    0.001
 6125.00    8.91066   8.95412    0.001
 6126.00    9.24810   8.81478    0.002
 6127.00    9.58827   8.75451    0.002
 6128.00    9.70029   8.86426    0.002
 6129.00    9.66604   9.10819    0.001
 6130.00    9.56814   9.29428    0.001
 6131.00    9.43454   9.35037    0.001
 6132.00    9.37316   9.28370    0.002
 6133.00    9.34702   8.98294    0.002
 6134.00    9.37954   8.39712    0.002
 6135.00    9.43679   7.69185    0.002
 6136.00    9.37934   7.39096    0.002
 6137.00    9.28047   7.93247    0.002
 6138.00    9.12793   8.81485    0.002
 6139.00    8.95900   9.16582    0.002
 6140.00    9.03407   8.94293    0.002
 6141.00    9.17109   8.82125    0.001
 6142.00    9.12920   9.11235    0.001
 6143.00    9.05036   9.42796    0.001
 6144.00    8.69015   9.47906    0.001
 6145.00    8.28421   9.38418    0.001
 6146.00    8.22054   9.24670    0.001
 6147.00    8.19849   9.06085    0.001
 6148.00    8.39500   8.85604    0.001
 6149.00    8.60977   8.77238    0.001
 6150.00    8.80441   8.88352    0.001
 6151.00    8.99810   9.07766    0.001
 6152.00    9.28617   9.11897    0.001
 6153.00    9.57332   8.93738    0.001
 6154.00    9.72775   8.80899    0.001
 6155.00    9.87214   8.85932    0.001
 6156.00    9.81900   8.89450    0.002
 6157.00    9.75299   8.84877    0.002
 6158.00    9.53845   8.67492    0.002
 6159.00    9.31866   8.13773    0.002
 6160.00    9.05694   7.34908    0.002
 6161.00    8.81154   6.93624    0.002
 6162.00    8.66430   7.21037    0.002
 6163.00    8.60595   7.81393    0.002
 6164.00    8.97012   8.25733    0.002
 6165.00    9.24521   8.46892    0.002
 6166.00    9.17521   8.56951    0.001
 6167.00    9.14253   8.33975    0.001
 6168.00    9.23027   7.83290    0.001
 6169.00    9.28182   7.73936    0.001
 6170.00    9.23448   8.22536    0.001
 6171.00    9.20685   8.63056    0.001
 6172.00    9.22539   8.67193    0.001
 6173.00    9.38343   8.67356    0.001
 6174.00    9.82389   8.70550    0.001
 6175.00   10.03501   8.64590    0.001
 6176.00    9.84191   8.64104    0.001
 6177.00    9.61495   8.79452    0.001
 6178.00    9.33579   8.87665    0.001
 6179.00    9.32314   8.83778    0.001
 6180.00    9.67150   8.91107    0.001
 6181.00    9.76193   9.03314    0.001
 6182.00    9.54475   9.04075    0.001
 6183.00    9.17278   9.00445    0.001
 6184.00    8.63804   8.89097    0.001
 6185.00    8.42495   8.64144    0.001
 6186.00    8.51022   8.44061    0.002
 6187.00    8.84205   8.40128    0.002
 6188.00    9.37550   8.38365    0.002
 6189.00    9.73142   8.12529    0.002
 6190.00    9.95957   7.74963    0.002
 6191.00    9.62547   7.85390    0.002
 6192.00    8.93622   8.40580    0.002
 6193.00    8.20188   8.79018    0.001
 6194.00    7.44264   8.91625    0.001
 6195.00    6.97134   9.01495    0.002
 6196.00    6.63830   9.05217   -2.000
 6197.00    7.25437   8.83147   -2.000
 6198.00    8.26389   8.44131   -2.000
 6199.00   10.25856   8.31330   -2.000
 6200.00   12.60243   8.60586   -2.000
 6201.00   12.60778   8.96440   -2.000
 6202.00   11.91332   9.09238   -2.000
 6203.00   11.00214   9.04693   -2.000
 6204.00   10.03712   9.00956   -2.000
 6205.00    9.31347   9.03574   -2.000
 6206.00    8.63841   9.05517   -2.000
 6207.00    8.95370   9.04709   -2.000
 6208.00    9.42521   9.00635    0.002
 6209.00    9.63294   8.90166    0.002
 6210.00    9.80975   8.77219    0.002
 6211.00    9.76905   8.55313    0.002
 6212.00    9.71109   8.16633    0.002
 6213.00    9.36981   7.84951    0.002
 6214.00    9.01606   7.80758    0.001
 6215.00    8.56758   7.99909    0.001
 6216.00    8.12922   8.28257    0.001
 6217.00    8.22245   8.36933    0.001
 6218.00    8.30844   8.18171    0.001
 6219.00    8.26227   8.04178    0.001
 6220.00    8.20843   8.16257    0.001
 6221.00    8.07025   8.39571    0.001
 6222.00    7.98757   8.48234    0.001
 6223.00    8.33346   8.43252    0.001
 6224.00    8.71552   8.48096    0.001
 6225.00    9.30923   8.60815    0.001
 6226.00    9.77711   8.65379    0.001
 6227.00    9.66135   8.54395    0.001
 6228.00    9.45631   8.16549    0.001
 6229.00    8.91280   7.67911    0.001
 6230.00    8.42835   7.56087    0.001
 6231.00    8.13087   7.86247    0.001
 6232.00    7.94598   8.28243    0.001
 6233.00    8.06330   8.72232    0.001
 6234.00    8.28896   9.01217    0.001
 6235.00    8.76410   9.00438    0.001
 6236.00    9.15115   8.80968    0.001
 6237.00    9.36267   8.54780    0.001
 6238.00    9.36928   8.25837    0.001
 6239.00    9.02018   8.11127    0.001
 6240.00    8.66428   8.18444    0.001
 6241.00    8.29805   8.12121    0.001
 6242.00    8.05122   7.90296    0.001
 6243.00    7.96381   7.92698    0.001
 6244.00    7.92209   8.08425    0.001
 6245.00    7.93408   8.22814    0.001
 6246.00    7.97993   8.53577    0.001
 6247.00    8.06087   8.83337    0.001
 6248.00    8.18253   8.86431    0.001
 6249.00    8.34142   8.71021    0.001
 6250.00    8.51332   8.41386    0.001
 6251.00    8.69568   8.06358    0.001
 6252.00    8.93703   7.93601    0.001
 6253.00    9.22020   8.02776    0.001
 6254.00    9.22549   8.06454    0.001
 6255.00    9.05784   7.89099    0.001
 6256.00    8.72637   7.61771    0.001
 6257.00    8.30583   7.50711    0.001
 6258.00    8.07871   7.76614    0.001
 6259.00    7.94299   8.20776    0.002
 6260.00    7.99073   8.51764    0.002
 6261.00    8.11324   8.79477    0.002
 6262.00    8.77446   8.99257    0.002
 6263.00    9.62313   8.83833    0.002
 6264.00    9.85759   8.55375    0.002
 6265.00    9.91189   8.57126    0.002
 6266.00    9.71408   8.76138    0.002
 6267.00    9.45503   8.77257    0.002
 6268.00    9.59597   8.66969    0.002
 6269.00    9.81541   8.66900    0.002
 6270.00    9.29662   8.77763    0.001
 6271.00    8.66486   8.91256    0.001
 6272.00    8.47856   8.96361    0.001
 6273.00    8.34250   8.90768    0.001
 6274.00    8.49621   8.88433    0.001
 6275.00    8.67172   8.93164    0.001
 6276.00    8.67585   8.96781    0.001
 6277.00    8.67310   8.95100    0.001
 6278.00    8.56088   8.79937    0.001
 6279.00    8.45730   8.57812    0.001
 6280.00    8.73666   8.54728    0.000
 6281.00    9.02962   8.73262    0.000
 6282.00    9.55456   8.96512    0.000
 6283.00   10.03620   9.07726    0.000
 6284.00   10.06251   9.04901    0.000
 6285.00   10.05981   9.09724    0.000
 6286.00    9.84071   9.26891    0.000
 6287.00    9.62191   9.42307    0.000
 6288.00    9.40487   9.44449    0.000
 6289.00    9.14897   9.27666    0.000
 6290.00    8.71714   9.05915    0.000
 6291.00    8.37069   8.93704    0.000
 6292.00    8.34116   8.94964    0.000
 6293.00    8.34381   9.05904    0.000
 6294.00    8.44641   9.00572    0.000
 6295.00    8.59749   8.71695    0.000
 6296.00    8.87639   8.53163    0.000
 6297.00    9.06980   8.65011    0.000
 6298.00    9.06958   8.85823    0.000
 6299.00    8.97692   8.83800    0.000
 6300.00    8.70294   8.61417    0.000
 6301.00    8.49272   8.54065    0.000
 6302.00    8.39151   8.73226    0.000
 6303.00    8.40713   8.90967    0.000
 6304.00    8.59770   8.94354    0.000
 6305.00    8.67937   9.06149    0.000
 6306.00    8.61775   9.34443    0.000
 6307.00    8.44309   9.52650    0.000
 6308.00    8.13740   9.43877    0.000
 6309.00    8.06682   9.18086    0.000
 6310.00    8.23660   8.96725    0.000
 6311.00    8.40212   8.94684    0.000
 6312.00    8.56379   8.99724    0.000
 6313.00    8.63003   8.87311    0.000
 6314.00    8.62043   8.71379    0.000
 6315.00    8.64426   8.72638    0.000
 6316.00    8.69145   8.63837    0.000
 6317.00    8.62028   8.42995    0.000
 6318.00    8.47655   8.52971    0.000
 6319.00    8.56072   8.86872    0.000
 6320.00    8.76690   9.04586    0.000
 6321.00    9.00975   9.06032    0.001
 6322.00    9.26966   9.15297    0.001
 6323.00    9.39706   9.32127    0.001
 6324.00    9.47140   9.39487    0.001
 6325.00    9.26782   9.36397    0.001
 6326.00    8.96930   9.33409    0.001
 6327.00    8.66093   9.41555    0.001
 6328.00    8.34972   9.46461    0.001
 6329.00    8.48869   9.36209    0.001
 6330.00    8.73455   9.35251    0.001
 6331.00    8.91817   9.50050    0.001
 6332.00    9.08987   9.54331    0.001
 6333.00    8.77043   9.24199    0.001
 6334.00    8.37812   8.74689    0.001
 6335.00    8.38709   8.56425    0.001
 6336.00    8.43957   8.80387    0.001
 6337.00    8.82450   9.06136    0.001
 6338.00    9.23310   9.18528    0.001
 6339.00    9.19617   9.34215    0.001
 6340.00    9.14304   9.42377    0.001
 6341.00    8.93599   9.23981    0.001
 6342.00    8.72955   8.92512    0.001
 6343.00    8.56458   8.80933    0.001
 6344.00    8.41245   9.01622    0.001
 6345.00    8.46496   9.27273    0.001
 6346.00    8.49142   9.39674    0.001
 6347.00    8.25558   9.47573    0.001
 6348.00    8.01216   9.51905    0.001
 6349.00    7.71404   9.51940    0.001
 6350.00    7.53556   9.54872    0.001
 6351.00    8.01911   9.55280    0.001
 6352.00    8.43684   9.38490    0.001
 6353.00    8.56350   9.09848    0.001
 6354.00    8.69368   8.97814    0.001
 6355.00    8.83660   9.06727    0.001
 6356.00    8.95517   9.00573    0.001
 6357.00    8.99955   8.69403    0.001
 6358.00    8.88326   8.48135    0.001
 6359.00    8.35078   8.45976    0.001
 6360.00    7.99707   8.39980    0.001
 6361.00    8.04148   8.32843    0.001
 6362.00    8.08981   8.43810    0.001
 6363.00    8.14566   8.69028    0.001
 6364.00    8.12260   8.93124    0.001
 6365.00    7.96664   9.13283    0.001
 6366.00    8.06400   9.36065    0.001
 6367.00    8.53515   9.55764    0.001
 6368.00    8.89802   9.57084    0.001
 6369.00    9.12041   9.49424    0.002
 6370.00    9.05756   9.56691    0.002
 6371.00    8.66872   9.77042    0.001
 6372.00    8.46972   9.87644    0.001
 6373.00    8.46207   9.81465    0.001
 6374.00    8.34478   9.75924    0.001
 6375.00    8.13003   9.79070    0.001
 6376.00    8.00912   9.73335    0.001
 6377.00    7.96171   9.54428    0.001
 6378.00    7.89748   9.42613    0.001
 6379.00    7.82165   9.43719    0.001
 6380.00    7.82750   9.50608    0.001
 6381.00    7.88268   9.60962    0.001
 6382.00    7.79759   9.62670    0.001
 6383.00    7.63857   9.55038    0.001
 6384.00    7.63600   9.58403    0.001
 6385.00    7.70497   9.73370    0.001
 6386.00    7.82627   9.80885    0.001
 6387.00    7.96816   9.79749    0.001
 6388.00    8.03362   9.83090    0.001
 6389.00    8.07346   9.86588    0.001
 6390.00    8.03810   9.69468    0.001
 6391.00    7.98157   9.25207    0.001
 6392.00    7.88586   8.88673    0.001
 6393.00    7.78106   9.02911    0.001
 6394.00    8.17897   9.50729    0.001
 6395.00    8.67052   9.86031    0.002
 6396.00    8.99868   9.94044    0.002
 6397.00    9.30336   9.67914    0.002
 6398.00    8.90013   9.10235    0.001
 6399.00    8.42321   8.80271    0.001
 6400.00    8.38490   9.22683    0.001
 6401.00    8.37605   9.82132    0.001
 6402.00    8.55599  10.05313    0.001
 6403.00    8.74209  10.04944    0.001
 6404.00    8.87711   9.96249    0.001
 6405.00    9.00340   9.76542    0.001
 6406.00    8.85832   9.48339    0.001
 6407.00    8.71562   9.41095    0.001
 6408.00    8.60861   9.64141    0.001
 6409.00    8.52016   9.70068    0.001
 6410.00    8.61081   9.48460    0.001
 6411.00    8.68989   9.42549    0.001
 6412.00    8.68818   9.54380    0.001
 6413.00    8.59216   9.63179    0.001
 6414.00    7.98816   9.75216    0.001
 6415.00    7.47289   9.88975    0.001
 6416.00    7.34103   9.87816    0.001
 6417.00    7.27087   9.69003    0.001
 6418.00    7.42030   9.37971    0.001
 6419.00    7.63125   9.09729    0.001
 6420.00    8.02605   9.13918    0.001
 6421.00    8.31702   9.57496    0.001
 6422.00    8.34371   9.98857    0.001
 6423.00    8.31264  10.03513    0.001
 6424.00    8.15506   9.95867    0.001
 6425.00    8.13281  10.05606    0.001
 6426.00    8.36780  10.21303    0.001
 6427.00    8.60853  10.16978    0.001
 6428.00    8.85877   9.80230    0.001
 6429.00    9.01848   9.30281    0.001
 6430.00    9.04653   9.13797    0.001
 6431.00    8.88163   9.44793    0.001
 6432.00    8.47003   9.83243    0.001
 6433.00    8.24117  10.02816    0.001
 6434.00    8.21823  10.08604    0.001
 6435.00    8.38642  10.04789    0.001
 6436.00    8.74457   9.80499    0.001
 6437.00    9.05100   9.39349    0.001
 6438.00    9.31209   9.28434    0.001
 6439.00    9.28660   9.69778    0.001
 6440.00    9.03981  10.17148    0.001
 6441.00    8.86024  10.33964    0.001
 6442.00    8.72630  10.31196    0.001
 6443.00    8.65257  10.29671    0.001
 6444.00    8.61466  10.37759    0.001
 6445.00    8.78754  10.46498    0.001
 6446.00    9.06982  10.31219    0.001
 6447.00    9.31221   9.69441    0.001
 6448.00    9.53666   8.87354    0.001
 6449.00    9.43199   8.61415    0.001
 6450.00    9.20002   9.11415    0.001
 6451.00    8.83066   9.75938    0.001
 6452.00    8.41608  10.10090    0.001
 6453.00    8.25145  10.05210    0.001
 6454.00    8.15576   9.79679    0.001
 6455.00    8.06246   9.75522    0.001
 6456.00    7.96970  10.03337    0.001
 6457.00    7.65398  10.35163    0.001
 6458.00    7.29783  10.51410    0.001
 6459.00    6.73638  10.43333    0.001
 6460.00    6.14638   9.97792    0.001
 6461.00    5.99217   9.39334    0.001
 6462.00    5.88145   9.29044    0.001
 6463.00    6.24543   9.69331    0.001
 6464.00    6.63938  10.07291    0.001
 6465.00    7.21019  10.26903    0.001
 6466.00    7.78576  10.37482    0.001
 6467.00    8.26037  10.35146    0.001
 6468.00    8.72141  10.19170    0.001
 6469.00    8.80471  10.00310    0.001
 6470.00    8.87365   9.91342    0.001
 6471.00    8.73948  10.04125    0.001
 6472.00    8.58155  10.22685    0.001
 6473.00    8.20344  10.17716    0.001
 6474.00    7.85149  10.05768    0.001
 6475.00    7.67643  10.13899    0.001
 6476.00    7.58455  10.26712    0.001
 6477.00    7.92888  10.25808    0.001
 6478.00    8.22436  10.20762    0.001
 6479.00    8.31365  10.07273    0.001
 6480.00    8.41450   9.72399    0.001
 6481.00    8.55565   9.42609    0.001
 6482.00    8.57879   9.49114    0.001
 6483.00    8.25570   9.78545    0.001
 6484.00    8.04099  10.01333    0.001
 6485.00    8.09739  10.12130    0.001
 6486.00    8.09307  10.19983    0.001
 6487.00    7.95791  10.21491    0.001
 6488.00    7.90680  10.07477    0.001
 6489.00    8.01297   9.87968    0.001
 6490.00    8.14572   9.75542    0.001
 6491.00    8.32193   9.52843    0.001
 6492.00    8.31713   8.91645    0.001
 6493.00    8.05297   8.19444    0.001
 6494.00    7.91476   7.96735    0.001
 6495.00    7.93532   8.24317    0.001
 6496.00    7.90422   8.62141    0.001
 6497.00    7.81574   8.87281    0.001
 6498.00    7.81342   9.05226    0.001
 6499.00    7.89553   9.34529    0.001
 6500.00    7.99397   9.64956    0.001
 6501.00    8.10652   9.82144    0.001
 6502.00    8.17720   9.93668    0.001
 6503.00    8.21601  10.05369    0.001
 6504.00    8.25044  10.17445    0.001
 6505.00    8.28193  10.23067    0.001
 6506.00    8.24424  10.12189    0.001
 6507.00    8.16601   9.95264    0.001
 6508.00    8.15775   9.94870    0.001
 6509.00    8.18522  10.10742    0.001
 6510.00    8.33600  10.22134    0.001
 6511.00    8.54135  10.23799    0.001
 6512.00    8.50736  10.24314    0.001
 6513.00    8.38242  10.19070    0.001
 6514.00    8.44127  10.05522    0.001
 6515.00    8.55946   9.94547    0.001
 6516.00    8.77674   9.85207    0.001
 6517.00    9.02079   9.75475    0.001
 6518.00    9.15789   9.83880    0.001
 6519.00    9.27131  10.10989    0.001
 6520.00    9.23729  10.30317    0.001
 6521.00    9.17726  10.32983    0.001
 6522.00    9.01543  10.33217    0.001
 6523.00    8.83991  10.39993    0.001
 6524.00    8.44608  10.37134    0.001
 6525.00    8.03138  10.15333    0.001
 6526.00    7.74890  10.00186    0.001
 6527.00    7.47423  10.09618    0.001
 6528.00    7.76048  10.27876    0.000
 6529.00    8.05991  10.33570    0.000
 6530.00    8.22828  10.19047    0.000
 6531.00    8.39559   9.97797    0.000
 6532.00    8.53644   9.95676    0.000
 6533.00    8.65911  10.18472    0.000
 6534.00    8.53856  10.42315    0.000
 6535.00    8.42479  10.43767    0.000
 6536.00    8.37136  10.33112    0.000
 6537.00    8.32769  10.37432    0.000
 6538.00    8.34802  10.56686    0.000
 6539.00    8.40891  10.64236    0.000
 6540.00    8.67708  10.50965    0.000
 6541.00    8.95777  10.31896    0.000
 6542.00    9.29011  10.19459    0.000
 6543.00    9.43115  10.07588    0.000
 6544.00    8.91847   9.83584    0.000
 6545.00    8.48538   9.63617    0.000
 6546.00    8.28148   9.75483    0.000
 6547.00    8.05387  10.05764    0.000
 6548.00    7.76794  10.22406    0.000
 6549.00    7.59628  10.15413    0.000
 6550.00    7.66693   9.99926    0.000
 6551.00    7.81638   9.90718    0.000
 6552.00    8.11100   9.79276    0.000
 6553.00    8.30573   9.58975    0.000
 6554.00    8.33967   9.45913    0.000
 6555.00    8.26113   9.54534    0.000
 6556.00    8.02373   9.74551    0.000
 6557.00    7.87628   9.86395    0.000
 6558.00    7.84061   9.85507    0.000
 6559.00    7.86553   9.59497    0.000
 6560.00    7.95682   8.69084    0.000
 6561.00    8.15185   7.41002    0.000
 6562.00    8.44710   7.11501    0.000
 6563.00    8.50491   8.20408    0.000
 6564.00    8.36043   9.40676    0.000
 6565.00    8.22186   9.99491    0.000
 6566.00    8.08771  10.17333    0.000
 6567.00    7.98251  10.04400    0.000
 6568.00    7.89639   9.80282    0.000
 6569.00    7.86199   9.76087    0.000
 6570.00    7.85744   9.80262    0.000
 6571.00    7.93527   9.66974    0.000
 6572.00    8.05453   9.44859    0.000
 6573.00    7.89731   9.34962    0.000
 6574.00    7.61978   9.50897    0.000
 6575.00    7.55319   9.89707    0.000
 6576.00    7.56535  10.24853    0.000
 6577.00    7.72723  10.36591    0.000
 6578.00    7.93653  10.23740    0.000
 6579.00    7.77477   9.98094    0.000
 6580.00    7.51489   9.85573    0.000
 6581.00    7.50896   9.98061    0.000
 6582.00    7.55793  10.16948    0.000
 6583.00    7.95574  10.24615    0.000
 6584.00    8.41337  10.19800    0.000
 6585.00    8.65413  10.17828    0.000
 6586.00    8.86669  10.32183    0.000
 6587.00    8.73587  10.47460    0.000
 6588.00    8.57369  10.50835    0.000
 6589.00    8.38917  10.42605    0.000
 6590.00    8.20341  10.07755    0.000
 6591.00    8.09304   9.48118    0.000
 6592.00    7.98840   9.13378    0.000
 6593.00    8.27456   9.39055    0.000
 6594.00    8.55827   9.86737    0.000
 6595.00    8.78551  10.08137    0.000
 6596.00    8.98452  10.02851    0.000
 6597.00    8.82543   9.93913    0.000
 6598.00    8.67375  10.03004    0.000
 6599.00    8.58551  10.29026    0.000
 6600.00    8.52764  10.47717    0.000
 6601.00    8.66298  10.47212    0.000
 6602.00    8.72261  10.35531    0.000
 6603.00    8.40513  10.19496    0.000
 6604.00    8.17173  10.04905    0.000
 6605.00    8.27771   9.95516    0.000
 6606.00    8.35864   9.83064    0.000
 6607.00    8.35563   9.62726    0.000
 6608.00    8.29607   9.57574    0.000
 6609.00    8.07662   9.89499    0.001
 6610.00    7.97555  10.30480    0.001
 6611.00    8.16066  10.40206    0.001
 6612.00    8.17901  10.27359    0.001
 6613.00    7.84943  10.29074    0.001
 6614.00    7.71296  10.46716    0.001
 6615.00    7.92679  10.50898    0.001
 6616.00    8.23138  10.41204    0.001
 6617.00    8.67991  10.39018    0.001
 6618.00    8.81664  10.48178    0.001
 6619.00    8.51936  10.57996    0.001
 6620.00    8.27039  10.58800    0.001
 6621.00    8.08061  10.44466    0.001
 6622.00    7.99901  10.14006    0.001
 6623.00    8.03424   9.83779    0.001
 6624.00    8.11306   9.83176    0.001
 6625.00    8.23340  10.08133    0.001
 6626.00    8.12200  10.24062    0.001
 6627.00    7.81596  10.22867    0.001
 6628.00    7.83761  10.15893    0.001
 6629.00    8.10158  10.08424    0.001
 6630.00    8.28625   9.97854    0.001
 6631.00    8.41940   9.77396    0.001
 6632.00    8.28660   9.56332    0.001
 6633.00    8.00262   9.59051    0.001
 6634.00    7.89935   9.87283    0.001
 6635.00    7.88550  10.16454    0.001
 6636.00    7.98779  10.29822    0.001
 6637.00    8.13977  10.24649    0.001
 6638.00    8.23130  10.11695    0.001
 6639.00    8.30067  10.13210    0.001
 6640.00    8.09579  10.24521    0.001
 6641.00    7.80574  10.13834    0.001
 6642.00    7.70332   9.89225    0.001
 6643.00    7.64945   9.90517    0.001
 6644.00    7.85866  10.12194    0.001
 6645.00    8.12339  10.19882    0.001
 6646.00    8.14461  10.13635    0.001
 6647.00    8.12525  10.15138    0.001
 6648.00    8.31669  10.23921    0.001
 6649.00    8.53458  10.23363    0.001
 6650.00    8.68370  10.14385    0.001
 6651.00    8.82683  10.09351    0.001
 6652.00    8.57165  10.10685    0.001
 6653.00    8.29604  10.16158    0.001
 6654.00    8.41514  10.19343    0.001
 6655.00    8.54137  10.15539    0.001
 6656.00    8.67621  10.14925    0.001
 6657.00    8.78771  10.19022    0.001
 6658.00    8.40700  10.15317    0.001
 6659.00    8.05538  10.05109    0.001
 6660.00    8.05408   9.94192    0.001
 6661.00    8.08296   9.74816    0.001
 6662.00    8.36101   9.56690    0.001
 6663.00    8.61284   9.63089    0.001
 6664.00    8.70273   9.80245    0.001
 6665.00    8.76396   9.84471    0.001
 6666.00    8.68600   9.83555    0.001
 6667.00    8.65355   9.93963    0.001
 6668.00    8.80081  10.15417    0.001
 6669.00    8.90502  10.32541    0.001
 6670.00    8.86787  10.36414    0.001
 6671.00    8.81464  10.33367    0.001
 6672.00    8.71681  10.32802    0.001
 6673.00    8.50057  10.36315    0.001
 6674.00    8.00293  10.33884    0.001
 6675.00    7.63632  10.05996    0.001
 6676.00    7.53870   9.56374    0.001
 6677.00    7.62726   9.35538    0.001
 6678.00    8.04838   9.66889    0.001
 6679.00    8.21031  10.00836    0.001
 6680.00    7.96728  10.07442    0.001
 6681.00    7.97118  10.09703    0.001
 6682.00    8.31386  10.19657    0.001
 6683.00    8.54641  10.28148    0.001
 6684.00    8.64596  10.29744    0.001
 6685.00    8.37516  10.26089    0.001
 6686.00    7.71004  10.19696    0.001
 6687.00    7.42959  10.17175    0.001
 6688.00    7.51042  10.22868    0.001
 6689.00    7.79106  10.29295    0.001
 6690.00    8.23716  10.30570    0.001
 6691.00    8.43113  10.29282    0.001
 6692.00    8.44135  10.27561    0.001
 6693.00    8.31639  10.18372    0.001
 6694.00    8.10492   9.94826    0.001
 6695.00    7.88075   9.73151    0.001
 6696.00    7.64948   9.72190    0.000
 6697.00    7.59867   9.88253    0.000
 6698.00    7.63574  10.12781    0.000
 6699.00    7.69781  10.33123    0.000
 6700.00    7.77041  10.35663    0.000
 6701.00    7.66644  10.22043    0.000
 6702.00    7.49888  10.03162    0.000
 6703.00    7.60258   9.94870    0.000
 6704.00    7.78889  10.05278    0.000
 6705.00    7.87806  10.20234    0.000
 6706.00    7.94263  10.26441    0.000
 6707.00    8.21384  10.26025    0.000
 6708.00    8.52757  10.18696    0.000
 6709.00    8.89545  10.09260    0.000
 6710.00    9.27210  10.08435    0.000
 6711.00    9.13376  10.07533    0.000
 6712.00    8.93309   9.96146    0.000
 6713.00    8.80570   9.78354    0.000
 6714.00    8.68440   9.57803    0.000
 6715.00    8.38644   9.37835    0.000
 6716.00    8.08010   9.32708    0.000
 6717.00    8.00816   9.57301    0.000
 6718.00    7.93897   9.93462    0.000
 6719.00    7.83908  10.08454    0.000
 6720.00    7.73440  10.04107    0.000
 6721.00    7.53649  10.06072    0.000
 6722.00    7.39823  10.20386    0.000
 6723.00    7.94428  10.24799    0.000
 6724.00    8.45822  10.10221    0.000
 6725.00    8.71635   9.98695    0.000
 6726.00    8.86095  10.04399    0.000
 6727.00    8.32466  10.16015    0.000
 6728.00    7.84715  10.25906    0.000
 6729.00    7.64819  10.33954    0.000
 6730.00    7.53472  10.34491    0.000
 6731.00    7.75148  10.25286    0.000
 6732.00    7.93664  10.15507    0.000
 6733.00    8.02005  10.16639    0.000
 6734.00    8.06053  10.26744    0.000
 6735.00    7.98400  10.29051    0.000
 6736.00    7.84956  10.13156    0.000
 6737.00    7.57984   9.94370    0.000
 6738.00    7.56764   9.93092    0.000
 6739.00    8.07580  10.06110    0.000
 6740.00    8.40695  10.11053    0.000
 6741.00    8.42671  10.00473    0.000
 6742.00    8.43856   9.95897    0.000
 6743.00    8.43822  10.06415    0.000
 6744.00    8.61893  10.11885    0.000
 6745.00    9.04442  10.04206    0.000
 6746.00    9.27672   9.96053    0.000
 6747.00    9.27903   9.92873    0.000
 6748.00    9.07709   9.90101    0.000
 6749.00    8.66076   9.92015    0.000
 6750.00    8.42177   9.97863    0.000
 6751.00    8.34698   9.93702    0.000
 6752.00    8.57108   9.90850    0.000
 6753.00    9.03915  10.02002    0.002
 6754.00    9.20340  10.15743    0.002
 6755.00    9.14941  10.30683    0.002
 6756.00    8.56533  10.47073    0.002
 6757.00    7.64703  10.56639    0.002
 6758.00    6.76021  10.59922    0.002
 6759.00    5.89075  10.58218    0.002
 6760.00    6.73911  10.49422    0.002
 6761.00    8.41070  10.43382    0.002
 6762.00    9.12133  10.47160    0.002
 6763.00    9.43447  10.49250    0.002
 6764.00    9.14057  10.37078    0.002
 6765.00    8.63200  10.13993    0.002
 6766.00    8.81840  10.00766    0.002
 6767.00    9.21225  10.09181    0.002
 6768.00    9.47043  10.19497    0.002
 6769.00    9.69500  10.13583    0.002
 6770.00    9.48368  10.08349    0.002
 6771.00    9.18486  10.22763    0.002
 6772.00    8.91854  10.46997    0.002
 6773.00    8.65734  10.64058    0.001
 6774.00    8.48067  10.70738    0.001
 6775.00    8.31387  10.69457    0.001
 6776.00    7.54036  10.67015    0.001
 6777.00    6.71902  10.72660    0.001
 6778.00    6.73054  10.79716    0.002
 6779.00    6.77832  10.75181    0.002
 6780.00    7.32967  10.55458    0.002
 6781.00    7.87528  10.23354    0.002
 6782.00    7.90742   9.90964    0.002
 6783.00    7.93858   9.75745    0.002
 6784.00    7.95207   9.82666    0.001
 6785.00    7.95889  10.04397    0.001
 6786.00    7.89267  10.30585    0.001
 6787.00    7.80106  10.43844    0.001
 6788.00    7.51428  10.41183    0.001
 6789.00    7.28699  10.41880    0.001
 6790.00    7.40640  10.46806    0.001
 6791.00    7.50284  10.39214    0.001
 6792.00    7.49298  10.24641    0.001
 6793.00    7.46001  10.20144    0.002
 6794.00    7.33961  10.22970    0.001
 6795.00    7.17745  10.28797    0.001
 6796.00    6.88344  10.38058    0.001
 6797.00    6.79531  10.43032    0.001
 6798.00    7.25856  10.44927    0.001
 6799.00    7.75360  10.50809    0.001
 6800.00    8.32173  10.58234    0.002
 6801.00    8.72718  10.57893    0.002
 6802.00    8.80915  10.49263    0.002
 6803.00    9.01452  10.46825    0.002
 6804.00    9.43366  10.50397    0.002
 6805.00    9.45607  10.46678    0.001
 6806.00    8.87668  10.43589    0.001
 6807.00    8.35653  10.46413    0.001
 6808.00    7.91533  10.43675    0.001
 6809.00    7.66275  10.41655    0.001
 6810.00    7.63156  10.49090    0.001
 6811.00    7.83260  10.53981    0.001
 6812.00    8.27401  10.45616    0.002
 6813.00    8.47567  10.30959    0.002
 6814.00    8.45845  10.32146    0.002
 6815.00    8.35330  10.54596    0.002
 6816.00    8.17740  10.72474    0.002
 6817.00    8.05466  10.68331    0.002
 6818.00    7.96954  10.51834    0.001
 6819.00    7.91465  10.44097    0.001
 6820.00    7.87852  10.55504    0.001
 6821.00    7.85094  10.74881    0.001
 6822.00    7.82800  10.86240    0.001
 6823.00    7.81260  10.87544    0.001
 6824.00    7.80076  10.84898    0.001
 6825.00    7.95208  10.76300    0.001
 6826.00    8.16975  10.57606    0.001
 6827.00    8.22962  10.42182    0.001
 6828.00    8.23469  10.47368    0.001
 6829.00    7.92276  10.66312    0.001
 6830.00    7.51809  10.77227    0.001
 6831.00    7.51007  10.73673    0.001
 6832.00    7.59813  10.71962    0.001
 6833.00    7.96567  10.82166    0.001
 6834.00    8.38790  10.89500    0.001
 6835.00    8.98051  10.82093    0.001
 6836.00    9.59911  10.67888    0.002
 6837.00    9.02318  10.50727    0.002
 6838.00    8.31318  10.27855    0.002
 6839.00    8.33604  10.05228    0.002
 6840.00    8.41367   9.93409    0.002
 6841.00    8.51928  10.02446    0.002
 6842.00    8.62599  10.31047    0.002
 6843.00    8.17853  10.60869    0.001
 6844.00    7.75074  10.75345    0.001
 6845.00    8.25674  10.77808    0.001
 6846.00    8.71661  10.80542    0.001
 6847.00    8.39721  10.82233    0.001
 6848.00    8.09768  10.78014    0.001
 6849.00    8.00611  10.73694    0.001
 6850.00    7.91136  10.74522    0.001
 6851.00    7.79304  10.77276    0.001
 6852.00    7.62703  10.67933    0.001
 6853.00    7.19070  10.38916    0.001
 6854.00    6.83875  10.17382    0.001
 6855.00    6.86778  10.24028    0.001
 6856.00    6.96441  10.39448    0.001
 6857.00    7.31125  10.49578    0.001
 6858.00    7.59066  10.49244    0.001
 6859.00    7.66120  10.30319    0.001
 6860.00    7.77386  10.13807    0.001
 6861.00    7.99735  10.30742    0.002
 6862.00    8.19347  10.68593    0.002
 6863.00    8.32774  10.89555    0.001
 6864.00    8.52185  10.83374    0.002
 6865.00    8.83308  10.58884    0.005
 6866.00    8.80863  10.28448   -1.000
 6867.00    8.21134  10.21462   -1.000
 6868.00    7.42683  10.46829   -1.000
 6869.00    6.36249  10.65426   -1.000
 6870.00    6.06125  10.54144   -1.000
 6871.00    6.76247  10.39825   -1.000
 6872.00    7.31921  10.45284   -1.000
 6873.00    7.70875  10.56539   -1.000
 6874.00    7.92630  10.59511   -1.000
 6875.00    7.96833  10.66219   -1.000
 6876.00    7.74485  10.83193    0.005
 6877.00    7.28238  10.94478    0.002
 6878.00    6.72865  10.91126    0.001
 6879.00    6.10251  10.77243    0.001
 6880.00    6.23938  10.56620    0.001
 6881.00    6.90863  10.42238    0.001
 6882.00    7.36091  10.50876    0.001
 6883.00    7.68040  10.73093    0.001
 6884.00    8.12612  10.82586    0.001
 6885.00    8.63928  10.84159    0.001
 6886.00    8.75581  10.96393    0.001
 6887.00    8.68834  11.10166    0.001
 6888.00    8.31841  11.17012    0.001
 6889.00    7.82759  11.23772    0.001
 6890.00    7.82887  11.23891    0.001
 6891.00    7.99784  11.14059    0.001
 6892.00    8.06367  11.09287    0.001
 6893.00    8.09993  11.07484    0.001
 6894.00    7.96896  10.99999    0.001
 6895.00    7.79840  10.99165    0.001
 6896.00    7.84980  11.11108    0.001
 6897.00    7.94350  11.17902    0.001
 6898.00    7.92549  11.08315    0.001
 6899.00    7.89098  11.01512    0.001
 6900.00    8.32625  11.14021    0.001
 6901.00    8.81219  11.28522    0.002
 6902.00    8.67375  11.26736    0.001
 6903.00    8.49117  11.17941    0.001
 6904.00    7.55552  11.17517    0.001
 6905.00    6.59285  11.26831    0.001
 6906.00    7.08743  11.34840    0.001
 6907.00    7.57738  11.37646    0.001
 6908.00    7.73982  11.39669    0.001
 6909.00    7.87741  11.36864    0.001
 6910.00    7.62148  11.26164    0.001
 6911.00    7.37824  11.11007    0.001
 6912.00    7.26193  10.94460    0.001
 6913.00    7.18940  10.89551    0.001
 6914.00    7.43148  10.99732    0.001
 6915.00    7.66250  11.05468    0.001
 6916.00    7.83259  11.06707    0.001
 6917.00    7.94683  11.16836    0.001
 6918.00    7.81481  11.31589    0.001
 6919.00    7.68109  11.42679    0.001
 6920.00    7.54122  11.46886    0.001
 6921.00    7.40952  11.39251    0.001
 6922.00    7.30262  11.13716    0.001
 6923.00    7.26356  10.81713    0.001
 6924.00    7.39988  10.67360    0.001
 6925.00    7.40339  10.79047    0.001
 6926.00    7.11171  11.01912    0.001
 6927.00    6.86116  11.17647    0.001
 6928.00    6.68986  11.24310    0.001
 6929.00    6.70915  11.25720    0.001
 6930.00    7.04879  11.18561    0.001
 6931.00    7.47474  11.02505    0.001
 6932.00    8.02780  10.96718    0.001
 6933.00    8.23138  11.13299    0.001
 6934.00    7.98241  11.30274    0.001
 6935.00    7.72340  11.29813    0.001
 6936.00    7.45291  11.23180    0.001
 6937.00    7.33032  11.26358    0.001
 6938.00    7.35653  11.40852    0.001
 6939.00    7.35663  11.55367    0.001
 6940.00    7.33357  11.53619    0.001
 6941.00    7.11566  11.33167    0.001
 6942.00    6.74542  11.05896    0.001
 6943.00    7.02178  10.82635    0.002
 6944.00    7.74278  10.79734    0.002
 6945.00    8.23039  11.04380    0.002
 6946.00    8.57733  11.33589    0.001
 6947.00    8.74319  11.48794    0.001
 6948.00    8.81379  11.49620    0.001
 6949.00    8.43511  11.33568    0.001
 6950.00    7.85138  11.12301    0.001
 6951.00    7.72945  11.02124    0.001
 6952.00    7.78891  10.99058    0.001
 6953.00    7.46332  11.03524    0.001
 6954.00    7.00895  11.21361    0.001
 6955.00    6.76531  11.40810    0.001
 6956.00    6.58085  11.48053    0.001
 6957.00    6.66539  11.46974    0.001
 6958.00    6.81219  11.47166    0.001
 6959.00    7.26882  11.51736    0.001
 6960.00    7.78297  11.57508    0.001
 6961.00    7.55106  11.62050    0.001
 6962.00    7.21238  11.66375    0.001
 6963.00    6.99693  11.63211    0.001
 6964.00    6.79425  11.49374    0.001
 6965.00    7.22617  11.46939    0.002
 6966.00    7.70040  11.67588    0.002
 6967.00    7.57416  11.86589    0.001
 6968.00    7.42870  11.81585    0.001
 6969.00    7.50822  11.60528    0.001
 6970.00    7.57309  11.51933    0.001
 6971.00    7.18851  11.68998    0.001
 6972.00    6.84710  11.82818    0.001
 6973.00    7.14800  11.68359    0.001
 6974.00    7.44867  11.43300    0.001
 6975.00    7.74701  11.18165    0.001
 6976.00    7.94015  10.76571    0.001
 6977.00    7.40146  10.37889    0.001
 6978.00    6.97523  10.49791    0.001
 6979.00    7.15272  11.02094    0.001
 6980.00    7.41234  11.48610    0.001
 6981.00    8.02580  11.76803    0.002
 6982.00    8.62784  11.91525    0.002
 6983.00    9.18936  11.94471    0.002
 6984.00    9.38017  11.91813    0.002
 6985.00    8.46547  11.89245    0.002
 6986.00    7.70654  11.83552    0.002
 6987.00    7.34328  11.67165    0.001
 6988.00    7.10646  11.50834    0.001
 6989.00    7.14607  11.55760    0.001
 6990.00    7.02005  11.77187    0.001
 6991.00    6.57988  11.92103    0.001
 6992.00    6.33455  11.88845    0.001
 6993.00    6.41184  11.77175    0.001
 6994.00    6.66133  11.75032    0.001
 6995.00    7.16076  11.83057    0.001
 6996.00    7.39394  11.85164    0.001
 6997.00    7.28728  11.66772    0.001
 6998.00    7.25097  11.37339    0.001
 6999.00    7.29381  11.29844    0.002
 7000.00    7.51394  11.53217    0.002
 7001.00    7.90997  11.75035    0.002
 7002.00    7.92935  11.68973    0.002
 7003.00    7.61922  11.49163    0.002
 7004.00    7.11169  11.40854    0.002
 7005.00    6.45201  11.46368    0.002
 7006.00    6.68219  11.57954    0.001
 7007.00    7.51537  11.72710    0.001
 7008.00    7.82688  11.82367    0.001
 7009.00    7.82864  11.77089    0.001
 7010.00    7.90679  11.70182    0.001
 7011.00    8.02449  11.77941    0.002
 7012.00    7.84983  11.84883    0.002
 7013.00    7.54391  11.61496    0.001
 7014.00    7.74189  11.08447    0.001
 7015.00    8.13435  10.77757    0.002
 7016.00    7.95967  11.10352    0.002
 7017.00    7.59885  11.69432    0.002
 7018.00    7.53446  12.04373    0.002
 7019.00    7.55161  12.14138    0.002
 7020.00    7.73290  12.06865    0.002
 7021.00    7.95130  11.77317    0.002
 7022.00    7.79268  11.38962    0.002
 7023.00    7.56594  11.24597    0.002
 7024.00    7.06512  11.43237    0.002
 7025.00    6.52633  11.68592    0.002
 7026.00    7.30618  11.81712    0.002
 7027.00    8.21695  11.89886    0.002
 7028.00    8.23450  11.98756    0.002
 7029.00    8.19610  12.02503    0.002
 7030.00    7.81430  11.97923    0.002
 7031.00    7.42519  11.91077    0.002
 7032.00    7.67896  11.90535    0.002
 7033.00    7.89574  11.98550    0.002
 7034.00    7.09650  12.13180    0.001
 7035.00    6.36762  12.12640    0.001
 7036.00    6.62649  11.73303    0.002
 7037.00    6.80351  11.36543    0.002
 7038.00    6.22583  11.61708    0.002
 7039.00    5.82228  12.26223    0.002
 7040.00    6.59219  12.72166    0.002
 7041.00    7.33317  12.82438    0.002
 7042.00    7.92288  12.64118    0.002
 7043.00    8.36874  12.30389    0.002
 7044.00    8.20893  12.13928    0.002
 7045.00    7.92640  12.31574    0.002
 7046.00    7.21698  12.62706    0.002
 7047.00    6.73693  12.83332    0.002
 7048.00    6.92825  12.85186    0.002
 7049.00    7.08914  12.69661    0.002
 7050.00    7.17404  12.30085   -2.000
 7051.00    7.33043  11.69435   -2.000
 7052.00    7.64058  11.19107   -2.000
 7053.00    7.81314  11.00504   -2.000
 7054.00    7.72875  11.11305   -2.000
 7055.00    7.79244  11.36755   -2.000
 7056.00    8.09765  11.51365   -2.000
 7057.00    8.22176  11.35097   -2.000
 7058.00    8.08684  10.98112   -2.000
 7059.00    7.85463  10.76945   -2.000
 7060.00    7.50002  10.85786   -2.000
 7061.00    7.57763  11.03383   -2.000
 7062.00    8.13453  11.20557   -2.000
 7063.00    8.32917  11.34297   -2.000
 7064.00    8.16949  11.27147   -2.000
 7065.00    8.16085  10.96659   -2.000
 7066.00    8.28249  10.61258   -2.000
 7067.00    8.10892  10.48722   -2.000
 7068.00    7.71105  10.78652   -2.000
 7069.00    7.92970  11.28504   -2.000
 7070.00    8.56002  11.56463   -2.000
 7071.00    8.82088  11.58213   -2.000
 7072.00    8.86567  11.54407   -2.000
 7073.00    8.74345  11.51429   -2.000
 7074.00    8.53609  11.47555   -2.000
 7075.00    8.73815  11.47746   -2.000
 7076.00    9.12099  11.55134   -2.000
 7077.00    9.27672  11.63655   -2.000
 7078.00    9.34633  11.73961   -2.000
 7079.00    8.29380  11.86950   -2.000
 7080.00    6.87991  11.83821   -2.000
 7081.00    7.00184  11.50269   -2.000
 7082.00    7.53749  10.96791   -2.000
 7083.00    8.87034  10.56267   -2.000
 7084.00   10.37919  10.57738   -2.000
 7085.00    9.52417  10.76820   -2.000
 7086.00    8.25364  10.74971   -2.000
 7087.00    8.72185  10.59033   -2.000
 7088.00    9.42298  10.45351   -2.000
 7089.00    9.16436  10.41405   -2.000
 7090.00    8.81454  10.49108   -2.000
 7091.00    8.86965  10.53465   -2.000
 7092.00    8.94852  10.53574   -2.000
 7093.00    8.99235  10.57174   -2.000
 7094.00    9.03241  10.61106   -2.000
 7095.00    8.67895  10.66415   -2.000
 7096.00    8.31318  10.75620   -2.000
 7097.00    7.64145  10.88898   -2.000
 7098.00    7.06168  11.00751   -2.000
 7099.00    7.70330  11.00622   -2.000
 7100.00    8.14866  10.85960   -2.000
 7101.00    6.85449  10.71173   -2.000
 7102.00    5.79407  10.76155   -2.000
 7103.00    6.26072  10.98211   -2.000
 7104.00    6.88395  11.07191   -2.000
 7105.00    8.30477  10.90939   -2.000
 7106.00    9.09044  10.76262   -2.000
 7107.00    7.26179  10.80417   -2.000
 7108.00    5.97848  10.81806   -2.000
 7109.00    6.55403  10.65001   -2.000
 7110.00    7.19806  10.51897   -2.000
 7111.00    8.03886  10.62911   -2.000
 7112.00    8.57371  10.85088   -2.000
 7113.00    8.35789  10.98221   -2.000
 7114.00    8.33976  11.03571   -2.000
 7115.00    8.73997  11.05770   -2.000
 7116.00    8.60707  11.01933   -2.000
 7117.00    7.49391  10.95949   -2.000
 7118.00    6.62785  10.92515   -2.000
 7119.00    6.15878  10.89596   -2.000
 7120.00    6.08800  10.81338   -2.000
 7121.00    6.57869  10.77426   -2.000
 7122.00    6.36195  10.87623   -2.000
 7123.00    5.26772  10.87675   -2.000
 7124.00    5.43045  10.63512   -2.000
 7125.00    6.96743  10.41810   -2.000
 7126.00    8.45228  10.44709   -2.000
 7127.00    9.88686  10.52197   -2.000
 7128.00    9.98402  10.34771   -2.000
 7129.00    8.94388  10.07603   -2.000
 7130.00    8.00315  10.07130   -2.000
 7131.00    7.13687  10.32935   -2.000
 7132.00    7.51455  10.62749   -2.000
 7133.00    8.71070  10.80801   -2.000
 7134.00    8.88159  10.85103   -2.000
 7135.00    8.46193  10.93109   -2.000
 7136.00    7.81549  10.99333   -2.000
 7137.00    7.05527  10.80919   -2.000
 7138.00    7.08244  10.60557   -2.000
 7139.00    7.45154  10.73279   -2.000
 7140.00    7.66770  10.96960   -2.000
 7141.00    7.82689  10.99749   -2.000
 7142.00    7.37228  10.92671   -2.000
 7143.00    6.72380  10.90104   -2.000
 7144.00    7.64855  10.90728   -2.000
 7145.00    8.98818  10.81703   -2.000
 7146.00    8.46761  10.52758   -2.000
 7147.00    7.54608  10.32369   -2.000
 7148.00    7.21804  10.43081   -2.000
 7149.00    6.99143  10.64993   -2.000
 7150.00    6.54159  10.88663   -2.000
 7151.00    6.06285  11.17303   -2.000
 7152.00    6.71728  11.31451   -2.000
 7153.00    7.47461  11.15329   -2.000
 7154.00    7.33706  10.98379   -2.000
 7155.00    7.15054  11.15179   -2.000
 7156.00    7.13862  11.36217   -2.000
 7157.00    7.12201  11.24797   -2.000
 7158.00    6.34262  10.99314   -2.000
 7159.00    5.67231  10.91782   -2.000
 7160.00    7.47797  11.07967   -2.000
 7161.00    9.28187  11.17838   -2.000
 7162.00   11.06368  10.90304   -2.000
 7163.00   12.60872  10.46367   -2.000
 7164.00   12.13389  10.38405   -2.000
 7165.00   11.33051  10.78250   -2.000
 7166.00    8.44486  11.27382   -2.000
 7167.00    6.30058  11.47111   -2.000
 7168.00    7.83726  11.36719   -2.000
 7169.00    9.32055  11.29455   -2.000
 7170.00   10.58892  11.44712   -2.000
 7171.00   11.40263  11.64416   -2.000
 7172.00   10.69734  11.66654   -2.000
 7173.00    9.87773  11.49282   -2.000
 7174.00    8.73566  11.22953   -2.000
 7175.00    8.11269  11.14120   -2.000
 7176.00    8.74180  11.38015   -2.000
 7177.00    8.76522  11.55120   -2.000
 7178.00    7.52745  11.26556   -2.000
 7179.00    7.12826  10.78193   -2.000
 7180.00    8.24738  10.67461   -2.000
 7181.00    8.66671  11.10767   -2.000
 7182.00    7.97833  11.59465   -2.000
 7183.00    7.65605  11.71815   -2.000
 7184.00    7.84238  11.53322   -2.000
 7185.00    7.40572  11.13911   -2.000
 7186.00    6.20724  10.72970   -2.000
 7187.00    6.19778  10.60489   -2.000
 7188.00    7.47002  10.78915   -2.000
 7189.00    7.96418  11.08937   -2.000
 7190.00    7.71853  11.22965   -2.000
 7191.00    7.75347  11.12776   -2.000
 7192.00    8.02363  11.07144   -2.000
 7193.00    8.14719  11.25553   -2.000
 7194.00    8.16254  11.43429   -2.000
 7195.00    8.22272  11.34546   -2.000
 7196.00    8.31198  11.20505   -2.000
 7197.00    7.26129  11.26288   -2.000
 7198.00    5.56394  11.38436   -2.000
 7199.00    5.78593  11.38136   -2.000
 7200.00    6.95580  11.29564   -2.000
 7201.00    8.33963  11.34828   -2.000
 7202.00    9.81482  11.59811   -2.000
 7203.00   10.76698  11.79519   -2.000
 7204.00   11.52776  11.61413   -2.000
 7205.00    9.39432  11.03684   -2.000
 7206.00    6.36432  10.58310   -2.000
 7207.00    6.37580  10.63554   -2.000
 7208.00    7.17230  11.04577   -2.000
 7209.00    6.67343  11.55199   -2.000
 7210.00    5.90209  11.81476   -2.000
 7211.00    5.51865  11.66808   -2.000
 7212.00    5.19963  11.38252   -2.000
 7213.00    6.40409  11.24731   -2.000
 7214.00    7.79892  11.29702   -2.000
 7215.00    8.57390  11.51170   -2.000
 7216.00    9.29521  11.81074   -2.000
 7217.00    8.76674  11.94297   -2.000
 7218.00    8.17478  11.82541   -2.000
