###################################################################
## OUTPUT of StarlightChains_v04.for    [Cid@UFSC - 01/Apr/2007] ##
###################################################################

## Some input info
KUG0210-078._54_42.txt                   [arq_obs]
Base.CB07.vall.4m                        [arq_base]
Masks.EmLines.NEW.gm                     [arq_masks]
StCv04.C11.config                        [arq_config]
   66                                    [N_base]
    0                                    [N_YAV_components = # of components with extra extinction!]
    0                                    [i_FitPowerLaw (1/0 = Yes/No)]
-9.99                                    [alpha_PowerLaw]
CCM                                      [red_law_option]
 1.458241                                [q_norm = A(l_norm)/A(V)]

## (Re)Sampling Parameters
 3741.00                                 [l_ini (A)]
 7218.00                                 [l_fin (A)]
    1.00                                 [dl    (A)]     (OBS: dl_cushion =    50.00 A)

## Normalization info
 4020.00                                 [l_norm (A) - for base]
 4010.00                                 [llow_norm (A) - window for f_obs]
 4060.00                                 [lupp_norm (A) - window for f_obs]
2.699703E-18                             [fobs_norm (in input units)]

## S/N
 3691.00                                 [llow_SN (A) - window for S/N]
 7268.00                                 [lupp_SN (A) - window for S/N]
   2.650                                 [S/N in S/N window]
   1.431                                 [S/N in norm. window]
   0.006                                 [S/N_err in S/N window]
   0.003                                 [S/N_err in norm. window]
  1.0000                                 [fscale_chi2]

## etc...
    -2008010                             [idum_orig]
  2367                                   [NOl_eff]
  2306                                   [Nl_eff]
    61    NSIGMA                         [Ntot_cliped & clip_method]
  5313630                                [Nglobal_steps]
   7                                     [N_chains]
   7                                     [NEX0s_base = N_base in EX0s-fits]
 0   0   1       61   2.0   9.108E+02    [Clip-Bug, RC-Crash & Burn-In warning-flags, n_censored_weights, wei_nsig_threshold & wei_limit]
    56     55.162     54.280      0.882  [idt_all, wdt_TotTime, wdt_UsrTime & wdt_SysTime (sec)]

## Synthesis Results - Best model ##

 1.68641E-05                             [chi2/Nl_eff]
    37.41291                             [adev (%)]

   130.00000                             [sum-of-x (%)]
 4.29829E-16                             [Flux_tot (units of input spectrum!)]
 3.79411E-14                             [Mini_tot (???)]
 3.79411E-14                             [Mcor_tot (???)]

 -42.32                                  [v0_min  (km/s)]
 336.51                                  [vd_min  (km/s)]
 3.5797                                  [AV_min  (mag)]
 0.0000                                  [YAV_min (mag)]

# j     x_j(%)      Mini_j(%)     Mcor_j(%)     age_j(yr)     Z_j      (L/M)_j    YAV?  Mstars   component_j        a/Fe...       SSP_chi2r SSP_adev(%)   SSP_AV   SSP_x(%)
  1    110.7861     8.8249E+01    8.8249E+01    1.000000E+06  0.00400  1.094E-02    0   1.0000   age020_m42            0.0000     1.5013E-05    37.0200   3.0289   171.5952
  2      0.0000     0.0000E+00    0.0000E+00    3.160000E+06  0.00400  4.007E-02    0   0.9999   age045_m42            0.0000     1.5176E-05    37.7211   2.2734   184.9541
  3      0.0000     0.0000E+00    0.0000E+00    5.010000E+06  0.00400  2.539E-02    0   0.9488   age055_m42            0.0000     1.5213E-05    37.4749   2.6215   178.5853
  4      0.0000     0.0000E+00    0.0000E+00    6.610000E+06  0.00400  2.620E-02    0   0.9220   age061_m42            0.0000     1.5376E-05    37.9221   2.2135   184.0594
  5      0.0000     0.0000E+00    0.0000E+00    1.000000E+07  0.00400  1.322E-02    0   0.8862   age070_m42            0.0000     1.5675E-05    39.4049   1.9741   184.1801
  6      0.0000     0.0000E+00    0.0000E+00    1.445000E+07  0.00400  7.883E-03    0   0.8571   age078_m42            0.0000     1.5564E-05    39.0448   2.3067   179.4724
  7      0.0000     0.0000E+00    0.0000E+00    2.512000E+07  0.00400  5.251E-03    0   0.8174   age090_m42            0.0000     1.5746E-05    39.7364   1.8485   184.7593
  8      0.0000     0.0000E+00    0.0000E+00    4.000000E+07  0.00400  3.649E-03    0   0.7851   age104_m42            0.0000     1.5759E-05    39.6853   1.6119   187.0200
  9      0.0000     0.0000E+00    0.0000E+00    5.500000E+07  0.00400  3.098E-03    0   0.7629   age110_m42            0.0000     1.5651E-05    39.1424   1.7384   189.3808
 10      0.0000     0.0000E+00    0.0000E+00    1.015200E+08  0.00400  2.228E-03    0   0.7207   age116_m42            0.0000     1.5657E-05    38.7931   1.7376   191.2222
 11      0.0000     0.0000E+00    0.0000E+00    2.861200E+08  0.00400  1.093E-03    0   0.6648   age125_m42            0.0000     1.5984E-05    39.8189   1.1743   195.3844
 12      0.0000     0.0000E+00    0.0000E+00    5.088000E+08  0.00400  6.597E-04    0   0.6365   age130_m42            0.0000     1.5964E-05    39.1939   1.1332   199.7136
 13      0.0000     0.0000E+00    0.0000E+00    1.434000E+09  0.00400  2.132E-04    0   0.5798   age139_m42            0.0000     1.6063E-05    38.8518   0.1604   204.0772
 14      0.0000     0.0000E+00    0.0000E+00    4.250000E+09  0.00400  5.895E-05    0   0.5377   age158_m42            0.0000     1.5910E-05    37.4129  -0.2676   195.8867
 15      0.0000     0.0000E+00    0.0000E+00    7.500000E+09  0.00400  3.510E-05    0   0.5212   age171_m42            0.0000     1.5959E-05    36.9871  -0.4702   195.6157
 16      0.0000     0.0000E+00    0.0000E+00    1.300000E+10  0.00400  2.005E-05    0   0.5034   age193_m42            0.0000     1.6093E-05    36.6796  -0.6412   194.9060
 17      0.0000     0.0000E+00    0.0000E+00    1.800000E+10  0.00400  1.525E-05    0   0.4967   age213_m42            0.0000     1.6065E-05    36.7668  -0.6570   193.5841
 18      6.4977     4.5738E+00    4.5738E+00    1.000000E+06  0.00800  1.238E-02    0   1.0000   age020_m52            0.0000     1.5016E-05    37.0006   3.0266   171.8229
 19      0.0000     0.0000E+00    0.0000E+00    3.160000E+06  0.00800  3.074E-02    0   0.9966   age045_m52            0.0000     1.5047E-05    37.0168   2.9563   173.0071
 20      0.0000     0.0000E+00    0.0000E+00    5.010000E+06  0.00800  2.668E-02    0   0.9443   age055_m52            0.0000     1.5219E-05    37.4172   2.7118   176.4558
 21      0.0000     0.0000E+00    0.0000E+00    6.610000E+06  0.00800  2.136E-02    0   0.9177   age061_m52            0.0000     1.5682E-05    39.1306   1.4877   185.6311
 22      0.0000     0.0000E+00    0.0000E+00    1.000000E+07  0.00800  1.215E-02    0   0.8827   age070_m52            0.0000     1.5699E-05    39.8140   2.1664   182.6564
 23      0.0000     0.0000E+00    0.0000E+00    1.445000E+07  0.00800  8.717E-03    0   0.8552   age078_m52            0.0000     1.5579E-05    39.1692   2.2683   182.1096
 24      0.0000     0.0000E+00    0.0000E+00    2.512000E+07  0.00800  5.592E-03    0   0.8162   age090_m52            0.0000     1.5753E-05    39.9808   1.9106   187.0102
 25      0.0000     0.0000E+00    0.0000E+00    4.000000E+07  0.00800  3.896E-03    0   0.7841   age104_m52            0.0000     1.5727E-05    39.7915   1.8033   189.8363
 26      0.0000     0.0000E+00    0.0000E+00    1.015200E+08  0.00800  2.148E-03    0   0.7226   age116_m52            0.0000     1.5726E-05    39.2005   1.7229   191.1535
 27      0.0000     0.0000E+00    0.0000E+00    2.861200E+08  0.00800  9.925E-04    0   0.6683   age125_m52            0.0000     1.6000E-05    39.2858   1.2009   201.4918
 28      0.0000     0.0000E+00    0.0000E+00    9.047900E+08  0.00800  3.141E-04    0   0.6138   age135_m52            0.0000     1.6087E-05    38.6610   0.3565   213.5247
 29      0.0000     0.0000E+00    0.0000E+00    1.434000E+09  0.00800  1.719E-04    0   0.5853   age139_m52            0.0000     1.5939E-05    38.3234  -0.2065   207.8350
 30      0.0000     0.0000E+00    0.0000E+00    2.500000E+09  0.00800  7.872E-05    0   0.5600   age150_m52            0.0000     1.5967E-05    36.9721  -0.4800   203.3606
 31      0.0000     0.0000E+00    0.0000E+00    4.250000E+09  0.00800  4.336E-05    0   0.5426   age158_m52            0.0000     1.6005E-05    36.8409  -0.4903   201.0795
 32      0.0000     0.0000E+00    0.0000E+00    6.250000E+09  0.00800  3.159E-05    0   0.5319   age166_m52            0.0000     1.6178E-05    36.3754  -0.7094   202.4735
 33      0.0000     0.0000E+00    0.0000E+00    1.300000E+10  0.00800  1.361E-05    0   0.5073   age193_m52            0.0000     1.6630E-05    37.6563  -1.0000   194.1421
 34      0.0000     0.0000E+00    0.0000E+00    1.800000E+10  0.00800  9.886E-06    0   0.4990   age213_m52            0.0000     1.7001E-05    38.6537  -1.0000   188.8751
 35     12.7162     7.1771E+00    7.1771E+00    1.000000E+06  0.02000  1.544E-02    0   1.0000   age020_m62            0.0000     1.5020E-05    37.0261   3.0289   171.9203
 36      0.0000     0.0000E+00    0.0000E+00    3.160000E+06  0.02000  3.762E-02    0   0.9858   age045_m62            0.0000     1.5075E-05    37.0048   2.9727   173.0749
 37      0.0000     0.0000E+00    0.0000E+00    5.010000E+06  0.02000  3.296E-02    0   0.9342   age055_m62            0.0000     1.5279E-05    37.4308   2.5757   181.1540
 38      0.0000     0.0000E+00    0.0000E+00    8.710000E+06  0.02000  1.154E-02    0   0.8861   age067_m62            0.0000     1.6454E-05    42.9302   1.6896   180.5621
 39      0.0000     0.0000E+00    0.0000E+00    1.445000E+07  0.02000  7.663E-03    0   0.8472   age078_m62            0.0000     1.5937E-05    40.8989   1.8279   184.8252
 40      0.0000     0.0000E+00    0.0000E+00    2.512000E+07  0.02000  4.532E-03    0   0.8099   age090_m62            0.0000     1.6053E-05    41.1924   1.8248   183.7127
 41      0.0000     0.0000E+00    0.0000E+00    5.500000E+07  0.02000  2.733E-03    0   0.7595   age110_m62            0.0000     1.5822E-05    39.7483   1.8033   187.2890
 42      0.0000     0.0000E+00    0.0000E+00    1.609000E+08  0.02000  1.369E-03    0   0.6985   age120_m62            0.0000     1.5909E-05    39.3029   1.5927   196.2088
 43      0.0000     0.0000E+00    0.0000E+00    2.861200E+08  0.02000  9.013E-04    0   0.6714   age125_m62            0.0000     1.6019E-05    39.1450   1.3008   205.0482
 44      0.0000     0.0000E+00    0.0000E+00    5.088000E+08  0.02000  5.028E-04    0   0.6449   age130_m62            0.0000     1.5984E-05    38.4357   0.8669   215.3827
 45      0.0000     0.0000E+00    0.0000E+00    9.047900E+08  0.02000  2.428E-04    0   0.6179   age135_m62            0.0000     1.5863E-05    37.7174   0.2852   213.7564
 46      0.0000     0.0000E+00    0.0000E+00    1.434000E+09  0.02000  1.263E-04    0   0.5908   age139_m62            0.0000     1.5820E-05    37.1755  -0.1490   209.9368
 47      0.0000     0.0000E+00    0.0000E+00    2.500000E+09  0.02000  5.985E-05    0   0.5673   age150_m62            0.0000     1.6003E-05    36.3196  -0.5197   207.7859
 48      0.0000     0.0000E+00    0.0000E+00    4.250000E+09  0.02000  3.271E-05    0   0.5468   age158_m62            0.0000     1.6386E-05    35.5172  -0.8405   207.3051
 49      0.0000     0.0000E+00    0.0000E+00    1.000000E+10  0.02000  1.360E-05    0   0.5167   age181_m62            0.0000     1.6947E-05    36.9238  -1.0000   199.2911
 50      0.0000     0.0000E+00    0.0000E+00    1.800000E+10  0.02000  7.124E-06    0   0.5013   age213_m62            0.0000     1.7614E-05    39.2355  -1.0000   188.2955
 51      0.0000     0.0000E+00    0.0000E+00    1.000000E+06  0.05000  2.592E-02    0   0.9998   age020_m72            0.0000     1.5004E-05    37.0340   3.0266   171.5663
 52      0.0000     0.0000E+00    0.0000E+00    3.160000E+06  0.05000  4.845E-02    0   0.9577   age045_m72            0.0000     1.5160E-05    37.0262   2.8507   175.5798
 53      0.0000     0.0000E+00    0.0000E+00    5.010000E+06  0.05000  3.072E-02    0   0.9147   age055_m72            0.0000     1.5670E-05    39.6106   2.3962   179.4188
 54      0.0000     0.0000E+00    0.0000E+00    6.610000E+06  0.05000  1.455E-02    0   0.8877   age061_m72            0.0000     1.6996E-05    45.0840   1.7297   179.6270
 55      0.0000     0.0000E+00    0.0000E+00    1.000000E+07  0.05000  9.074E-03    0   0.8524   age070_m72            0.0000     1.5743E-05    39.9514   2.5543   179.3973
 56      0.0000     0.0000E+00    0.0000E+00    2.512000E+07  0.05000  4.250E-03    0   0.7902   age090_m72            0.0000     1.5820E-05    40.2090   2.2601   182.9801
 57      0.0000     0.0000E+00    0.0000E+00    4.000000E+07  0.05000  3.087E-03    0   0.7618   age104_m72            0.0000     1.5956E-05    40.7014   2.0303   185.8437
 58      0.0000     0.0000E+00    0.0000E+00    1.015200E+08  0.05000  1.700E-03    0   0.7096   age116_m72            0.0000     1.5910E-05    39.8164   1.7444   194.3028
 59      0.0000     0.0000E+00    0.0000E+00    2.861200E+08  0.05000  7.384E-04    0   0.6633   age125_m72            0.0000     1.5949E-05    38.7248   1.1326   210.9098
 60      0.0000     0.0000E+00    0.0000E+00    5.088000E+08  0.05000  3.819E-04    0   0.6372   age130_m72            0.0000     1.5788E-05    37.7259   0.6097   217.2603
 61      0.0000     0.0000E+00    0.0000E+00    9.047900E+08  0.05000  1.676E-04    0   0.6110   age135_m72            0.0000     1.5803E-05    36.3056  -0.0822   213.7884
 62      0.0000     0.0000E+00    0.0000E+00    1.434000E+09  0.05000  8.837E-05    0   0.5874   age139_m72            0.0000     1.6039E-05    36.2529  -0.5348   211.8773
 63      0.0000     0.0000E+00    0.0000E+00    2.500000E+09  0.05000  4.233E-05    0   0.5598   age150_m72            0.0000     1.6503E-05    35.3420  -0.8541   210.2327
 64      0.0000     0.0000E+00    0.0000E+00    6.250000E+09  0.05000  1.435E-05    0   0.5249   age166_m72            0.0000     1.7116E-05    38.0248  -1.0000   194.3988
 65      0.0000     0.0000E+00    0.0000E+00    1.300000E+10  0.05000  6.513E-06    0   0.5036   age193_m72            0.0000     1.8226E-05    41.3652  -1.0000   182.2901
 66      0.0000     0.0000E+00    0.0000E+00    1.800000E+10  0.05000  4.527E-06    0   0.4945   age213_m72            0.0000     1.8972E-05    43.3443  -1.0000   173.4707


## Synthesis Results - Average & Chains ##

# j      x_j: min, <> & last-chain-values for 1 ...  7 chains
  1    110.7861    114.5607    122.9840    121.6491    122.2914    122.3334    121.1929    122.5869    123.0861
  2      0.0000      0.1544      0.0000      0.0000      0.0835      0.0737      0.0065      0.0355      0.0000
  3      0.0000      0.1077      0.0230      0.0532      0.0000      0.0043      0.0557      0.0109      0.0000
  4      0.0000      0.1340      0.0041      0.0758      0.0087      0.0352      0.0394      0.0380      0.0130
  5      0.0000      0.1373      0.0326      0.0000      0.0016      0.0000      0.0569      0.0474      0.0096
  6      0.0000      0.1404      0.0000      0.0513      0.0308      0.0000      0.0174      0.0135      0.0000
  7      0.0000      0.1337      0.0054      0.0456      0.0166      0.0000      0.0333      0.0198      0.0000
  8      0.0000      0.1347      0.0124      0.0000      0.0000      0.0000      0.0000      0.0428      0.0331
  9      0.0000      0.1717      0.0111      0.0477      0.1158      0.0000      0.0181      0.0860      0.0189
 10      0.0000      0.1223      0.0000      0.0815      0.0023      0.0901      0.0000      0.0000      0.0000
 11      0.0000      0.1177      0.0000      0.0959      0.0130      0.0000      0.0000      0.0061      0.0000
 12      0.0000      0.1522      0.0000      0.0315      0.0000      0.0300      0.0320      0.0309      0.0313
 13      0.0000      0.1006      0.0155      0.0000      0.0000      0.0006      0.0065      0.0034      0.0208
 14      0.0000      0.1193      0.0179      0.0000      0.0000      0.0013      0.0458      0.0000      0.0000
 15      0.0000      0.1402      0.0057      0.1386      0.0451      0.0525      0.0000      0.0005      0.0064
 16      0.0000      0.1313      0.0105      0.0079      0.0323      0.0352      0.1068      0.0210      0.0001
 17      0.0000      0.1594      0.0410      0.0000      0.0000      0.0052      0.0115      0.0555      0.0000
 18      6.4977      0.7573      0.5448      0.4110      0.7062      0.5689      1.5045      0.5603      0.5288
 19      0.0000      0.1312      0.0012      0.2123      0.0361      0.0763      0.0000      0.0518      0.0244
 20      0.0000      0.1723      0.0199      0.0000      0.0418      0.0512      0.0156      0.0357      0.0417
 21      0.0000      0.1873      0.0009      0.0588      0.0091      0.0000      0.0000      0.0323      0.0195
 22      0.0000      0.1758      0.0217      0.0059      0.0309      0.0310      0.0516      0.0470      0.0305
 23      0.0000      0.1247      0.0000      0.0624      0.0060      0.0366      0.0217      0.0551      0.0129
 24      0.0000      0.1017      0.0062      0.0352      0.0560      0.0000      0.1220      0.0000      0.0148
 25      0.0000      0.1571      0.0459      0.1140      0.0340      0.0000      0.0000      0.0184      0.0099
 26      0.0000      0.1019      0.0376      0.0804      0.0371      0.0000      0.0602      0.0000      0.0014
 27      0.0000      0.1188      0.0058      0.0000      0.0000      0.0317      0.0146      0.0000      0.0000
 28      0.0000      0.1613      0.0244      0.0000      0.0047      0.0000      0.0000      0.0203      0.0220
 29      0.0000      0.1887      0.0000      0.0004      0.0240      0.0260      0.0698      0.0000      0.0000
 30      0.0000      0.1627      0.0135      0.0486      0.0000      0.0136      0.0000      0.0024      0.0000
 31      0.0000      0.1924      0.0166      0.0079      0.0279      0.0000      0.0485      0.0396      0.0193
 32      0.0000      0.1213      0.0060      0.0000      0.0000      0.0151      0.0081      0.0263      0.0163
 33      0.0000      0.1441      0.0000      0.0135      0.1351      0.0000      0.0000      0.0239      0.0138
 34      0.0000      0.2450      0.0138      0.0448      0.0881      0.0639      0.2420      0.0752      0.0156
 35     12.7162      0.2013      0.0813      0.0262      0.0629      0.0000      0.0465      0.0048      0.0000
 36      0.0000      0.1349      0.0001      0.0511      0.0000      0.0202      0.0493      0.0000      0.0324
 37      0.0000      0.1059      0.0432      0.0448      0.0146      0.1275      0.0262      0.0061      0.0324
 38      0.0000      0.1105      0.0075      0.0574      0.0217      0.0139      0.0024      0.0000      0.0072
 39      0.0000      0.2075      0.0497      0.0937      0.0000      0.0633      0.0134      0.0051      0.0413
 40      0.0000      0.1347      0.0252      0.0352      0.0076      0.0257      0.0667      0.0933      0.0000
 41      0.0000      0.1344      0.0266      0.0000      0.0000      0.0000      0.0815      0.0000      0.0162
 42      0.0000      0.1425      0.0250      0.0273      0.0105      0.0041      0.0000      0.0000      0.0150
 43      0.0000      0.1539      0.0000      0.0244      0.0386      0.0011      0.0223      0.0168      0.0314
 44      0.0000      0.1452      0.0337      0.0545      0.0547      0.0234      0.0300      0.0000      0.0376
 45      0.0000      0.1556      0.0000      0.0016      0.0000      0.0573      0.0000      0.0474      0.0125
 46      0.0000      0.1253      0.0051      0.0000      0.0158      0.0204      0.0657      0.0000      0.0000
 47      0.0000      0.1231      0.0286      0.0102      0.0000      0.0000      0.0031      0.0000      0.0000
 48      0.0000      0.1479      0.0184      0.0080      0.0113      0.0083      0.0000      0.0064      0.0000
 49      0.0000      0.1408      0.0029      0.0224      0.0108      0.0648      0.0039      0.0935      0.0072
 50      0.0000      0.1790      0.0000      0.1186      0.0208      0.0208      0.0000      0.0026      0.0022
 51      0.0000      0.1325      0.0305      0.0230      0.0502      0.0069      0.0279      0.0116      0.0077
 52      0.0000      0.1595      0.0425      0.0000      0.0000      0.0000      0.0504      0.0118      0.0266
 53      0.0000      0.1457      0.0621      0.0815      0.0866      0.0789      0.0834      0.0017      0.0000
 54      0.0000      0.1296      0.0236      0.0998      0.0429      0.0000      0.0000      0.0537      0.0066
 55      0.0000      0.1045      0.0000      0.0943      0.0000      0.0000      0.0148      0.0171      0.0198
 56      0.0000      0.1837      0.0000      0.0222      0.0000      0.0370      0.0248      0.0059      0.0206
 57      0.0000      0.1195      0.0123      0.0022      0.0000      0.0000      0.0104      0.0000      0.0206
 58      0.0000      0.1838      0.0000      0.0586      0.0414      0.0759      0.0189      0.0181      0.0000
 59      0.0000      0.1701      0.0081      0.0000      0.0931      0.1026      0.0114      0.0405      0.0769
 60      0.0000      0.2033      0.0000      0.0437      0.0321      0.0274      0.0318      0.0000      0.0223
 61      0.0000      0.1576      0.0016      0.0286      0.0095      0.0056      0.0720      0.0174      0.0000
 62      0.0000      0.1574      0.0000      0.0000      0.0000      0.0000      0.0013      0.0086      0.0219
 63      0.0000      0.1892      0.0671      0.0394      0.0018      0.0374      0.0318      0.0131      0.0057
 64      0.0000      0.1652      0.0041      0.0000      0.0000      0.0644      0.0000      0.0169      0.0000
 65      0.0000      0.1362      0.0000      0.0021      0.0039      0.0150      0.0000      0.0070      0.0075
 66      0.0000      5.2773      5.4792      5.5142      5.4912      5.5160      5.4289      5.5132      5.5378

# j      m_j: min, <> & last-chain-values for 1 ...  7 chains
  1  8.8249E+01  1.5671E+00  1.8287E+00  1.7661E+00  1.7877E+00  1.7808E+00  1.7800E+00  1.7869E+00  1.8154E+00
  2  0.0000E+00  5.7657E-04  0.0000E+00  0.0000E+00  3.3330E-04  2.9305E-04  2.5926E-05  1.4145E-04  0.0000E+00
  3  0.0000E+00  6.0203E-04  1.3997E-04  3.1577E-04  0.0000E+00  2.5766E-05  3.3433E-04  6.5190E-05  0.0000E+00
  4  0.0000E+00  7.0568E-04  2.3242E-05  4.2353E-04  4.9058E-05  1.9717E-04  2.2270E-04  2.1327E-04  7.3910E-05
  5  0.0000E+00  1.3771E-03  3.5574E-04  0.0000E+00  1.6788E-05  0.0000E+00  6.1256E-04  5.0687E-04  1.0371E-04
  6  0.0000E+00  2.2839E-03  0.0000E+00  8.8649E-04  5.3490E-04  0.0000E+00  3.0341E-04  2.3401E-04  0.0000E+00
  7  0.0000E+00  3.1149E-03  1.3698E-04  1.1280E-03  4.1261E-04  0.0000E+00  8.3354E-04  4.9252E-04  0.0000E+00
  8  0.0000E+00  4.3376E-03  4.3446E-04  0.0000E+00  0.0000E+00  0.0000E+00  0.0000E+00  1.4672E-03  1.1475E-03
  9  0.0000E+00  6.3274E-03  4.4408E-04  1.8659E-03  4.5615E-03  0.0000E+00  7.1737E-04  3.3769E-03  7.5096E-04
 10  0.0000E+00  5.9209E-03  0.0000E+00  4.1845E-03  1.1763E-04  4.6415E-03  0.0000E+00  0.0000E+00  0.0000E+00
 11  0.0000E+00  1.0718E-02  0.0000E+00  9.2639E-03  1.2613E-03  0.0000E+00  0.0000E+00  5.9398E-04  0.0000E+00
 12  0.0000E+00  2.1978E-02  0.0000E+00  4.8327E-03  0.0000E+00  4.6050E-03  4.9662E-03  4.7481E-03  4.8674E-03
 13  0.0000E+00  4.0944E-02  6.8406E-03  0.0000E+00  0.0000E+00  2.6476E-04  2.8346E-03  1.4953E-03  9.1340E-03
 14  0.0000E+00  1.6279E-01  2.6517E-02  0.0000E+00  0.0000E+00  1.9380E-03  6.7128E-02  0.0000E+00  0.0000E+00
 15  0.0000E+00  3.1150E-01  1.3856E-02  3.2679E-01  1.0717E-01  1.2405E-01  0.0000E+00  1.2013E-03  1.5272E-02
 16  0.0000E+00  4.9318E-01  4.2878E-02  3.1331E-02  1.2957E-01  1.4084E-01  4.3100E-01  8.4215E-02  5.3194E-04
 17  0.0000E+00  7.7675E-01  2.1711E-01  0.0000E+00  0.0000E+00  2.6826E-02  6.0110E-02  2.8832E-01  0.0000E+00
 18  4.5738E+00  9.1545E-03  7.1592E-03  5.2722E-03  9.1226E-03  7.3177E-03  1.9526E-02  7.2173E-03  6.8925E-03
 19  0.0000E+00  6.3674E-04  6.4449E-06  1.0933E-03  1.8714E-04  3.9418E-04  0.0000E+00  2.6804E-04  1.2755E-04
 20  0.0000E+00  9.1279E-04  1.1444E-04  0.0000E+00  2.3639E-04  2.8846E-04  8.8870E-05  2.0173E-04  2.3809E-04
 21  0.0000E+00  1.2041E-03  6.5383E-06  4.0095E-04  6.2353E-05  0.0000E+00  0.0000E+00  2.2110E-04  1.3545E-04
 22  0.0000E+00  1.9108E-03  2.5632E-04  6.8371E-05  3.5943E-04  3.5885E-04  6.0238E-04  5.4456E-04  3.5787E-04
 23  0.0000E+00  1.8315E-03  0.0000E+00  9.7293E-04  9.4077E-05  5.7252E-04  3.4130E-04  8.6189E-04  2.0420E-04
 24  0.0000E+00  2.2219E-03  1.4657E-04  8.1595E-04  1.3064E-03  0.0000E+00  2.8614E-03  0.0000E+00  3.4814E-04
 25  0.0000E+00  4.7305E-03  1.5041E-03  3.6449E-03  1.0928E-03  0.0000E+00  0.0000E+00  5.9002E-04  3.2266E-04
 26  0.0000E+00  5.1312E-03  2.0577E-03  4.2965E-03  1.9948E-03  0.0000E+00  3.2516E-03  0.0000E+00  7.5637E-05
 27  0.0000E+00  1.1971E-02  6.4016E-04  0.0000E+00  0.0000E+00  3.4029E-03  1.5820E-03  0.0000E+00  0.0000E+00
 28  0.0000E+00  4.7173E-02  7.7678E-03  0.0000E+00  1.4588E-03  0.0000E+00  0.0000E+00  6.3144E-03  6.9306E-03
 29  0.0000E+00  9.6138E-02  0.0000E+00  2.1803E-04  1.3084E-02  1.4074E-02  3.8190E-02  0.0000E+00  0.0000E+00
 30  0.0000E+00  1.7323E-01  1.5648E-02  5.4897E-02  0.0000E+00  1.5381E-02  0.0000E+00  2.6685E-03  0.0000E+00
 31  0.0000E+00  3.6026E-01  3.3776E-02  1.5765E-02  5.5829E-02  0.0000E+00  9.7439E-02  7.8961E-02  3.8942E-02
 32  0.0000E+00  3.0576E-01  1.6416E-02  0.0000E+00  0.0000E+00  4.0460E-02  2.1983E-02  7.0627E-02  4.4397E-02
 33  0.0000E+00  8.0375E-01  0.0000E+00  7.9804E-02  8.0549E-01  0.0000E+00  0.0000E+00  1.4188E-01  8.2808E-02
 34  0.0000E+00  1.8506E+00  1.1312E-01  3.5917E-01  7.1141E-01  5.1378E-01  1.9623E+00  6.0527E-01  1.2739E-01
 35  7.1771E+00  1.9510E-03  8.5642E-04  2.6906E-04  6.5124E-04  0.0000E+00  4.8388E-04  4.9956E-05  0.0000E+00
 36  0.0000E+00  5.2918E-04  2.6162E-07  2.1277E-04  0.0000E+00  8.4474E-05  2.0759E-04  0.0000E+00  1.3682E-04
 37  0.0000E+00  4.4936E-04  1.9923E-04  2.0173E-04  6.6396E-05  5.7547E-04  1.1927E-04  2.7606E-05  1.4834E-04
 38  0.0000E+00  1.2702E-03  9.3437E-05  7.0041E-04  2.6660E-04  1.6960E-04  2.9377E-05  0.0000E+00  8.8711E-05
 39  0.0000E+00  3.4324E-03  8.9295E-04  1.6445E-03  0.0000E+00  1.1153E-03  2.3741E-04  9.0490E-05  7.3720E-04
 40  0.0000E+00  3.6029E-03  7.3384E-04  9.9769E-04  2.1750E-04  7.3091E-04  1.9139E-03  2.6597E-03  0.0000E+00
 41  0.0000E+00  5.5874E-03  1.2014E-03  0.0000E+00  0.0000E+00  0.0000E+00  3.6407E-03  0.0000E+00  7.2632E-04
 42  0.0000E+00  1.0879E-02  2.0780E-03  2.2113E-03  8.5977E-04  3.2988E-04  0.0000E+00  0.0000E+00  1.2324E-03
 43  0.0000E+00  1.7154E-02  0.0000E+00  2.8832E-03  4.5999E-03  1.2723E-04  2.6712E-03  1.9982E-03  3.7760E-03
 44  0.0000E+00  2.7873E-02  7.0340E-03  1.1103E-02  1.1226E-02  4.7812E-03  6.1748E-03  0.0000E+00  7.7859E-03
 45  0.0000E+00  5.9241E-02  0.0000E+00  6.5643E-04  0.0000E+00  2.3224E-02  0.0000E+00  1.9238E-02  5.1495E-03
 46  0.0000E+00  8.7692E-02  3.8981E-03  0.0000E+00  1.1837E-02  1.5226E-02  4.9382E-02  0.0000E+00  0.0000E+00
 47  0.0000E+00  1.7456E-01  4.4050E-02  1.5346E-02  0.0000E+00  0.0000E+00  4.6864E-03  0.0000E+00  0.0000E+00
 48  0.0000E+00  3.7003E-01  4.9934E-02  2.1291E-02  3.0342E-02  2.2051E-02  0.0000E+00  1.7124E-02  0.0000E+00
 49  0.0000E+00  8.0075E-01  1.7663E-02  1.3499E-01  6.5362E-02  3.9184E-01  2.4103E-02  5.6647E-01  4.4207E-02
 50  0.0000E+00  1.8854E+00  0.0000E+00  1.3255E+00  2.3360E-01  2.3350E-01  0.0000E+00  2.8916E-02  2.5392E-02
 51  0.0000E+00  7.6499E-04  1.9168E-04  1.4121E-04  3.0955E-04  4.2146E-05  1.7304E-04  7.1544E-05  4.7731E-05
 52  0.0000E+00  4.7174E-04  1.3673E-04  0.0000E+00  0.0000E+00  0.0000E+00  1.6018E-04  3.7327E-05  8.4851E-05
 53  0.0000E+00  6.4913E-04  3.0100E-04  3.8531E-04  4.1255E-04  3.7427E-04  3.9895E-04  7.8789E-06  0.0000E+00
 54  0.0000E+00  1.1836E-03  2.3405E-04  9.6683E-04  4.1828E-04  0.0000E+00  0.0000E+00  5.2242E-04  6.5147E-05
 55  0.0000E+00  1.4690E-03  0.0000E+00  1.4063E-03  0.0000E+00  0.0000E+00  2.2288E-04  2.5631E-04  3.0005E-04
 56  0.0000E+00  5.1127E-03  0.0000E+00  6.5543E-04  0.0000E+00  1.0954E-03  7.4083E-04  1.7357E-04  6.1943E-04
 57  0.0000E+00  4.4119E-03  4.9399E-04  8.7064E-05  0.0000E+00  0.0000E+00  4.1310E-04  0.0000E+00  8.1900E-04
 58  0.0000E+00  1.1483E-02  0.0000E+00  3.8818E-03  2.7643E-03  5.0423E-03  1.2663E-03  1.2066E-03  0.0000E+00
 59  0.0000E+00  2.2862E-02  1.1880E-03  0.0000E+00  1.3373E-02  1.4674E-02  1.6466E-03  5.8048E-03  1.1146E-02
 60  0.0000E+00  5.0750E-02  0.0000E+00  1.1572E-02  8.5585E-03  7.2890E-03  8.5134E-03  0.0000E+00  6.0066E-03
 61  0.0000E+00  8.5963E-02  9.4946E-04  1.6563E-02  5.5308E-03  3.2679E-03  4.2183E-02  1.0136E-02  0.0000E+00
 62  0.0000E+00  1.5658E-01  0.0000E+00  0.0000E+00  0.0000E+00  0.0000E+00  1.3355E-03  9.1407E-03  2.3447E-02
 63  0.0000E+00  3.7448E-01  1.4425E-01  8.2655E-02  3.8932E-03  7.8753E-02  6.7570E-02  2.7605E-02  1.2069E-02
 64  0.0000E+00  9.0453E-01  2.4177E-02  0.0000E+00  0.0000E+00  3.7525E-01  0.0000E+00  9.8733E-02  0.0000E+00
 65  0.0000E+00  1.5758E+00  0.0000E+00  2.5423E-02  4.7967E-02  1.8531E-01  0.0000E+00  8.6821E-02  9.3248E-02
 66  0.0000E+00  8.6266E+01  9.7363E+01  9.5665E+01  9.5924E+01  9.5955E+01  9.5284E+01  9.6033E+01  9.7606E+01

# AV, chi2 & Mass for <> & i_chain = 1 ...  7 solutions
AV       3.5797      2.9273      2.9415      2.9165      2.9237      2.9205      2.9178      2.9243      2.9422
chi2 1.6864E-05  1.8147E-05  1.7781E-05  1.7820E-05  1.7804E-05  1.7808E-05  1.7809E-05  1.7803E-05  1.7783E-05
Mass 3.7941E-14  9.1985E-13  8.6253E-13  8.5425E-13  8.5662E-13  8.5653E-13  8.4587E-13  8.5972E-13  8.7042E-13
 -42.32                                  [v0_min (km/s) before EX0s...]
 336.51                                  [vd_min (km/s) before EX0s...]


## Synthetic spectrum (Best Model) ##l_obs f_obs f_syn wei
 3478    [Nl_obs]
 3741.00    1.70961   1.15194    0.000
 3742.00    0.57311   1.15094    0.000
 3743.00   -1.21116   1.14755    0.000
 3744.00   -2.67759   1.14213    0.000
 3745.00   -3.95883   1.13512    0.000
 3746.00   -2.15623   1.12763    0.000
 3747.00    1.21238   1.12084   -1.000
 3748.00    1.77020   1.11556   -1.000
 3749.00    1.09205   1.11284   -1.000
 3750.00    2.82864   1.11250   -1.000
 3751.00    5.47687   1.11530   -1.000
 3752.00    4.11552   1.12097   -1.000
 3753.00    1.46915   1.12871   -1.000
 3754.00    2.42790   1.13831   -1.000
 3755.00    4.35275   1.14778   -1.000
 3756.00    3.96918   1.15704   -1.000
 3757.00    3.07894   1.16525   -1.000
 3758.00    1.89451   1.17127   -1.000
 3759.00    0.65872   1.17531   -1.000
 3760.00    0.98679   1.17609   -1.000
 3761.00    1.52260   1.17385   -1.000
 3762.00    2.12922   1.16880   -1.000
 3763.00    2.74250   1.16079   -1.000
 3764.00    1.94006   1.15055   -1.000
 3765.00    1.05595   1.13859   -1.000
 3766.00    1.93109   1.12592   -1.000
 3767.00    2.83258   1.11427   -1.000
 3768.00    1.86583   1.10495   -1.000
 3769.00    0.90953   1.09887   -1.000
 3770.00    0.20723   1.09691   -1.000
 3771.00   -0.37026   1.09925    0.000
 3772.00    0.68782   1.10604   -1.000
 3773.00    1.60885   1.11676   -1.000
 3774.00    1.32668   1.13044   -1.000
 3775.00    1.13713   1.14580   -1.000
 3776.00    1.54806   1.16172   -1.000
 3777.00    1.72604   1.17691   -1.000
 3778.00    0.72497   1.19079   -1.000
 3779.00    0.32591   1.20281   -1.000
 3780.00    2.39100   1.21249   -1.000
 3781.00    3.57786   1.21986   -1.000
 3782.00    1.78606   1.22469   -1.000
 3783.00    0.58444   1.22716    0.065
 3784.00    1.07081   1.22711    0.013
 3785.00    1.35781   1.22465    0.008
 3786.00    1.15767   1.21954    0.009
 3787.00    0.63356   1.21174    0.008
 3788.00   -0.57340   1.20132    0.000
 3789.00   -1.28165   1.18826    0.000
 3790.00   -1.07643   1.17295    0.000
 3791.00   -0.82324   1.15570    0.000
 3792.00   -0.49329   1.13724    0.000
 3793.00    0.44884   1.11872    0.008
 3794.00    2.25085   1.10168    0.008
 3795.00    3.01142   1.08805    0.008
 3796.00    2.48477   1.07856    0.008
 3797.00    2.12439   1.07423    0.008
 3798.00    1.94516   1.07518    0.008
 3799.00    2.17891   1.08170    0.008
 3800.00    2.80955   1.09328    0.008
 3801.00    3.02940   1.10874    0.008
 3802.00    2.90116   1.12696    0.008
 3803.00    2.15348   1.14605    0.008
 3804.00    0.94356   1.16501    0.008
 3805.00    0.64701   1.18242    0.008
 3806.00    0.94923   1.19814    0.008
 3807.00    2.15787   1.21149    0.008
 3808.00    3.88667   1.22237    0.008
 3809.00    4.17747   1.23069    0.008
 3810.00    3.74954   1.23645    0.008
 3811.00    1.69300   1.24008    0.008
 3812.00   -1.06783   1.24161    0.000
 3813.00   -0.86918   1.24137    0.000
 3814.00    0.42701   1.23951    0.008
 3815.00    1.33661   1.23614    0.008
 3816.00    2.12469   1.23258    0.008
 3817.00    1.93527   1.22962    0.008
 3818.00    1.48942   1.22650    0.008
 3819.00    2.06315   1.22399    0.008
 3820.00    2.85533   1.22139    0.008
 3821.00    2.83473   1.21901    0.008
 3822.00    2.67620   1.21653    0.008
 3823.00    1.97334   1.21267    0.008
 3824.00    1.20065   1.20753    0.008
 3825.00    1.84663   1.19932    0.008
 3826.00    2.61995   1.18798    0.008
 3827.00    2.70692   1.17357    0.008
 3828.00    2.75699   1.15619    0.008
 3829.00    1.12419   1.13680    0.008
 3830.00   -0.51894   1.11603    0.000
 3831.00   -0.18870   1.09563    0.000
 3832.00    0.23180   1.07811    0.008
 3833.00    2.65776   1.06499    0.008
 3834.00    4.80300   1.05706    0.008
 3835.00    3.45757   1.05519    0.008
 3836.00    2.14359   1.05952    0.008
 3837.00    1.09547   1.07008    0.008
 3838.00    0.65614   1.08591    0.007
 3839.00    4.04671   1.10565    0.008
 3840.00    7.09020   1.12768    0.008
 3841.00    8.42112   1.15002    0.008
 3842.00    8.97696   1.17130    0.008
 3843.00    6.43005   1.19099    0.008
 3844.00    4.03762   1.20825    0.008
 3845.00    2.15876   1.22318    0.008
 3846.00    0.72553   1.23553    0.008
 3847.00    0.54369   1.24543    0.000
 3848.00    0.53308   1.25346    0.000
 3849.00    0.93374   1.25950    0.000
 3850.00    0.82616   1.26435    0.000
 3851.00   -0.33550   1.26779    0.000
 3852.00    0.11934   1.27040    0.000
 3853.00    3.48978   1.27232    0.000
 3854.00    4.92303   1.27369    0.000
 3855.00    3.30121   1.27478    0.000
 3856.00    2.61695   1.27545    0.000
 3857.00    3.23062   1.27610    0.000
 3858.00    3.31055   1.27645    0.000
 3859.00    2.74010   1.27676    0.000
 3860.00    1.73417   1.27689    0.000
 3861.00    0.26043   1.27673    0.000
 3862.00    0.24763   1.27653    0.000
 3863.00    1.61905   1.27554    0.000
 3864.00    1.94121   1.27481    0.000
 3865.00    1.38681   1.27384    0.000
 3866.00    0.63652   1.27253    0.000
 3867.00   -0.25786   1.27113    0.000
 3868.00   -1.30139   1.26920    0.000
 3869.00   -2.44126   1.26787    0.000
 3870.00   -1.42610   1.26583    0.000
 3871.00    0.80695   1.26385    0.000
 3872.00    1.49221   1.26126    0.000
 3873.00    1.41609   1.25797    0.000
 3874.00    0.82080   1.25370    0.000
 3875.00    0.00476   1.24796    0.000
 3876.00    0.13964   1.24096    0.000
 3877.00    0.62090   1.23144    0.000
 3878.00    1.53871   1.21980    0.000
 3879.00    2.59112   1.20515    0.000
 3880.00    2.30360   1.18804    0.000
 3881.00    1.67210   1.16821    0.007
 3882.00    1.34917   1.14602    0.007
 3883.00    1.09074   1.12275    0.007
 3884.00    2.40065   1.09902    0.007
 3885.00    3.96917   1.07737    0.007
 3886.00    2.67176   1.05974    0.007
 3887.00    1.01942   1.04734    0.007
 3888.00    1.04207   1.04102    0.007
 3889.00    1.20807   1.04124    0.007
 3890.00    2.99125   1.04832    0.007
 3891.00    4.85503   1.06164    0.007
 3892.00    4.18239   1.08011    0.007
 3893.00    3.45169   1.10246    0.007
 3894.00    1.65464   1.12664    0.007
 3895.00   -0.03906   1.15034    0.000
 3896.00    0.38135   1.17288    0.007
 3897.00    0.78667   1.19316    0.007
 3898.00    1.01349   1.21105    0.007
 3899.00    1.26824   1.22632    0.007
 3900.00    1.75049   1.23898    0.007
 3901.00    2.03468   1.24956    0.006
 3902.00    1.10908   1.25791    0.006
 3903.00    0.53674   1.26486    0.006
 3904.00    1.66437   1.27027    0.006
 3905.00    2.50094   1.27477    0.006
 3906.00    2.19773   1.27820    0.006
 3907.00    1.67087   1.28101    0.006
 3908.00    0.41500   1.28313    0.006
 3909.00   -0.67659   1.28473    0.000
 3910.00   -1.31520   1.28588    0.000
 3911.00   -0.98997   1.28641    0.000
 3912.00    1.61133   1.28664    0.007
 3913.00    2.87124   1.28612    0.007
 3914.00    1.39352   1.28530    0.007
 3915.00    0.14313   1.28376    0.007
 3916.00   -0.70346   1.28191    0.000
 3917.00   -0.58848   1.27958    0.000
 3918.00    1.02059   1.27698    0.007
 3919.00    2.08743   1.27432    0.007
 3920.00    2.41440   1.27163    0.007
 3921.00    2.37670   1.26951    0.007
 3922.00    1.90094   1.26766    0.007
 3923.00    1.45046   1.26677    0.007
 3924.00    1.02675   1.26681    0.007
 3925.00    0.75644   1.26755    0.007
 3926.00    0.62943   1.26920    0.007
 3927.00    1.17164   1.27127    0.007
 3928.00    2.26498   1.27402    0.007
 3929.00    2.74980   1.27680    0.007
 3930.00    2.79349   1.27964    0.007
 3931.00    1.73619   1.28268    0.007
 3932.00   -0.02180   1.28512    0.000
 3933.00   -0.69594   1.28743    0.000
 3934.00   -0.76691   1.28926    0.000
 3935.00   -0.53497   1.29092    0.000
 3936.00   -0.15641   1.29226    0.000
 3937.00    0.92253   1.29340    0.007
 3938.00    2.29427   1.29438    0.007
 3939.00    3.42331   1.29509    0.007
 3940.00    4.46554   1.29561    0.007
 3941.00    2.51962   1.29579    0.007
 3942.00   -0.32950   1.29582    0.000
 3943.00   -1.75281   1.29556    0.000
 3944.00   -2.81802   1.29505    0.000
 3945.00   -0.34346   1.29442    0.000
 3946.00    2.85294   1.29341    0.007
 3947.00    3.11478   1.29236    0.007
 3948.00    2.90674   1.29077    0.008
 3949.00    1.19458   1.28912    0.007
 3950.00   -0.69716   1.28694    0.000
 3951.00    0.60432   1.28419    0.007
 3952.00    2.16584   1.28110    0.007
 3953.00    1.98646   1.27681    0.007
 3954.00    1.72706   1.27204    0.007
 3955.00    0.45542   1.26547    0.007
 3956.00   -0.80052   1.25782    0.000
 3957.00   -0.56293   1.24806    0.000
 3958.00   -0.27148   1.23615    0.000
 3959.00    1.04015   1.22210    0.007
 3960.00    2.08776   1.20508    0.000
 3961.00    0.16006   1.18580    0.000
 3962.00   -1.37758   1.16392    0.000
 3963.00    0.15072   1.14028    0.000
 3964.00    1.40136   1.11569    0.000
 3965.00    1.00444   1.09193    0.000
 3966.00    0.49448   1.07055    0.000
 3967.00   -0.54633   1.05323    0.000
 3968.00   -1.03042   1.04117    0.000
 3969.00    0.61900   1.03582    0.000
 3970.00    1.75829   1.03704    0.000
 3971.00    1.26704   1.04505    0.000
 3972.00    0.99664   1.05916    0.000
 3973.00    1.32438   1.07835    0.000
 3974.00    1.29364   1.10182    0.000
 3975.00    0.43052   1.12707    0.000
 3976.00   -0.36844   1.15210    0.000
 3977.00   -1.03850   1.17563    0.000
 3978.00   -0.46175   1.19703    0.000
 3979.00    2.29593   1.21581    0.000
 3980.00    3.02820   1.23184    0.000
 3981.00    0.65965   1.24536    0.007
 3982.00   -0.99909   1.25643    0.000
 3983.00   -1.70326   1.26559    0.000
 3984.00   -1.38933   1.27297    0.000
 3985.00    0.13025   1.27899    0.007
 3986.00    1.19757   1.28393    0.007
 3987.00    1.79263   1.28793    0.007
 3988.00    2.30638   1.29129    0.007
 3989.00    2.74524   1.29400    0.007
 3990.00    3.39988   1.29626    0.007
 3991.00    4.22972   1.29812    0.007
 3992.00    3.32228   1.29965    0.007
 3993.00    1.17361   1.30090    0.007
 3994.00    0.51872   1.30195    0.007
 3995.00    0.80044   1.30267    0.007
 3996.00    0.86460   1.30336    0.007
 3997.00    0.80954   1.30360    0.006
 3998.00    0.61987   1.30385    0.006
 3999.00    0.36609   1.30368    0.006
 4000.00    1.02043   1.30341    0.006
 4001.00    2.04801   1.30281    0.006
 4002.00    2.41155   1.30192    0.006
 4003.00    2.54186   1.30100    0.006
 4004.00    2.57445   1.29982    0.006
 4005.00    2.57809   1.29891    0.006
 4006.00    1.85272   1.29795    0.006
 4007.00    0.94826   1.29735    0.006
 4008.00    1.27478   1.29701    0.006
 4009.00    1.84605   1.29693    0.006
 4010.00    2.01882   1.29714    0.006
 4011.00    2.12967   1.29736    0.006
 4012.00    1.08684   1.29754    0.006
 4013.00   -0.08864   1.29742    0.000
 4014.00   -1.75615   1.29665    0.000
 4015.00   -3.46170   1.29493    0.000
 4016.00   -2.28266   1.29181    0.000
 4017.00   -0.98216   1.28735    0.000
 4018.00    0.25464   1.28118    0.006
 4019.00    1.43430   1.27367    0.006
 4020.00    0.13643   1.26492    0.006
 4021.00   -1.03426   1.25662    0.000
 4022.00    0.03710   1.24861    0.006
 4023.00    1.04555   1.24201    0.006
 4024.00    1.37711   1.23732    0.006
 4025.00    1.53757   1.23511    0.006
 4026.00    0.39915   1.23597    0.006
 4027.00   -0.50578   1.23936    0.000
 4028.00   -0.06390   1.24559    0.000
 4029.00    0.72501   1.25336    0.006
 4030.00    3.10435   1.26319    0.006
 4031.00    4.45180   1.27332    0.006
 4032.00    1.92855   1.28283    0.006
 4033.00    0.27271   1.29156    0.006
 4034.00    1.33621   1.29869    0.006
 4035.00    1.95520   1.30484    0.006
 4036.00    1.39163   1.30937    0.006
 4037.00    1.12732   1.31313    0.006
 4038.00    1.54635   1.31574    0.006
 4039.00    1.80661   1.31777    0.006
 4040.00    1.75303   1.31925    0.006
 4041.00    0.95777   1.32028    0.006
 4042.00   -1.11519   1.32116    0.000
 4043.00   -2.03798   1.32176    0.000
 4044.00   -1.22570   1.32235    0.000
 4045.00   -0.27314   1.32285    0.000
 4046.00    0.86539   1.32328    0.006
 4047.00    1.68740   1.32378    0.006
 4048.00    2.13989   1.32413    0.006
 4049.00    1.00000   1.32462    0.006
 4050.00   -1.77933   1.32495    0.000
 4051.00   -1.44396   1.32542    0.000
 4052.00    1.71988   1.32571    0.006
 4053.00    2.60114   1.32606    0.006
 4054.00    1.65549   1.32622    0.006
 4055.00    2.36273   1.32642    0.006
 4056.00    4.23385   1.32640    0.006
 4057.00    3.36479   1.32632    0.006
 4058.00    0.80314   1.32605    0.006
 4059.00   -0.34901   1.32557    0.000
 4060.00   -0.74060   1.32496    0.000
 4061.00   -0.18712   1.32401    0.000
 4062.00    0.80930   1.32290    0.006
 4063.00    1.02522   1.32149    0.006
 4064.00    0.92581   1.32011    0.006
 4065.00    0.78150   1.31855    0.006
 4066.00    0.62172   1.31719    0.006
 4067.00    0.65213   1.31576    0.006
 4068.00    0.73777   1.31473    0.006
 4069.00    0.55785   1.31378    0.006
 4070.00    0.31415   1.31330    0.006
 4071.00    1.26970   1.31301    0.006
 4072.00    2.45762   1.31315    0.006
 4073.00    2.96039   1.31341    0.006
 4074.00    3.35991   1.31389    0.006
 4075.00    2.52336   1.31442    0.006
 4076.00    1.55009   1.31468    0.006
 4077.00    1.68547   1.31499    0.006
 4078.00    1.90202   1.31459    0.006
 4079.00    0.17253   1.31414    0.006
 4080.00   -1.63146   1.31292    0.000
 4081.00   -1.77452   1.31135    0.000
 4082.00   -1.86092   1.30901    0.000
 4083.00   -0.15916   1.30600    0.000
 4084.00    1.38207   1.30228    0.006
 4085.00    0.27773   1.29751    0.006
 4086.00   -0.69898   1.29193    0.000
 4087.00   -0.36232   1.28485    0.000
 4088.00   -0.00760   1.27654    0.000
 4089.00    0.47968   1.26624    0.006
 4090.00    0.96590   1.25397    0.006
 4091.00    1.44616   1.23917    0.006
 4092.00    1.67045   1.22178    0.000
 4093.00    0.74924   1.20178    0.000
 4094.00    0.26122   1.17960    0.000
 4095.00    1.36414   1.15602    0.000
 4096.00    1.96298   1.13219    0.000
 4097.00    1.01153   1.10952    0.000
 4098.00    0.23735   1.08953    0.000
 4099.00   -0.07354   1.07383    0.000
 4100.00    0.19565   1.06372    0.000
 4101.00    1.76757   1.06026    0.000
 4102.00    2.63162   1.06370    0.000
 4103.00    2.11822   1.07385    0.000
 4104.00    1.64929   1.08982    0.000
 4105.00    1.25580   1.11031    0.000
 4106.00    1.26901   1.13396    0.000
 4107.00    1.88675   1.15881    0.000
 4108.00    1.70662   1.18356    0.000
 4109.00    0.48396   1.20669    0.000
 4110.00    0.50907   1.22726    0.000
 4111.00    1.97038   1.24505    0.000
 4112.00    2.49402   1.25983    0.000
 4113.00    2.06581   1.27199    0.006
 4114.00    1.57125   1.28173    0.005
 4115.00    1.01728   1.28956    0.005
 4116.00    1.24859   1.29575    0.005
 4117.00    2.09949   1.30088    0.005
 4118.00    2.57606   1.30514    0.005
 4119.00    2.79287   1.30897    0.005
 4120.00    2.18284   1.31247    0.005
 4121.00    1.06967   1.31590    0.005
 4122.00    0.51002   1.31920    0.005
 4123.00    0.24443   1.32243    0.005
 4124.00    0.69381   1.32551    0.008
 4125.00    1.47286   1.32838    0.038
 4126.00    1.80181   1.33111   -1.000
 4127.00    1.95204   1.33345   -1.000
 4128.00    1.21617   1.33570   -1.000
 4129.00    0.18041   1.33725   -1.000
 4130.00    0.95921   1.33877   -1.000
 4131.00    2.25431   1.33975   -1.000
 4132.00    2.32931   1.34057    0.013
 4133.00    2.11786   1.34089    0.006
 4134.00    1.48478   1.34090    0.005
 4135.00    0.77211   1.34037    0.005
 4136.00    0.70403   1.33946    0.005
 4137.00    0.73008   1.33826    0.005
 4138.00    1.29210   1.33674    0.005
 4139.00    1.91107   1.33516    0.005
 4140.00    2.39128   1.33360    0.005
 4141.00    2.86188   1.33243    0.005
 4142.00    2.40262   1.33172    0.005
 4143.00    1.91129   1.33172    0.005
 4144.00    1.04886   1.33245    0.005
 4145.00    0.23072   1.33388    0.005
 4146.00    0.90041   1.33597    0.005
 4147.00    1.54149   1.33845    0.005
 4148.00    1.74038   1.34120    0.005
 4149.00    1.96264   1.34398    0.005
 4150.00    2.41533   1.34686    0.005
 4151.00    2.74547   1.34941    0.005
 4152.00    2.20556   1.35154    0.005
 4153.00    1.63101   1.35340    0.006
 4154.00    0.86733   1.35491    0.005
 4155.00    0.38300   1.35619    0.005
 4156.00    1.11972   1.35725    0.005
 4157.00    1.77818   1.35813    0.005
 4158.00    2.15517   1.35884    0.005
 4159.00    2.25357   1.35942    0.005
 4160.00    1.51128   1.35991    0.005
 4161.00    0.95160   1.36023    0.005
 4162.00    0.86089   1.36051    0.005
 4163.00    1.23838   1.36069    0.005
 4164.00    2.65013   1.36084    0.005
 4165.00    3.47686   1.36096    0.006
 4166.00    3.18294   1.36111    0.006
 4167.00    2.70451   1.36131    0.006
 4168.00    1.91770   1.36159    0.006
 4169.00    1.53782   1.36197    0.005
 4170.00    1.75400   1.36245    0.006
 4171.00    1.70020   1.36302    0.006
 4172.00    1.29867   1.36366    0.005
 4173.00    0.99836   1.36433    0.005
 4174.00    0.81290   1.36501    0.005
 4175.00    0.68983   1.36569    0.005
 4176.00    0.62920   1.36633    0.005
 4177.00    0.96041   1.36686    0.005
 4178.00    1.63749   1.36734    0.005
 4179.00    1.34272   1.36768    0.005
 4180.00    0.29209   1.36793    0.005
 4181.00   -0.20087   1.36806    0.000
 4182.00   -0.31244   1.36808    0.000
 4183.00   -0.08912   1.36796    0.000
 4184.00    0.33492   1.36768    0.005
 4185.00    1.16131   1.36719    0.005
 4186.00    2.19812   1.36645    0.005
 4187.00    2.06621   1.36535    0.005
 4188.00    1.40417   1.36382    0.005
 4189.00    2.43405   1.36173    0.005
 4190.00    4.12415   1.35904    0.005
 4191.00    3.67282   1.35570    0.005
 4192.00    2.51022   1.35178    0.005
 4193.00    1.25056   1.34734    0.005
 4194.00   -0.03617   1.34266    0.000
 4195.00    0.20108   1.33801    0.005
 4196.00    0.78794   1.33382    0.005
 4197.00    1.36821   1.33047    0.005
 4198.00    1.94727   1.32833    0.005
 4199.00    1.29343   1.32769    0.005
 4200.00    0.46526   1.32862    0.005
 4201.00    0.42273   1.33114    0.005
 4202.00    0.46031   1.33497    0.005
 4203.00    0.99333   1.33986    0.005
 4204.00    1.55863   1.34535    0.005
 4205.00    2.00238   1.35110    0.005
 4206.00    2.44132   1.35673    0.005
 4207.00    2.18388   1.36197    0.005
 4208.00    1.95525   1.36658    0.005
 4209.00    2.57319   1.37052    0.005
 4210.00    3.11516   1.37374    0.005
 4211.00    2.55113   1.37637    0.005
 4212.00    1.96583   1.37848    0.005
 4213.00    1.17939   1.38020    0.005
 4214.00    0.59471   1.38163    0.005
 4215.00    1.39696   1.38282    0.005
 4216.00    2.11631   1.38385    0.005
 4217.00    2.39516   1.38474    0.005
 4218.00    2.64947   1.38555    0.005
 4219.00    2.79901   1.38625    0.005
 4220.00    2.76429   1.38690    0.005
 4221.00    2.08043   1.38748    0.005
 4222.00    1.47131   1.38802    0.005
 4223.00    1.08353   1.38851    0.005
 4224.00    0.78300   1.38900    0.005
 4225.00    0.70270   1.38945    0.005
 4226.00    0.85512   1.38990    0.005
 4227.00    1.51328   1.39035    0.005
 4228.00    1.70651   1.39078    0.005
 4229.00    1.02296   1.39122    0.005
 4230.00    0.85226   1.39165    0.005
 4231.00    1.52591   1.39208    0.005
 4232.00    1.85615   1.39250    0.005
 4233.00    1.69067   1.39293    0.005
 4234.00    1.36651   1.39335    0.005
 4235.00    0.84089   1.39379    0.005
 4236.00    0.59362   1.39422    0.005
 4237.00    0.65776   1.39467    0.005
 4238.00    0.81682   1.39511    0.005
 4239.00    1.06955   1.39558    0.005
 4240.00    1.42002   1.39604    0.005
 4241.00    1.85555   1.39652    0.005
 4242.00    1.89885   1.39699    0.005
 4243.00    1.64144   1.39746    0.005
 4244.00    1.25763   1.39793    0.005
 4245.00    0.78864   1.39838    0.005
 4246.00    1.87048   1.39884    0.005
 4247.00    3.86798   1.39927    0.005
 4248.00    3.96816   1.39971    0.005
 4249.00    3.09147   1.40012    0.005
 4250.00    1.68562   1.40056    0.005
 4251.00    0.04368   1.40097    0.005
 4252.00    0.57246   1.40140    0.005
 4253.00    1.93354   1.40182    0.005
 4254.00    2.34087   1.40224    0.005
 4255.00    2.43737   1.40265    0.005
 4256.00    2.59557   1.40303    0.005
 4257.00    2.77061   1.40336    0.005
 4258.00    3.10115   1.40364    0.005
 4259.00    3.46654   1.40383    0.005
 4260.00    1.64186   1.40398    0.005
 4261.00   -0.57450   1.40403    0.000
 4262.00    0.22541   1.40408    0.005
 4263.00    1.43801   1.40408    0.005
 4264.00    0.86939   1.40414    0.005
 4265.00    0.12677   1.40424    0.005
 4266.00   -0.12195   1.40445    0.000
 4267.00   -0.34046   1.40477    0.000
 4268.00    1.00214   1.40521    0.005
 4269.00    2.37930   1.40576    0.005
 4270.00    2.27974   1.40638    0.005
 4271.00    2.19516   1.40706    0.005
 4272.00    2.50688   1.40775    0.005
 4273.00    2.72214   1.40843    0.005
 4274.00    1.61129   1.40909    0.005
 4275.00    0.59569   1.40972    0.005
 4276.00    0.44531   1.41033    0.005
 4277.00    0.42714   1.41090    0.005
 4278.00    1.28957   1.41147    0.005
 4279.00    2.00239   1.41199    0.005
 4280.00    1.94063   1.41252    0.005
 4281.00    1.90514   1.41302    0.005
 4282.00    1.97927   1.41353   -2.000
 4283.00    2.21752   1.41402   -2.000
 4284.00    3.02230   1.41453   -2.000
 4285.00    3.67224   1.41502   -2.000
 4286.00    3.87207   1.41553   -2.000
 4287.00    3.68469   1.41602   -2.000
 4288.00    2.53687   1.41653   -2.000
 4289.00    1.75920   1.41701   -2.000
 4290.00    1.77282   1.41750   -2.000
 4291.00    1.73996   1.41794   -2.000
 4292.00    1.62081   1.41839   -2.000
 4293.00    1.60333   1.41878   -2.000
 4294.00    1.75077   1.41916   -2.000
 4295.00    2.08704   1.41948   -2.000
 4296.00    2.69195   1.41978   -2.000
 4297.00    2.81778   1.42002   -2.000
 4298.00    2.34399   1.42023    0.005
 4299.00    2.04005   1.42039    0.005
 4300.00    1.92346   1.42054    0.005
 4301.00    2.09578   1.42064    0.005
 4302.00    2.54920   1.42074    0.005
 4303.00    2.46602   1.42081    0.005
 4304.00    1.92245   1.42086    0.005
 4305.00    1.82549   1.42090    0.005
 4306.00    2.06605   1.42090    0.005
 4307.00    2.00791   1.42086    0.005
 4308.00    1.75141   1.42074    0.005
 4309.00    1.56143   1.42057    0.005
 4310.00    1.41013   1.42029    0.005
 4311.00    1.83529   1.41993    0.005
 4312.00    2.55261   1.41943    0.005
 4313.00    2.81743   1.41885    0.005
 4314.00    2.88370   1.41811    0.005
 4315.00    2.26400   1.41727    0.005
 4316.00    1.38589   1.41626    0.005
 4317.00    1.03687   1.41508    0.005
 4318.00    0.85701   1.41367    0.005
 4319.00    1.08516   1.41197    0.005
 4320.00    1.42237   1.40989    0.005
 4321.00    1.64482   1.40733    0.005
 4322.00    1.84214   1.40414    0.005
 4323.00    1.78469   1.40014    0.005
 4324.00    1.68292   1.39512    0.005
 4325.00    1.36495   1.38882    0.005
 4326.00    1.01839   1.38095    0.005
 4327.00    1.31258   1.37121    0.005
 4328.00    1.66664   1.35927    0.005
 4329.00    1.62888   1.34488    0.005
 4330.00    1.56870   1.32789    0.000
 4331.00    1.46669   1.30831    0.000
 4332.00    1.36690   1.28642    0.000
 4333.00    1.63440   1.26280    0.000
 4334.00    1.92146   1.23837    0.000
 4335.00    2.67816   1.21434    0.000
 4336.00    3.34536   1.19219    0.000
 4337.00    2.84733   1.17343    0.000
 4338.00    2.35604   1.15954    0.000
 4339.00    1.92358   1.15161    0.000
 4340.00    1.55926   1.15042    0.000
 4341.00    1.63503   1.15605    0.000
 4342.00    1.79813   1.16807    0.000
 4343.00    2.40182   1.18553    0.000
 4344.00    2.73248   1.20713    0.000
 4345.00    1.94879   1.23132    0.000
 4346.00    1.43516   1.25661    0.000
 4347.00    1.83522   1.28169    0.000
 4348.00    2.21390   1.30548    0.000
 4349.00    2.53159   1.32728    0.000
 4350.00    2.76024   1.34665    0.000
 4351.00    2.77181   1.36350    0.005
 4352.00    2.62969   1.37789    0.005
 4353.00    2.16432   1.39002    0.005
 4354.00    1.95008   1.40019    0.005
 4355.00    2.19493   1.40867    0.005
 4356.00    2.23398   1.41575    0.005
 4357.00    1.94424   1.42167    0.005
 4358.00    1.86020   1.42664    0.006
 4359.00    2.06460   1.43084    0.016
 4360.00    1.86436   1.43441   -1.000
 4361.00    1.16489   1.43748   -1.000
 4362.00    1.43407   1.44013   -1.000
 4363.00    2.75671   1.44245   -1.000
 4364.00    3.21220   1.44451   -1.000
 4365.00    2.83584   1.44637   -1.000
 4366.00    2.02626   1.44805   -1.000
 4367.00    0.85022   1.44961   -1.000
 4368.00    0.99584   1.45104    0.016
 4369.00    2.12591   1.45240    0.006
 4370.00    2.29815   1.45363    0.005
 4371.00    1.84365   1.45476    0.005
 4372.00    1.48071   1.45574    0.005
 4373.00    1.17022   1.45656    0.005
 4374.00    1.07995   1.45716    0.005
 4375.00    1.09953   1.45750    0.005
 4376.00    1.75664   1.45751    0.005
 4377.00    2.68886   1.45713    0.005
 4378.00    3.11202   1.45633    0.005
 4379.00    3.34682   1.45508    0.005
 4380.00    2.88212   1.45340    0.005
 4381.00    2.19806   1.45138    0.005
 4382.00    1.81217   1.44914    0.005
 4383.00    1.50429   1.44689    0.005
 4384.00    1.53871   1.44485    0.005
 4385.00    1.64624   1.44329    0.005
 4386.00    1.73163   1.44243    0.005
 4387.00    1.81327   1.44244    0.005
 4388.00    1.94843   1.44340    0.005
 4389.00    2.09042   1.44531    0.004
 4390.00    2.14822   1.44802    0.004
 4391.00    2.19850   1.45137    0.004
 4392.00    1.90153   1.45507    0.004
 4393.00    1.58606   1.45893    0.004
 4394.00    1.75500   1.46267    0.004
 4395.00    1.93931   1.46619    0.005
 4396.00    2.60193   1.46930    0.005
 4397.00    3.22149   1.47202    0.005
 4398.00    2.89458   1.47428    0.005
 4399.00    2.57133   1.47618    0.005
 4400.00    2.29337   1.47773    0.004
 4401.00    2.05530   1.47902    0.004
 4402.00    2.15272   1.48007    0.005
 4403.00    2.22640   1.48097    0.005
 4404.00    2.15119   1.48171    0.005
 4405.00    2.17591   1.48235    0.004
 4406.00    2.69210   1.48289    0.004
 4407.00    3.16029   1.48335    0.005
 4408.00    3.43682   1.48375    0.005
 4409.00    3.41839   1.48408    0.005
 4410.00    2.42176   1.48439    0.004
 4411.00    1.74648   1.48469    0.004
 4412.00    1.97153   1.48502    0.004
 4413.00    1.89847   1.48539    0.004
 4414.00    1.11093   1.48586    0.004
 4415.00    0.68668   1.48640    0.004
 4416.00    1.01436   1.48708    0.004
 4417.00    1.60087   1.48781    0.004
 4418.00    2.65330   1.48868    0.004
 4419.00    3.16276   1.48956    0.004
 4420.00    2.81749   1.49051    0.004
 4421.00    2.43729   1.49142    0.004
 4422.00    2.00884   1.49232    0.004
 4423.00    1.98733   1.49313    0.004
 4424.00    2.46080   1.49387    0.004
 4425.00    2.56219   1.49450    0.004
 4426.00    2.26460   1.49502    0.004
 4427.00    2.18809   1.49542    0.004
 4428.00    2.32066   1.49571    0.004
 4429.00    2.29736   1.49589    0.004
 4430.00    2.14407   1.49595    0.004
 4431.00    1.97909   1.49596    0.004
 4432.00    1.80552   1.49590    0.004
 4433.00    1.68798   1.49585    0.004
 4434.00    1.60657   1.49580    0.004
 4435.00    2.19661   1.49586    0.004
 4436.00    3.16537   1.49603    0.004
 4437.00    3.56116   1.49636    0.005
 4438.00    3.67565   1.49686    0.005
 4439.00    3.47436   1.49754    0.005
 4440.00    3.13906   1.49839    0.005
 4441.00    2.71353   1.49936    0.005
 4442.00    2.25520   1.50046    0.005
 4443.00    2.38632   1.50158    0.005
 4444.00    2.69872   1.50274    0.005
 4445.00    2.38874   1.50385    0.005
 4446.00    1.91942   1.50494    0.004
 4447.00    2.04523   1.50596    0.004
 4448.00    2.29507   1.50691    0.004
 4449.00    2.34107   1.50778    0.004
 4450.00    2.35358   1.50859    0.004
 4451.00    3.08980   1.50932    0.004
 4452.00    3.91524   1.50996    0.004
 4453.00    3.47907   1.51052    0.004
 4454.00    2.93560   1.51093    0.004
 4455.00    2.64184   1.51118    0.004
 4456.00    2.36042   1.51117    0.004
 4457.00    2.42144   1.51084    0.004
 4458.00    2.50407   1.51006    0.004
 4459.00    3.59965   1.50872    0.004
 4460.00    4.61286   1.50670    0.004
 4461.00    3.95775   1.50390    0.000
 4462.00    3.26701   1.50027    0.000
 4463.00    2.15753   1.49583    0.000
 4464.00    1.19402   1.49067    0.000
 4465.00    1.41429   1.48507    0.000
 4466.00    1.63147   1.47932    0.000
 4467.00    1.82992   1.47389    0.000
 4468.00    2.02924   1.46923    0.000
 4469.00    2.23271   1.46580    0.000
 4470.00    2.37018   1.46396    0.000
 4471.00    2.24991   1.46394    0.000
 4472.00    2.19305   1.46577    0.000
 4473.00    2.34236   1.46927    0.000
 4474.00    2.58586   1.47419    0.000
 4475.00    3.08851   1.48004    0.000
 4476.00    3.28836   1.48642    0.000
 4477.00    2.77468   1.49287    0.000
 4478.00    2.36871   1.49909    0.000
 4479.00    2.18210   1.50477    0.000
 4480.00    2.22076   1.50984    0.000
 4481.00    2.65875   1.51418    0.000
 4482.00    2.76286   1.51792    0.004
 4483.00    2.34914   1.52103    0.004
 4484.00    2.23638   1.52370    0.004
 4485.00    2.53349   1.52591    0.004
 4486.00    2.73507   1.52783    0.004
 4487.00    2.82207   1.52943    0.004
 4488.00    2.47727   1.53084    0.004
 4489.00    1.67597   1.53204    0.004
 4490.00    1.55678   1.53312    0.004
 4491.00    2.07368   1.53405    0.004
 4492.00    2.42368   1.53492    0.004
 4493.00    2.63647   1.53567    0.004
 4494.00    2.76892   1.53641    0.004
 4495.00    2.84323   1.53707    0.004
 4496.00    2.84229   1.53774    0.004
 4497.00    2.79353   1.53834    0.004
 4498.00    2.98719   1.53897    0.004
 4499.00    3.31550   1.53955    0.004
 4500.00    3.29229   1.54015    0.004
 4501.00    3.09927   1.54071    0.004
 4502.00    2.33824   1.54128    0.004
 4503.00    1.34023   1.54182    0.004
 4504.00    1.42329   1.54235    0.004
 4505.00    1.89219   1.54285    0.004
 4506.00    1.74048   1.54333    0.004
 4507.00    1.40167   1.54379    0.004
 4508.00    1.51549   1.54424    0.004
 4509.00    1.74269   1.54469    0.004
 4510.00    1.78993   1.54513    0.004
 4511.00    1.80059   1.54559    0.004
 4512.00    1.99809   1.54607    0.004
 4513.00    2.22539   1.54657    0.004
 4514.00    2.33871   1.54710    0.004
 4515.00    2.43849   1.54764    0.004
 4516.00    2.54662   1.54821    0.004
 4517.00    2.65543   1.54875    0.004
 4518.00    2.45455   1.54931    0.004
 4519.00    2.23958   1.54982    0.004
 4520.00    2.26450   1.55031    0.004
 4521.00    2.28912   1.55071    0.004
 4522.00    2.14893   1.55104    0.004
 4523.00    2.02883   1.55125    0.004
 4524.00    2.28586   1.55130    0.004
 4525.00    2.54170   1.55117    0.004
 4526.00    2.78420   1.55074    0.004
 4527.00    2.92973   1.54998    0.004
 4528.00    2.31631   1.54872    0.004
 4529.00    1.87487   1.54692    0.004
 4530.00    2.45028   1.54439    0.004
 4531.00    2.90653   1.54111    0.004
 4532.00    2.80504   1.53698    0.004
 4533.00    2.61086   1.53208    0.004
 4534.00    2.06249   1.52649    0.004
 4535.00    1.75632   1.52048    0.004
 4536.00    2.22243   1.51438    0.004
 4537.00    2.55209   1.50861    0.004
 4538.00    2.51307   1.50366    0.004
 4539.00    2.51908   1.49994    0.004
 4540.00    2.62947   1.49787    0.004
 4541.00    2.65446   1.49765    0.004
 4542.00    2.50823   1.49939    0.004
 4543.00    2.44348   1.50290    0.004
 4544.00    2.52095   1.50798    0.004
 4545.00    2.72657   1.51417    0.004
 4546.00    3.12802   1.52109    0.004
 4547.00    3.32416   1.52820    0.004
 4548.00    3.24472   1.53520    0.004
 4549.00    2.96432   1.54168    0.004
 4550.00    2.44639   1.54756    0.000
 4551.00    2.08428   1.55263    0.000
 4552.00    1.88459   1.55699    0.000
 4553.00    2.00895   1.56061    0.000
 4554.00    2.43126   1.56364    0.000
 4555.00    2.83455   1.56614    0.000
 4556.00    3.22242   1.56821    0.000
 4557.00    3.33492   1.56995    0.000
 4558.00    3.25104   1.57138    0.000
 4559.00    3.09949   1.57261    0.000
 4560.00    2.90560   1.57361    0.000
 4561.00    3.07330   1.57448    0.000
 4562.00    3.43877   1.57520    0.000
 4563.00    3.55416   1.57584    0.000
 4564.00    3.55067   1.57641    0.000
 4565.00    2.89119   1.57694    0.000
 4566.00    1.96268   1.57748    0.000
 4567.00    1.55390   1.57802    0.000
 4568.00    1.32724   1.57863    0.000
 4569.00    1.92589   1.57926    0.000
 4570.00    2.76846   1.57998    0.000
 4571.00    3.09061   1.58072    0.000
 4572.00    3.28526   1.58152    0.000
 4573.00    3.47784   1.58233    0.000
 4574.00    3.67000   1.58317    0.000
 4575.00    3.01300   1.58398    0.000
 4576.00    2.22455   1.58479    0.000
 4577.00    2.42366   1.58556    0.000
 4578.00    2.73579   1.58630    0.000
 4579.00    2.33215   1.58697    0.000
 4580.00    1.87355   1.58761    0.000
 4581.00    2.01556   1.58817    0.000
 4582.00    2.18258   1.58871    0.000
 4583.00    2.54704   1.58917    0.000
 4584.00    2.91149   1.58962    0.000
 4585.00    3.20229   1.59001    0.000
 4586.00    3.43994   1.59041    0.000
 4587.00    2.74863   1.59079    0.000
 4588.00    2.14541   1.59118    0.000
 4589.00    2.48472   1.59161    0.000
 4590.00    2.83245   1.59205    0.000
 4591.00    3.24387   1.59258    0.000
 4592.00    3.57893   1.59310    0.000
 4593.00    3.47509   1.59374    0.000
 4594.00    3.41424   1.59435    0.000
 4595.00    3.54979   1.59507    0.000
 4596.00    3.58642   1.59574    0.000
 4597.00    3.25296   1.59648    0.000
 4598.00    3.00639   1.59718    0.000
 4599.00    3.03157   1.59790    0.000
 4600.00    2.96827   1.59860    0.000
 4601.00    2.67005   1.59929    0.000
 4602.00    2.50452   1.59997    0.000
 4603.00    2.64134   1.60062    0.000
 4604.00    2.70407   1.60130    0.000
 4605.00    2.62064   1.60193    0.000
 4606.00    2.45098   1.60259    0.000
 4607.00    2.13305   1.60321    0.000
 4608.00    1.97522   1.60385    0.000
 4609.00    2.05845   1.60448    0.000
 4610.00    2.32008   1.60510    0.000
 4611.00    2.81774   1.60572    0.000
 4612.00    2.94223   1.60630    0.000
 4613.00    2.63178   1.60691    0.000
 4614.00    2.39312   1.60747    0.000
 4615.00    2.22824   1.60807    0.000
 4616.00    2.37860   1.60862    0.000
 4617.00    2.81473   1.60923    0.000
 4618.00    3.11710   1.60979    0.000
 4619.00    3.31262   1.61043    0.000
 4620.00    3.42090   1.61098    0.000
 4621.00    3.46786   1.61162    0.000
 4622.00    2.99164   1.61212    0.000
 4623.00    2.19287   1.61273    0.000
 4624.00    1.88849   1.61317    0.000
 4625.00    1.85037   1.61370    0.000
 4626.00    1.74179   1.61407    0.000
 4627.00    1.60024   1.61453    0.000
 4628.00    2.44305   1.61487    0.000
 4629.00    3.68269   1.61531    0.000
 4630.00    3.65964   1.61567    0.000
 4631.00    3.20223   1.61615    0.000
 4632.00    2.37739   1.61656    0.000
 4633.00    1.44612   1.61704    0.000
 4634.00    1.54283   1.61748    0.000
 4635.00    1.88576   1.61793    0.000
 4636.00    2.46991   1.61831    0.000
 4637.00    3.10064   1.61858    0.000
 4638.00    2.36023   1.61881    0.000
 4639.00    1.41400   1.61887    0.000
 4640.00    2.16396   1.61890    0.000
 4641.00    3.10061   1.61874    0.000
 4642.00    3.04015   1.61864    0.000
 4643.00    2.90719   1.61842    0.000
 4644.00    2.69681   1.61834    0.000
 4645.00    2.48350   1.61826    0.000
 4646.00    2.50400   1.61843    0.000
 4647.00    2.52978   1.61872    0.000
 4648.00    2.70680   1.61932    0.000
 4649.00    2.89093   1.62010    0.000
 4650.00    3.19133   1.62119    0.000
 4651.00    3.50421   1.62242    0.000
 4652.00    3.94478   1.62383    0.000
 4653.00    4.21830   1.62529    0.000
 4654.00    3.27115   1.62677    0.000
 4655.00    2.54129   1.62818    0.000
 4656.00    3.02623   1.62948    0.000
 4657.00    3.37090   1.63064    0.000
 4658.00    3.08977   1.63165    0.000
 4659.00    2.76023   1.63253    0.000
 4660.00    2.25333   1.63327    0.000
 4661.00    2.06369   1.63395    0.000
 4662.00    2.84740   1.63453    0.000
 4663.00    3.34743   1.63511    0.000
 4664.00    3.10763   1.63561    0.000
 4665.00    3.09223   1.63614    0.000
 4666.00    3.57973   1.63654    0.000
 4667.00    3.50970   1.63692    0.000
 4668.00    2.35690   1.63708    0.000
 4669.00    1.56177   1.63708    0.000
 4670.00    1.37235   1.63670    0.000
 4671.00    1.50214   1.63594    0.000
 4672.00    2.10558   1.63453    0.000
 4673.00    2.47281   1.63245    0.000
 4674.00    2.53195   1.62944    0.000
 4675.00    2.83460   1.62546    0.000
 4676.00    3.41702   1.62026    0.000
 4677.00    3.70053   1.61408    0.000
 4678.00    3.68114   1.60659    0.000
 4679.00    3.67557   1.59888    0.000
 4680.00    3.68234   1.59105    0.000
 4681.00    3.71098   1.58381    0.000
 4682.00    3.75684   1.57715    0.000
 4683.00    3.37010   1.57238    0.000
 4684.00    2.68369   1.56924    0.000
 4685.00    2.40939   1.56882    0.000
 4686.00    2.38539   1.57048    0.000
 4687.00    2.41314   1.57481    0.000
 4688.00    2.46835   1.58084    0.000
 4689.00    2.47166   1.58865    0.000
 4690.00    2.45109   1.59724    0.000
 4691.00    2.59073   1.60628    0.000
 4692.00    2.79384   1.61517    0.000
 4693.00    2.80569   1.62337    0.000
 4694.00    2.75296   1.63084    0.000
 4695.00    2.79963   1.63702    0.000
 4696.00    2.87452   1.64235    0.000
 4697.00    3.00194   1.64636    0.000
 4698.00    3.14166   1.64966    0.000
 4699.00    2.80032   1.65195    0.000
 4700.00    2.36847   1.65375    0.000
 4701.00    1.92593   1.65475    0.000
 4702.00    1.48182   1.65550    0.000
 4703.00    1.79847   1.65554    0.000
 4704.00    2.19555   1.65567    0.000
 4705.00    2.73206   1.65481    0.000
 4706.00    3.27814   1.65431    0.000
 4707.00    3.14113   1.65308    0.000
 4708.00    2.98088   1.65273    0.000
 4709.00    3.18455   1.65146    0.000
 4710.00    3.37381   1.65148    0.000
 4711.00    3.07598   1.65079    0.000
 4712.00    2.76171   1.65148    0.000
 4713.00    2.19503   1.65186    0.000
 4714.00    1.72328   1.65333    0.000
 4715.00    2.18233   1.65483    0.000
 4716.00    2.58629   1.65685    0.000
 4717.00    2.60066   1.65913    0.000
 4718.00    2.62238   1.66131    0.000
 4719.00    2.68409   1.66382    0.000
 4720.00    2.68257   1.66578    0.000
 4721.00    2.40544   1.66802    0.000
 4722.00    2.22474   1.66960    0.000
 4723.00    2.38993   1.67131    0.000
 4724.00    2.58166   1.67250    0.000
 4725.00    2.85330   1.67370    0.000
 4726.00    3.00681   1.67463    0.000
 4727.00    2.85761   1.67544    0.000
 4728.00    2.64088   1.67622    0.000
 4729.00    2.27530   1.67680    0.000
 4730.00    2.11473   1.67751    0.000
 4731.00    2.34611   1.67803    0.000
 4732.00    2.61397   1.67869    0.000
 4733.00    2.94269   1.67920    0.000
 4734.00    2.96725   1.67982    0.000
 4735.00    2.54708   1.68036    0.000
 4736.00    2.21879   1.68095    0.000
 4737.00    2.00865   1.68152    0.000
 4738.00    2.02605   1.68208    0.000
 4739.00    2.30120   1.68268    0.000
 4740.00    2.63165   1.68323    0.000
 4741.00    3.01734   1.68382    0.000
 4742.00    3.43161   1.68438    0.000
 4743.00    3.87106   1.68495    0.000
 4744.00    3.90861   1.68553    0.000
 4745.00    3.63416   1.68607    0.000
 4746.00    3.29449   1.68664    0.000
 4747.00    2.91030   1.68717    0.000
 4748.00    2.46492   1.68773    0.000
 4749.00    1.98293   1.68825    0.000
 4750.00    1.85820   1.68880    0.000
 4751.00    1.91996   1.68933    0.000
 4752.00    2.44893   1.68986    0.000
 4753.00    3.18938   1.69040    0.000
 4754.00    3.32139   1.69093    0.000
 4755.00    3.21649   1.69146    0.000
 4756.00    3.08525   1.69199    0.000
 4757.00    2.94528   1.69252    0.000
 4758.00    2.97048   1.69306    0.000
 4759.00    3.04159   1.69356    0.000
 4760.00    2.56104   1.69412    0.000
 4761.00    1.95429   1.69461    0.004
 4762.00    2.22107   1.69517    0.004
 4763.00    2.64785   1.69566    0.004
 4764.00    2.62272   1.69621    0.004
 4765.00    2.53394   1.69671    0.003
 4766.00    2.37577   1.69725    0.004
 4767.00    2.21055   1.69776    0.004
 4768.00    2.46372   1.69829    0.004
 4769.00    2.74394   1.69883    0.004
 4770.00    2.65605   1.69933    0.004
 4771.00    2.55758   1.69988    0.004
 4772.00    2.73419   1.70036    0.004
 4773.00    2.90958   1.70093    0.004
 4774.00    3.04967   1.70138    0.004
 4775.00    3.14543   1.70194    0.003
 4776.00    2.60043   1.70241    0.003
 4777.00    2.11275   1.70294    0.003
 4778.00    2.16438   1.70343    0.003
 4779.00    2.23450   1.70392    0.003
 4780.00    2.43119   1.70444    0.003
 4781.00    2.65668   1.70490    0.003
 4782.00    3.03469   1.70545    0.003
 4783.00    3.24149   1.70590    0.003
 4784.00    2.71919   1.70646    0.003
 4785.00    2.31011   1.70693    0.003
 4786.00    2.29895   1.70749    0.003
 4787.00    2.25234   1.70800    0.003
 4788.00    2.10101   1.70853    0.003
 4789.00    2.01357   1.70910    0.003
 4790.00    2.08698   1.70959    0.003
 4791.00    2.25811   1.71020    0.003
 4792.00    2.64114   1.71068    0.003
 4793.00    2.89514   1.71128    0.003
 4794.00    2.90630   1.71175    0.003
 4795.00    2.87723   1.71229    0.003
 4796.00    2.78206   1.71278    0.003
 4797.00    2.71211   1.71322    0.004
 4798.00    2.67852   1.71372    0.004
 4799.00    2.60603   1.71408    0.004
 4800.00    2.48424   1.71458    0.003
 4801.00    2.24000   1.71488    0.003
 4802.00    1.85902   1.71535    0.003
 4803.00    1.75243   1.71563    0.004
 4804.00    1.91614   1.71605    0.003
 4805.00    2.27149   1.71631    0.004
 4806.00    2.79332   1.71670    0.004
 4807.00    2.91088   1.71694    0.004
 4808.00    2.71904   1.71726    0.004
 4809.00    2.75670   1.71750    0.003
 4810.00    2.94873   1.71779    0.003
 4811.00    2.93428   1.71802    0.003
 4812.00    2.79816   1.71827    0.003
 4813.00    2.68258   1.71850    0.003
 4814.00    2.57754   1.71867    0.004
 4815.00    2.46829   1.71890    0.004
 4816.00    2.35715   1.71906    0.004
 4817.00    2.55120   1.71928    0.004
 4818.00    2.86201   1.71940    0.004
 4819.00    2.99421   1.71956    0.004
 4820.00    3.06834   1.71966    0.004
 4821.00    2.75901   1.71973    0.004
 4822.00    2.34529   1.71981    0.004
 4823.00    2.16240   1.71977    0.004
 4824.00    2.03108   1.71976    0.004
 4825.00    2.07649   1.71964    0.004
 4826.00    2.15340   1.71957    0.004
 4827.00    2.42352   1.71933    0.004
 4828.00    2.71996   1.71912    0.004
 4829.00    2.72508   1.71878    0.004
 4830.00    2.70190   1.71839    0.004
 4831.00    2.29537   1.71786    0.004
 4832.00    1.86558   1.71724    0.004
 4833.00    1.97743   1.71646    0.004
 4834.00    2.10251   1.71551    0.004
 4835.00    2.02492   1.71436    0.004
 4836.00    1.94842   1.71296    0.004
 4837.00    1.90045   1.71127    0.004
 4838.00    1.85875   1.70924    0.003
 4839.00    1.90263   1.70678    0.003
 4840.00    2.01106   1.70378    0.003
 4841.00    2.70286   1.70017    0.004
 4842.00    3.27522   1.69573    0.004
 4843.00    3.05506   1.69038    0.004
 4844.00    2.87467   1.68375    0.004
 4845.00    2.89941   1.67580    0.003
 4846.00    2.84702   1.66602    0.003
 4847.00    2.47356   1.65444    0.004
 4848.00    2.14148   1.64049    0.000
 4849.00    1.95191   1.62429    0.000
 4850.00    1.85262   1.60549    0.000
 4851.00    2.01514   1.58428    0.000
 4852.00    2.26809   1.56100    0.000
 4853.00    2.74484   1.53567    0.000
 4854.00    2.80724   1.50981    0.000
 4855.00    1.98566   1.48334    0.000
 4856.00    1.57975   1.45884    0.000
 4857.00    1.94410   1.43695    0.000
 4858.00    2.16832   1.42036    0.000
 4859.00    2.16567   1.40874    0.000
 4860.00    2.08500   1.40382    0.000
 4861.00    1.89352   1.40491    0.000
 4862.00    1.84029   1.41242    0.000
 4863.00    1.95977   1.42573    0.000
 4864.00    1.88546   1.44393    0.000
 4865.00    1.59777   1.46626    0.000
 4866.00    1.79123   1.49101    0.000
 4867.00    2.45200   1.51754    0.000
 4868.00    2.73702   1.54408    0.000
 4869.00    2.70023   1.57022    0.000
 4870.00    2.47481   1.59465    0.000
 4871.00    2.10710   1.61708    0.000
 4872.00    2.20626   1.63688    0.000
 4873.00    2.61488   1.65399    0.000
 4874.00    2.69603   1.66875    0.000
 4875.00    2.58711   1.68120    0.004
 4876.00    2.71366   1.69181    0.004
 4877.00    2.95931   1.70072    0.004
 4878.00    2.88950   1.70822    0.003
 4879.00    2.68154   1.71464    0.003
 4880.00    2.55317   1.71999    0.003
 4881.00    2.45471   1.72473    0.003
 4882.00    2.50951   1.72867    0.004
 4883.00    2.61318   1.73226    0.004
 4884.00    2.44575   1.73529    0.004
 4885.00    2.20604   1.73808    0.004
 4886.00    2.16123   1.74051    0.003
 4887.00    2.15894   1.74274    0.003
 4888.00    2.82389   1.74478    0.003
 4889.00    3.60450   1.74662    0.003
 4890.00    3.66124   1.74839    0.003
 4891.00    3.62264   1.74993    0.003
 4892.00    3.64693   1.75147    0.003
 4893.00    3.67707   1.75280    0.003
 4894.00    3.40592   1.75414    0.003
 4895.00    3.11767   1.75531    0.003
 4896.00    3.02449   1.75647    0.003
 4897.00    2.93315   1.75752    0.003
 4898.00    2.55619   1.75851    0.003
 4899.00    2.19736   1.75947    0.003
 4900.00    2.26891   1.76031    0.003
 4901.00    2.34117   1.76114    0.004
 4902.00    2.42279   1.76186    0.003
 4903.00    2.47759   1.76251    0.003
 4904.00    2.29933   1.76310    0.003
 4905.00    2.17424   1.76347    0.003
 4906.00    2.39132   1.76385    0.003
 4907.00    2.57304   1.76374    0.003
 4908.00    2.57702   1.76371    0.003
 4909.00    2.50902   1.76302    0.003
 4910.00    2.14804   1.76236    0.003
 4911.00    1.90882   1.76098    0.003
 4912.00    2.08051   1.75942    0.003
 4913.00    2.23872   1.75746    0.003
 4914.00    2.35855   1.75487    0.003
 4915.00    2.47576   1.75271    0.003
 4916.00    2.58659   1.74917    0.003
 4917.00    2.52167   1.74723    0.003
 4918.00    2.08784   1.74394    0.003
 4919.00    2.03260   1.74316    0.003
 4920.00    2.66817   1.74167    0.003
 4921.00    2.90757   1.74267    0.003
 4922.00    2.51520   1.74315    0.003
 4923.00    2.15785   1.74517    0.003
 4924.00    1.84952   1.74774    0.003
 4925.00    1.75151   1.75054    0.003
 4926.00    1.91252   1.75451    0.003
 4927.00    2.14368   1.75761    0.003
 4928.00    2.45100   1.76189    0.003
 4929.00    2.66510   1.76515    0.003
 4930.00    2.78995   1.76913    0.003
 4931.00    2.75247   1.77179    0.003
 4932.00    2.57793   1.77455    0.003
 4933.00    2.36883   1.77654    0.003
 4934.00    2.13404   1.77827    0.003
 4935.00    1.91208   1.77969    0.003
 4936.00    1.69851   1.78078    0.003
 4937.00    1.76954   1.78178    0.003
 4938.00    2.00326   1.78253    0.003
 4939.00    2.16716   1.78325    0.003
 4940.00    2.29630   1.78389    0.000
 4941.00    2.21884   1.78446    0.000
 4942.00    2.05241   1.78510    0.000
 4943.00    2.20618   1.78557    0.000
 4944.00    2.47817   1.78622    0.000
 4945.00    2.73939   1.78668    0.000
 4946.00    2.99724   1.78728    0.000
 4947.00    3.02970   1.78779    0.000
 4948.00    3.00335   1.78829    0.000
 4949.00    2.57585   1.78883    0.000
 4950.00    2.06293   1.78926    0.000
 4951.00    2.20060   1.78982    0.000
 4952.00    2.44790   1.79017    0.000
 4953.00    2.21059   1.79070    0.000
 4954.00    1.91163   1.79106    0.000
 4955.00    2.15441   1.79155    0.000
 4956.00    2.44525   1.79198    0.000
 4957.00    2.26164   1.79243    0.000
 4958.00    2.05299   1.79290    0.000
 4959.00    2.09367   1.79334    0.000
 4960.00    2.14421   1.79384    0.000
 4961.00    2.59391   1.79427    0.000
 4962.00    2.99304   1.79477    0.000
 4963.00    2.29218   1.79521    0.000
 4964.00    1.65815   1.79570    0.000
 4965.00    1.84457   1.79615    0.000
 4966.00    2.07515   1.79661    0.000
 4967.00    2.67560   1.79705    0.000
 4968.00    3.10949   1.79750    0.000
 4969.00    2.50341   1.79792    0.000
 4970.00    2.00967   1.79834    0.000
 4971.00    2.06671   1.79876    0.000
 4972.00    2.23174   1.79914    0.000
 4973.00    2.82661   1.79955    0.000
 4974.00    3.21961   1.79993    0.000
 4975.00    2.94482   1.80028    0.000
 4976.00    2.75073   1.80067    0.000
 4977.00    2.78223   1.80097    0.000
 4978.00    2.66364   1.80139    0.000
 4979.00    2.18606   1.80164    0.000
 4980.00    1.82102   1.80209    0.000
 4981.00    1.68847   1.80237    0.000
 4982.00    1.58619   1.80286    0.000
 4983.00    1.53830   1.80319    0.000
 4984.00    1.73773   1.80364    0.000
 4985.00    2.32575   1.80405    0.000
 4986.00    2.64325   1.80445    0.000
 4987.00    2.58764   1.80493    0.000
 4988.00    2.51519   1.80524    0.000
 4989.00    2.42228   1.80576    0.000
 4990.00    2.45464   1.80605    0.000
 4991.00    2.62109   1.80655    0.000
 4992.00    2.57232   1.80682    0.000
 4993.00    2.32038   1.80721    0.000
 4994.00    2.29296   1.80750    0.000
 4995.00    2.45246   1.80773    0.000
 4996.00    2.46165   1.80803    0.000
 4997.00    2.36068   1.80812    0.000
 4998.00    2.56780   1.80836    0.000
 4999.00    2.97319   1.80837    0.000
 5000.00    3.15050   1.80858    0.000
 5001.00    3.19943   1.80846    0.000
 5002.00    3.15407   1.80843    0.000
 5003.00    3.06253   1.80795    0.000
 5004.00    2.84064   1.80761    0.000
 5005.00    2.56357   1.80693    0.000
 5006.00    2.62928   1.80626    0.000
 5007.00    2.81929   1.80525    0.000
 5008.00    2.64579   1.80414    0.000
 5009.00    2.36079   1.80316    0.000
 5010.00    2.08461   1.80148    0.000
 5011.00    1.81068   1.80076    0.000
 5012.00    1.82597   1.79853    0.000
 5013.00    1.90135   1.79827    0.000
 5014.00    1.83281   1.79809    0.000
 5015.00    1.74070   1.79892    0.000
 5016.00    2.17539   1.79929    0.000
 5017.00    2.67473   1.80056    0.000
 5018.00    2.83436   1.80212    0.000
 5019.00    2.96528   1.80361    0.000
 5020.00    2.68245   1.80586    0.000
 5021.00    2.37940   1.80756    0.000
 5022.00    2.29613   1.80998    0.000
 5023.00    2.21348   1.81206    0.000
 5024.00    1.96065   1.81422    0.000
 5025.00    1.72456   1.81562    0.000
 5026.00    1.82410   1.81704    0.000
 5027.00    1.92417   1.81821    0.000
 5028.00    2.03060   1.81907    0.000
 5029.00    2.18637   1.81989    0.003
 5030.00    2.74054   1.82047    0.004
 5031.00    3.14393   1.82102    0.004
 5032.00    2.63311   1.82142    0.004
 5033.00    2.09062   1.82168    0.004
 5034.00    1.39668   1.82198    0.004
 5035.00    1.01473   1.82193    0.004
 5036.00    1.84798   1.82212    0.004
 5037.00    2.41905   1.82186    0.003
 5038.00    2.13975   1.82191    0.003
 5039.00    1.93695   1.82163    0.003
 5040.00    1.94413   1.82168    0.003
 5041.00    1.99956   1.82137    0.003
 5042.00    2.16842   1.82123    0.003
 5043.00    2.33740   1.82121    0.003
 5044.00    2.50665   1.82058    0.003
 5045.00    2.79538   1.82094    0.003
 5046.00    3.29552   1.82093    0.003
 5047.00    3.32273   1.82203    0.003
 5048.00    2.61783   1.82206    0.003
 5049.00    2.20515   1.82321    0.003
 5050.00    2.18975   1.82379    0.003
 5051.00    2.20311   1.82469    0.003
 5052.00    2.25088   1.82551    0.003
 5053.00    2.26005   1.82626    0.003
 5054.00    2.22846   1.82750    0.003
 5055.00    2.30930   1.82833    0.003
 5056.00    2.49481   1.82945    0.003
 5057.00    2.59723   1.83007    0.003
 5058.00    2.63144   1.83089    0.003
 5059.00    2.43354   1.83149    0.003
 5060.00    2.06797   1.83209    0.003
 5061.00    1.92973   1.83268    0.003
 5062.00    1.93563   1.83319    0.003
 5063.00    2.11087   1.83377    0.003
 5064.00    2.37999   1.83425    0.003
 5065.00    2.56479   1.83469    0.003
 5066.00    2.70896   1.83512    0.003
 5067.00    2.50687   1.83548    0.003
 5068.00    2.16064   1.83592    0.003
 5069.00    2.29755   1.83621    0.003
 5070.00    2.60650   1.83665    0.003
 5071.00    2.82079   1.83693    0.003
 5072.00    3.00661   1.83734    0.003
 5073.00    2.68520   1.83767    0.003
 5074.00    2.23710   1.83801    0.003
 5075.00    2.03197   1.83840    0.003
 5076.00    1.87607   1.83868    0.003
 5077.00    2.38570   1.83910    0.003
 5078.00    3.00109   1.83937    0.003
 5079.00    2.59810   1.83981    0.003
 5080.00    2.07466   1.84011    0.003
 5081.00    2.15749   1.84050    0.003
 5082.00    2.28906   1.84087    0.003
 5083.00    2.16629   1.84119    0.003
 5084.00    2.03207   1.84158    0.003
 5085.00    1.63605   1.84191    0.003
 5086.00    1.25769   1.84229    0.003
 5087.00    1.91359   1.84262    0.003
 5088.00    2.52339   1.84298    0.003
 5089.00    2.27575   1.84332    0.003
 5090.00    2.06486   1.84362    0.003
 5091.00    2.26341   1.84397    0.003
 5092.00    2.42356   1.84425    0.003
 5093.00    2.28447   1.84459    0.003
 5094.00    2.13612   1.84487    0.003
 5095.00    1.93313   1.84517    0.003
 5096.00    1.82729   1.84547    0.003
 5097.00    2.17478   1.84575    0.003
 5098.00    2.45214   1.84606    0.003
 5099.00    2.46224   1.84636    0.003
 5100.00    2.40332   1.84669    0.003
 5101.00    2.12490   1.84698    0.003
 5102.00    1.97715   1.84733    0.003
 5103.00    2.18175   1.84763    0.003
 5104.00    2.29030   1.84798    0.003
 5105.00    2.17674   1.84827    0.003
 5106.00    2.13053   1.84864    0.003
 5107.00    2.21902   1.84893    0.003
 5108.00    2.32726   1.84927    0.003
 5109.00    2.46990   1.84958    0.003
 5110.00    2.53103   1.84990    0.003
 5111.00    2.46783   1.85018    0.003
 5112.00    2.45610   1.85050    0.003
 5113.00    2.51331   1.85083    0.003
 5114.00    2.47736   1.85113    0.003
 5115.00    2.33148   1.85147    0.003
 5116.00    2.50744   1.85172    0.003
 5117.00    3.01828   1.85208    0.003
 5118.00    2.96337   1.85230    0.003
 5119.00    2.38922   1.85265    0.003
 5120.00    2.07403   1.85288    0.003
 5121.00    1.96834   1.85321    0.003
 5122.00    2.03410   1.85349    0.003
 5123.00    2.22192   1.85372    0.003
 5124.00    2.12705   1.85404    0.003
 5125.00    1.85558   1.85424    0.003
 5126.00    1.75068   1.85461    0.003
 5127.00    1.73670   1.85482    0.003
 5128.00    1.91305   1.85518    0.003
 5129.00    2.17969   1.85542    0.003
 5130.00    2.25892   1.85573    0.003
 5131.00    2.26145   1.85603    0.003
 5132.00    2.40815   1.85630    0.003
 5133.00    2.60525   1.85665    0.003
 5134.00    2.44844   1.85686    0.003
 5135.00    2.18730   1.85723    0.003
 5136.00    2.12191   1.85741    0.003
 5137.00    2.10434   1.85775    0.003
 5138.00    2.18392   1.85797    0.003
 5139.00    2.28268   1.85825    0.003
 5140.00    2.43427   1.85852    0.003
 5141.00    2.59400   1.85871    0.003
 5142.00    2.37708   1.85909    0.003
 5143.00    2.11727   1.85921    0.003
 5144.00    1.95458   1.85966    0.003
 5145.00    1.79930   1.85981    0.003
 5146.00    1.62985   1.86019    0.003
 5147.00    1.45982   1.86044    0.003
 5148.00    1.74605   1.86075    0.003
 5149.00    2.03616   1.86111    0.003
 5150.00    2.33162   1.86135    0.003
 5151.00    2.61040   1.86180    0.003
 5152.00    2.60025   1.86196    0.003
 5153.00    2.58154   1.86242    0.003
 5154.00    2.47185   1.86257    0.003
 5155.00    2.40854   1.86304    0.003
 5156.00    2.69435   1.86319    0.003
 5157.00    2.88601   1.86352    0.003
 5158.00    2.53841   1.86371    0.003
 5159.00    2.29602   1.86387    0.003
 5160.00    2.53287   1.86417    0.003
 5161.00    2.66609   1.86417    0.003
 5162.00    2.41267   1.86451    0.003
 5163.00    2.26300   1.86445    0.003
 5164.00    2.43703   1.86470    0.003
 5165.00    2.48846   1.86470    0.003
 5166.00    2.21522   1.86489    0.003
 5167.00    2.02854   1.86508    0.003
 5168.00    2.03868   1.86525    0.003
 5169.00    2.01797   1.86553    0.003
 5170.00    1.93651   1.86571    0.003
 5171.00    1.95017   1.86609    0.003
 5172.00    2.12707   1.86633    0.003
 5173.00    2.25874   1.86672    0.003
 5174.00    2.32243   1.86704    0.003
 5175.00    2.19577   1.86744    0.003
 5176.00    1.81768   1.86778    0.003
 5177.00    1.80160   1.86810    0.003
 5178.00    2.20664   1.86850    0.003
 5179.00    2.34331   1.86874    0.003
 5180.00    2.20465   1.86910    0.003
 5181.00    2.26377   1.86931    0.003
 5182.00    2.50186   1.86966    0.003
 5183.00    2.45639   1.86991    0.003
 5184.00    2.18479   1.87020    0.003
 5185.00    1.84158   1.87051    0.003
 5186.00    1.44815   1.87073    0.003
 5187.00    1.48998   1.87106    0.003
 5188.00    1.79967   1.87122    0.003
 5189.00    1.82987   1.87160    0.003
 5190.00    1.70986   1.87173    0.000
 5191.00    1.77541   1.87206    0.000
 5192.00    1.92757   1.87222    0.000
 5193.00    2.09616   1.87245    0.000
 5194.00    2.27136   1.87263    0.000
 5195.00    2.20051   1.87272    0.000
 5196.00    2.04521   1.87299    0.000
 5197.00    2.13520   1.87297    0.000
 5198.00    2.29606   1.87325    0.000
 5199.00    2.18884   1.87331    0.000
 5200.00    2.01760   1.87355    0.000
 5201.00    2.03653   1.87364    0.000
 5202.00    2.09206   1.87381    0.000
 5203.00    2.29250   1.87409    0.000
 5204.00    2.51460   1.87426    0.000
 5205.00    2.28993   1.87460    0.000
 5206.00    2.01633   1.87488    0.000
 5207.00    1.82383   1.87523    0.000
 5208.00    1.63719   1.87550    0.000
 5209.00    1.64203   1.87581    0.000
 5210.00    1.65403   1.87619    0.000
 5211.00    2.35880   1.87657    0.003
 5212.00    3.03119   1.87692    0.003
 5213.00    2.40807   1.87726    0.003
 5214.00    1.81846   1.87761    0.003
 5215.00    1.77208   1.87792    0.003
 5216.00    1.71883   1.87821    0.003
 5217.00    1.59567   1.87854    0.003
 5218.00    1.52882   1.87881    0.003
 5219.00    1.87182   1.87913    0.003
 5220.00    2.23261   1.87929    0.003
 5221.00    2.69253   1.87959    0.003
 5222.00    2.99496   1.87978    0.003
 5223.00    2.59676   1.87992    0.003
 5224.00    2.26703   1.88019    0.003
 5225.00    2.18745   1.88027    0.003
 5226.00    2.10899   1.88060    0.003
 5227.00    2.03396   1.88071    0.003
 5228.00    2.09432   1.88101    0.003
 5229.00    2.50700   1.88121    0.003
 5230.00    2.75442   1.88141    0.003
 5231.00    2.63224   1.88171    0.003
 5232.00    2.53616   1.88192    0.003
 5233.00    2.49066   1.88232    0.003
 5234.00    2.51565   1.88253    0.003
 5235.00    2.65980   1.88297    0.003
 5236.00    2.64867   1.88317    0.003
 5237.00    2.40759   1.88358    0.003
 5238.00    2.31611   1.88387    0.003
 5239.00    2.41939   1.88414    0.003
 5240.00    2.36792   1.88457    0.003
 5241.00    2.13895   1.88467    0.003
 5242.00    2.09800   1.88519    0.003
 5243.00    2.24723   1.88527    0.003
 5244.00    2.37676   1.88563    0.003
 5245.00    2.48874   1.88579    0.003
 5246.00    2.41844   1.88592    0.003
 5247.00    2.20485   1.88618    0.003
 5248.00    2.18959   1.88621    0.003
 5249.00    2.31145   1.88647    0.003
 5250.00    2.27663   1.88654    0.003
 5251.00    2.14681   1.88666    0.003
 5252.00    2.32585   1.88676    0.003
 5253.00    2.66834   1.88686    0.003
 5254.00    2.70507   1.88696    0.003
 5255.00    2.60141   1.88712    0.003
 5256.00    2.45470   1.88717    0.003
 5257.00    2.29097   1.88732    0.003
 5258.00    2.33094   1.88739    0.003
 5259.00    2.43952   1.88751    0.003
 5260.00    2.42043   1.88766    0.003
 5261.00    2.36520   1.88767    0.003
 5262.00    2.42866   1.88787    0.003
 5263.00    2.51984   1.88791    0.003
 5264.00    2.38562   1.88806    0.003
 5265.00    2.20913   1.88819    0.003
 5266.00    2.13673   1.88830    0.003
 5267.00    2.07941   1.88849    0.003
 5268.00    2.24215   1.88856    0.003
 5269.00    2.42805   1.88882    0.003
 5270.00    2.60374   1.88898    0.003
 5271.00    2.77874   1.88924    0.003
 5272.00    2.53909   1.88948    0.003
 5273.00    2.28554   1.88969    0.003
 5274.00    2.08430   1.88998    0.003
 5275.00    1.89736   1.89024    0.003
 5276.00    2.16648   1.89055    0.003
 5277.00    2.41263   1.89083    0.003
 5278.00    2.30897   1.89116    0.003
 5279.00    2.20874   1.89143    0.003
 5280.00    2.14194   1.89172    0.003
 5281.00    2.12898   1.89198    0.003
 5282.00    2.49507   1.89230    0.003
 5283.00    2.75765   1.89256    0.003
 5284.00    2.45892   1.89283    0.003
 5285.00    2.19405   1.89309    0.003
 5286.00    2.07629   1.89331    0.003
 5287.00    2.09536   1.89357    0.003
 5288.00    2.60406   1.89374    0.003
 5289.00    2.88243   1.89400    0.003
 5290.00    2.46903   1.89417    0.003
 5291.00    2.24546   1.89437    0.003
 5292.00    2.50724   1.89457    0.003
 5293.00    2.64919   1.89468    0.003
 5294.00    2.52750   1.89492    0.003
 5295.00    2.39058   1.89500    0.003
 5296.00    2.22460   1.89521    0.003
 5297.00    2.14326   1.89538    0.003
 5298.00    2.20285   1.89547    0.003
 5299.00    2.33848   1.89574    0.003
 5300.00    2.58506   1.89578    0.003
 5301.00    2.56294   1.89602    0.003
 5302.00    2.19596   1.89616    0.003
 5303.00    2.19053   1.89626    0.003
 5304.00    2.59393   1.89651    0.003
 5305.00    2.68417   1.89652    0.003
 5306.00    2.46209   1.89673    0.003
 5307.00    2.27559   1.89676    0.003
 5308.00    2.12040   1.89687    0.003
 5309.00    2.25613   1.89699    0.003
 5310.00    2.61732   1.89699    0.003
 5311.00    2.98355   1.89714    0.003
 5312.00    3.35321   1.89707    0.003
 5313.00    3.00885   1.89718    0.003
 5314.00    2.23812   1.89719    0.003
 5315.00    1.78623   1.89725    0.003
 5316.00    1.50043   1.89738    0.003
 5317.00    1.48215   1.89735    0.003
 5318.00    1.58470   1.89751    0.003
 5319.00    1.72320   1.89752    0.003
 5320.00    1.87567   1.89767    0.003
 5321.00    1.86835   1.89779    0.003
 5322.00    1.80821   1.89793    0.003
 5323.00    2.02161   1.89813    0.003
 5324.00    2.31087   1.89821    0.003
 5325.00    2.48031   1.89837    0.003
 5326.00    2.62243   1.89857    0.003
 5327.00    2.53816   1.89877    0.003
 5328.00    2.41257   1.89894    0.003
 5329.00    2.48019   1.89918    0.003
 5330.00    2.57492   1.89931    0.003
 5331.00    2.52315   1.89954    0.003
 5332.00    2.45660   1.89972    0.003
 5333.00    2.27590   1.89988    0.003
 5334.00    2.08787   1.90015    0.003
 5335.00    2.13440   1.90024    0.003
 5336.00    2.18720   1.90047    0.003
 5337.00    1.94501   1.90060    0.003
 5338.00    1.71594   1.90071    0.003
 5339.00    1.86186   1.90094    0.003
 5340.00    1.99004   1.90105    0.003
 5341.00    1.86382   1.90125    0.003
 5342.00    1.78762   1.90139    0.003
 5343.00    2.17972   1.90153    0.003
 5344.00    2.49925   1.90173    0.003
 5345.00    2.32380   1.90194    0.003
 5346.00    2.18198   1.90208    0.003
 5347.00    2.21769   1.90240    0.003
 5348.00    2.22323   1.90252    0.003
 5349.00    2.10066   1.90277    0.003
 5350.00    2.03629   1.90299    0.003
 5351.00    2.17597   1.90313    0.003
 5352.00    2.14321   1.90351    0.003
 5353.00    1.60223   1.90353    0.003
 5354.00    1.22615   1.90387    0.003
 5355.00    1.26438   1.90396    0.003
 5356.00    1.44310   1.90410    0.003
 5357.00    1.92588   1.90434    0.003
 5358.00    2.24834   1.90432    0.003
 5359.00    2.26963   1.90458    0.003
 5360.00    2.33918   1.90458    0.003
 5361.00    2.48789   1.90468    0.003
 5362.00    2.60578   1.90478    0.003
 5363.00    2.67938   1.90476    0.003
 5364.00    2.47340   1.90490    0.003
 5365.00    1.91374   1.90491    0.003
 5366.00    1.71499   1.90499    0.003
 5367.00    1.91858   1.90506    0.003
 5368.00    2.07829   1.90508   -2.000
 5369.00    2.19484   1.90518   -2.000
 5370.00    2.41207   1.90526   -2.000
 5371.00    2.71661   1.90536   -2.000
 5372.00    3.25302   1.90544   -2.000
 5373.00    3.96656   1.90557   -2.000
 5374.00    4.08393   1.90562   -2.000
 5375.00    3.80102   1.90577   -2.000
 5376.00    3.58063   1.90586   -2.000
 5377.00    3.39702   1.90593   -2.000
 5378.00    3.07889   1.90611   -2.000
 5379.00    2.69178   1.90607   -2.000
 5380.00    2.69039   1.90625   -2.000
 5381.00    2.86038   1.90624   -2.000
 5382.00    2.90329   1.90629   -2.000
 5383.00    2.89768   1.90639    0.003
 5384.00    2.55599   1.90626    0.003
 5385.00    2.10529   1.90636    0.003
 5386.00    2.20343   1.90622    0.003
 5387.00    2.45061   1.90612    0.003
 5388.00    2.03263   1.90601    0.003
 5389.00    1.46648   1.90564    0.003
 5390.00    1.45337   1.90540    0.003
 5391.00    1.53849   1.90482    0.003
 5392.00    1.71296   1.90414    0.003
 5393.00    1.89956   1.90321    0.003
 5394.00    1.71633   1.90188    0.003
 5395.00    1.49737   1.90032    0.003
 5396.00    1.76570   1.89811    0.003
 5397.00    2.06334   1.89527    0.003
 5398.00    2.30794   1.89171    0.003
 5399.00    2.54751   1.88760    0.003
 5400.00    2.17935   1.88283    0.003
 5401.00    1.82842   1.87738    0.003
 5402.00    1.92167   1.87052    0.003
 5403.00    2.00962   1.86308    0.003
 5404.00    2.02567   1.85586    0.003
 5405.00    2.03538   1.84906    0.003
 5406.00    1.98812   1.84291    0.003
 5407.00    1.93215   1.83632    0.003
 5408.00    1.81862   1.83082    0.003
 5409.00    1.74100   1.82666    0.003
 5410.00    1.84808   1.82471    0.003
 5411.00    2.05141   1.82527    0.003
 5412.00    2.65420   1.82711    0.003
 5413.00    3.03929   1.83062    0.003
 5414.00    2.67666   1.83464    0.003
 5415.00    2.38045   1.84018    0.003
 5416.00    2.27641   1.84739    0.003
 5417.00    2.17410   1.85532    0.003
 5418.00    2.07604   1.86326    0.003
 5419.00    2.07278   1.86999    0.003
 5420.00    2.27136   1.87636    0.003
 5421.00    2.23481   1.88248    0.003
 5422.00    1.76338   1.88806    0.003
 5423.00    1.56889   1.89288    0.003
 5424.00    1.82186   1.89655    0.003
 5425.00    2.04828   1.89955    0.003
 5426.00    2.23708   1.90200    0.003
 5427.00    2.35024   1.90395    0.003
 5428.00    2.36906   1.90546    0.003
 5429.00    2.34862   1.90668    0.003
 5430.00    2.28501   1.90756    0.003
 5431.00    2.20579   1.90831    0.003
 5432.00    2.11143   1.90891    0.003
 5433.00    2.10488   1.90931    0.003
 5434.00    2.17341   1.90983    0.003
 5435.00    2.04537   1.91008    0.003
 5436.00    1.76933   1.91047    0.003
 5437.00    1.79093   1.91069    0.003
 5438.00    2.00947   1.91087    0.003
 5439.00    2.09447   1.91118    0.003
 5440.00    2.10211   1.91121    0.003
 5441.00    2.03650   1.91148    0.003
 5442.00    1.93391   1.91150    0.003
 5443.00    2.35231   1.91160    0.003
 5444.00    2.99838   1.91171    0.003
 5445.00    2.83936   1.91163    0.003
 5446.00    2.37841   1.91178    0.003
 5447.00    2.06891   1.91171    0.003
 5448.00    1.80759   1.91178    0.003
 5449.00    1.61037   1.91179    0.003
 5450.00    1.43018   1.91175    0.003
 5451.00    1.60580   1.91183    0.003
 5452.00    1.85881   1.91182    0.003
 5453.00    1.92329   1.91193    0.003
 5454.00    1.95521   1.91199    0.003
 5455.00    2.21735   1.91209    0.003
 5456.00    2.50967   1.91217    0.003
 5457.00    2.00270   1.91225    0.003
 5458.00    1.42188   1.91238    0.003
 5459.00    1.77270   1.91248    0.003
 5460.00    2.17588   1.91260    0.003
 5461.00    2.26743   1.91268    0.003
 5462.00    2.34912   1.91277    0.003
 5463.00    2.12979   1.91283    0.003
 5464.00    1.91203   1.91293    0.003
 5465.00    1.73080   1.91295    0.003
 5466.00    1.57361   1.91304    0.003
 5467.00    1.72521   1.91309    0.003
 5468.00    1.87917   1.91312    0.003
 5469.00    2.05363   1.91322    0.003
 5470.00    2.18955   1.91317    0.003
 5471.00    2.07852   1.91332    0.003
 5472.00    1.97682   1.91332    0.003
 5473.00    1.92185   1.91340    0.003
 5474.00    1.89539   1.91350    0.003
 5475.00    1.98460   1.91349    0.003
 5476.00    2.08604   1.91365    0.003
 5477.00    2.22862   1.91365    0.003
 5478.00    2.36797   1.91381   -2.000
 5479.00    2.49815   1.91387   -2.000
 5480.00    2.48423   1.91395   -2.000
 5481.00    2.12048   1.91405   -2.000
 5482.00    1.92294   1.91411   -2.000
 5483.00    2.07356   1.91426   -2.000
 5484.00    3.02487   1.91429   -2.000
 5485.00    5.43432   1.91441   -2.000
 5486.00    7.29305   1.91443   -2.000
 5487.00    8.27516   1.91452   -2.000
 5488.00    8.93456   1.91460   -2.000
 5489.00    9.14314   1.91464   -2.000
 5490.00    7.72736   1.91473   -2.000
 5491.00    4.31464   1.91472   -2.000
 5492.00    1.94405   1.91483   -2.000
 5493.00    0.70282   1.91484   -2.000
 5494.00    0.25963   1.91488   -2.000
 5495.00    0.57930   1.91496   -2.000
 5496.00    1.11432   1.91493   -2.000
 5497.00    1.83085   1.91504   -2.000
 5498.00    2.10949   1.91504   -2.000
 5499.00    2.06315   1.91503   -2.000
 5500.00    2.09911   1.91513   -2.000
 5501.00    2.18873   1.91505   -2.000
 5502.00    2.01258   1.91518    0.003
 5503.00    1.68479   1.91518    0.003
 5504.00    1.63597   1.91514    0.003
 5505.00    1.72575   1.91529    0.003
 5506.00    1.90251   1.91517    0.003
 5507.00    2.11664   1.91534    0.003
 5508.00    2.12638   1.91534    0.003
 5509.00    2.06082   1.91534    0.003
 5510.00    2.05428   1.91547    0.003
 5511.00    2.06617   1.91540    0.003
 5512.00    2.14972   1.91556    0.003
 5513.00    2.25190   1.91554    0.003
 5514.00    2.28655   1.91562    0.003
 5515.00    2.30686   1.91564    0.003
 5516.00    2.14745   1.91564    0.003
 5517.00    1.95787   1.91570    0.003
 5518.00    1.90157   1.91566    0.003
 5519.00    1.86214   1.91574    0.003
 5520.00    2.29852   1.91568    0.003
 5521.00    2.77686   1.91569    0.003
 5522.00    2.36116   1.91570    0.003
 5523.00    1.89873   1.91564    0.003
 5524.00    1.82728   1.91571    0.003
 5525.00    1.76714   1.91567    0.003
 5526.00    2.01038   1.91565    0.003
 5527.00    2.24118   1.91572    0.003
 5528.00    2.20423   1.91567    0.003
 5529.00    2.17352   1.91576    0.003
 5530.00    2.21877   1.91579    0.003
 5531.00    2.22708   1.91578    0.003
 5532.00    1.92751   1.91589    0.003
 5533.00    1.71716   1.91590    0.003
 5534.00    2.06195   1.91597    0.003
 5535.00    2.36536   1.91604    0.003
 5536.00    2.46658   1.91606    0.003
 5537.00    2.52295   1.91614    0.003
 5538.00    2.40125   1.91618    0.003
 5539.00    2.28236   1.91623    0.003
 5540.00    2.17276   1.91627    0.003
 5541.00    2.16506   1.91632    0.003
 5542.00    2.44161   1.91636    0.003
 5543.00    2.59167   1.91640    0.003
 5544.00    2.43987   1.91643    0.003
 5545.00    2.30832   1.91646    0.003
 5546.00    2.21854   1.91649    0.003
 5547.00    2.07476   1.91652    0.003
 5548.00    1.83418   1.91652    0.003
 5549.00    1.80456   1.91655    0.003
 5550.00    2.10580   1.91658    0.003
 5551.00    2.25367   1.91655    0.003
 5552.00    2.19039   1.91661    0.003
 5553.00    2.24176   1.91655    0.003
 5554.00    2.43205   1.91657    0.003
 5555.00    2.47824   1.91658    0.003
 5556.00    2.37044   1.91653    0.003
 5557.00    2.11868   1.91657    0.003
 5558.00    1.73124   1.91646    0.003
 5559.00    1.49687   1.91651    0.003
 5560.00    1.38969   1.91646    0.003
 5561.00    1.60876   1.91642    0.003
 5562.00    2.06650   1.91645    0.003
 5563.00    2.13436   1.91632    0.003
 5564.00    1.95178   1.91640    0.003
 5565.00    2.00677   1.91634    0.003
 5566.00    2.19524   1.91632    0.003
 5567.00    2.30311   1.91636    0.003
 5568.00    2.37158   1.91627    0.003
 5569.00    2.35737   1.91636    0.003
 5570.00    2.30822   1.91633    0.003
 5571.00    2.16934   1.91631    0.003
 5572.00    1.99800   1.91636    0.003
 5573.00    1.98244   1.91630    0.003
 5574.00    2.01454   1.91635    0.003
 5575.00    2.04901   1.91629    0.003
 5576.00    2.08407   1.91620    0.003
 5577.00    1.95702   1.91618    0.003
 5578.00    1.79640   1.91604    0.003
 5579.00    1.96561   1.91597    0.003
 5580.00    2.18861   1.91570    0.003
 5581.00    2.32935   1.91546    0.003
 5582.00    2.46003   1.91525    0.003
 5583.00    2.43486   1.91497    0.003
 5584.00    2.39661   1.91475    0.003
 5585.00    2.22877   1.91419    0.003
 5586.00    2.05467   1.91391    0.003
 5587.00    2.13486   1.91361    0.003
 5588.00    2.20980   1.91341    0.003
 5589.00    1.74680   1.91327    0.003
 5590.00    1.31506   1.91277    0.003
 5591.00    1.50419   1.91286    0.003
 5592.00    1.68557   1.91282    0.003
 5593.00    1.77703   1.91302    0.003
 5594.00    1.89887   1.91321    0.003
 5595.00    2.26488   1.91310    0.003
 5596.00    2.56053   1.91361    0.003
 5597.00    2.43111   1.91382    0.003
 5598.00    2.30160   1.91420    0.003
 5599.00    2.17172   1.91450    0.003
 5600.00    2.03626   1.91460    0.003
 5601.00    1.87917   1.91503    0.003
 5602.00    1.80325   1.91520    0.003
 5603.00    1.98992   1.91541    0.003
 5604.00    2.14308   1.91554    0.003
 5605.00    2.20444   1.91562    0.003
 5606.00    2.24269   1.91577    0.003
 5607.00    2.22672   1.91582    0.003
 5608.00    2.23871   1.91588    0.003
 5609.00    2.30740   1.91588    0.003
 5610.00    2.27778   1.91592    0.002
 5611.00    2.07454   1.91593    0.002
 5612.00    1.92611   1.91593    0.003
 5613.00    1.86237   1.91596    0.003
 5614.00    1.92334   1.91591    0.003
 5615.00    2.15355   1.91597    0.003
 5616.00    2.14251   1.91593    0.003
 5617.00    1.84323   1.91593    0.003
 5618.00    1.74780   1.91595    0.003
 5619.00    1.86713   1.91589    0.003
 5620.00    1.95074   1.91595    0.003
 5621.00    2.00116   1.91588    0.003
 5622.00    2.10188   1.91590    0.003
 5623.00    2.24381   1.91589    0.003
 5624.00    2.08236   1.91582    0.003
 5625.00    1.70217   1.91585    0.003
 5626.00    1.56224   1.91576    0.003
 5627.00    1.57437   1.91576    0.003
 5628.00    1.69768   1.91568    0.003
 5629.00    1.88250   1.91562    0.003
 5630.00    1.95928   1.91556    0.003
 5631.00    1.98407   1.91546    0.003
 5632.00    2.13342   1.91544    0.003
 5633.00    2.33452   1.91526    0.003
 5634.00    2.44420   1.91521    0.003
 5635.00    2.52140   1.91510    0.003
 5636.00    2.55336   1.91499    0.003
 5637.00    2.57175   1.91497    0.003
 5638.00    2.51212   1.91477    0.003
 5639.00    2.43306   1.91475    0.003
 5640.00    2.39904   1.91467    0.003
 5641.00    2.37412   1.91462    0.003
 5642.00    2.42373   1.91461    0.003
 5643.00    2.48515   1.91451    0.003
 5644.00    2.25667   1.91454    0.003
 5645.00    1.99406   1.91451    0.003
 5646.00    1.94932   1.91453    0.003
 5647.00    1.92199   1.91450    0.003
 5648.00    1.91035   1.91450    0.003
 5649.00    1.89941   1.91451    0.003
 5650.00    1.83237   1.91447    0.003
 5651.00    1.76074   1.91451    0.003
 5652.00    1.49704   1.91439    0.003
 5653.00    1.26126   1.91438    0.003
 5654.00    1.53982   1.91432    0.003
 5655.00    1.79506   1.91421    0.003
 5656.00    1.79193   1.91420    0.003
 5657.00    1.81582   1.91401    0.003
 5658.00    2.04933   1.91396    0.003
 5659.00    2.22517   1.91387    0.003
 5660.00    2.06252   1.91372    0.003
 5661.00    1.93868   1.91369    0.003
 5662.00    1.99541   1.91354    0.003
 5663.00    2.03099   1.91350    0.003
 5664.00    1.98616   1.91345    0.003
 5665.00    1.93853   1.91332    0.003
 5666.00    1.88203   1.91333    0.003
 5667.00    1.90564   1.91325    0.003
 5668.00    2.14475   1.91320    0.003
 5669.00    2.20471   1.91318    0.003
 5670.00    1.85127   1.91306    0.003
 5671.00    1.65383   1.91311    0.003
 5672.00    1.76786   1.91302    0.003
 5673.00    1.97582   1.91292    0.003
 5674.00    2.34715   1.91289    0.003
 5675.00    2.64442   1.91280    0.003
 5676.00    2.82894   1.91282    0.003
 5677.00    2.81735   1.91273    0.003
 5678.00    2.54346   1.91264    0.003
 5679.00    2.23536   1.91261    0.003
 5680.00    1.88699   1.91256    0.003
 5681.00    1.69828   1.91254    0.003
 5682.00    1.67542   1.91249    0.003
 5683.00    1.81370   1.91245    0.003
 5684.00    2.09962   1.91239    0.003
 5685.00    2.18101   1.91234    0.003
 5686.00    2.09723   1.91224    0.003
 5687.00    2.02690   1.91223    0.003
 5688.00    1.96614   1.91217    0.003
 5689.00    1.97646   1.91198    0.003
 5690.00    2.03110   1.91194    0.003
 5691.00    2.05964   1.91176    0.003
 5692.00    2.07395   1.91178    0.003
 5693.00    2.07184   1.91170    0.003
 5694.00    2.06196   1.91144    0.003
 5695.00    2.08697   1.91153    0.003
 5696.00    2.12622   1.91141    0.003
 5697.00    2.11978   1.91140    0.003
 5698.00    2.09740   1.91143    0.003
 5699.00    1.92399   1.91124    0.003
 5700.00    1.70616   1.91145    0.003
 5701.00    1.58319   1.91140    0.003
 5702.00    1.48334   1.91134    0.003
 5703.00    1.62852   1.91145    0.003
 5704.00    1.82195   1.91132    0.003
 5705.00    2.04945   1.91148    0.003
 5706.00    2.28217   1.91142    0.003
 5707.00    2.01453   1.91135    0.003
 5708.00    1.69017   1.91144    0.003
 5709.00    1.65501   1.91130    0.003
 5710.00    1.64177   1.91140    0.003
 5711.00    1.87148   1.91128    0.003
 5712.00    2.11107   1.91123    0.003
 5713.00    2.23090   1.91131    0.003
 5714.00    2.34636   1.91113    0.003
 5715.00    2.32018   1.91120    0.003
 5716.00    2.28737   1.91106    0.003
 5717.00    2.14063   1.91100    0.003
 5718.00    2.02048   1.91103    0.003
 5719.00    2.18149   1.91089    0.003
 5720.00    2.31835   1.91084    0.003
 5721.00    2.27419   1.91078    0.003
 5722.00    2.19732   1.91070    0.003
 5723.00    1.93380   1.91064    0.003
 5724.00    1.73636   1.91059    0.003
 5725.00    1.83907   1.91045    0.003
 5726.00    1.92978   1.91042    0.003
 5727.00    1.97588   1.91037    0.003
 5728.00    2.01419   1.91019    0.003
 5729.00    2.02829   1.91015    0.003
 5730.00    2.04206   1.91001    0.002
 5731.00    2.05496   1.90992    0.002
 5732.00    2.06705   1.90985    0.002
 5733.00    2.07731   1.90960    0.002
 5734.00    2.07553   1.90948    0.002
 5735.00    2.05008   1.90939    0.002
 5736.00    1.95714   1.90931    0.002
 5737.00    1.74861   1.90915    0.002
 5738.00    1.69349   1.90898    0.003
 5739.00    1.86854   1.90892    0.003
 5740.00    2.00731   1.90887    0.000
 5741.00    2.09825   1.90881    0.000
 5742.00    2.23889   1.90869    0.000
 5743.00    2.43727   1.90867    0.000
 5744.00    2.57625   1.90868    0.000
 5745.00    2.65441   1.90868    0.000
 5746.00    2.61698   1.90857    0.000
 5747.00    2.47512   1.90855    0.000
 5748.00    2.30547   1.90857    0.000
 5749.00    2.11371   1.90853    0.000
 5750.00    1.99982   1.90856    0.000
 5751.00    1.94046   1.90841    0.000
 5752.00    2.03891   1.90843    0.000
 5753.00    2.23431   1.90841    0.000
 5754.00    2.23251   1.90831    0.000
 5755.00    2.12494   1.90836    0.000
 5756.00    2.14196   1.90819    0.000
 5757.00    2.21700   1.90822    0.000
 5758.00    2.20677   1.90817    0.000
 5759.00    2.16232   1.90805    0.000
 5760.00    1.93830   1.90811    0.000
 5761.00    1.65280   1.90789    0.000
 5762.00    1.44961   1.90794    0.000
 5763.00    1.27014   1.90784    0.000
 5764.00    1.51017   1.90771    0.000
 5765.00    1.85010   1.90771    0.000
 5766.00    2.04004   1.90748    0.000
 5767.00    2.20120   1.90753    0.000
 5768.00    2.28743   1.90737    0.000
 5769.00    2.36251   1.90720    0.000
 5770.00    2.19450   1.90717    0.000
 5771.00    2.00000   1.90697    0.000
 5772.00    1.98187   1.90695    0.000
 5773.00    1.97639   1.90678    0.000
 5774.00    2.14152   1.90661    0.000
 5775.00    2.31295   1.90656    0.000
 5776.00    2.27743   1.90639    0.000
 5777.00    2.24279   1.90633    0.000
 5778.00    2.27105   1.90615    0.000
 5779.00    2.29680   1.90604    0.000
 5780.00    2.28235   1.90597    0.000
 5781.00    2.26217   1.90583    0.000
 5782.00    2.18408   1.90573    0.000
 5783.00    2.12000   1.90561    0.000
 5784.00    2.15742   1.90552    0.000
 5785.00    2.21009   1.90539    0.000
 5786.00    2.34751   1.90528    0.000
 5787.00    2.43710   1.90513    0.000
 5788.00    2.31457   1.90498    0.000
 5789.00    2.21967   1.90483    0.000
 5790.00    2.22545   1.90465    0.000
 5791.00    2.27845   1.90443   -2.000
 5792.00    2.47564   1.90422   -2.000
 5793.00    2.62157   1.90405   -2.000
 5794.00    2.63439   1.90370   -2.000
 5795.00    2.60504   1.90345   -2.000
 5796.00    2.48160   1.90315   -2.000
 5797.00    2.29272   1.90300   -2.000
 5798.00    1.97724   1.90285   -2.000
 5799.00    1.83487   1.90245   -2.000
 5800.00    1.98453   1.90232   -2.000
 5801.00    2.16812   1.90213   -2.000
 5802.00    2.40187   1.90198   -2.000
 5803.00    2.51766   1.90197   -2.000
 5804.00    2.48014   1.90171   -2.000
 5805.00    2.40765   1.90172   -2.000
 5806.00    2.29512   1.90167   -2.000
 5807.00    2.18365   1.90150   -2.000
 5808.00    2.07323   1.90174   -2.000
 5809.00    2.07399   1.90154   -2.000
 5810.00    2.17377   1.90163   -2.000
 5811.00    2.25155   1.90180    0.000
 5812.00    2.31207   1.90172    0.000
 5813.00    2.24832   1.90202    0.000
 5814.00    2.09879   1.90204    0.000
 5815.00    1.97393   1.90210    0.000
 5816.00    1.86401   1.90258    0.000
 5817.00    1.91704   1.90262    0.000
 5818.00    2.05613   1.90272    0.000
 5819.00    2.10500   1.90307    0.000
 5820.00    2.11252   1.90313    0.000
 5821.00    2.12231   1.90354    0.000
 5822.00    2.13299   1.90357    0.000
 5823.00    2.09224   1.90346    0.000
 5824.00    2.03420   1.90382    0.000
 5825.00    2.01921   1.90375    0.000
 5826.00    2.01639   1.90369    0.000
 5827.00    2.19275   1.90373    0.000
 5828.00    2.41083   1.90345    0.000
 5829.00    2.35212   1.90353    0.000
 5830.00    2.24167   1.90329    0.000
 5831.00    2.07910   1.90297    0.000
 5832.00    1.90901   1.90297    0.000
 5833.00    1.85356   1.90268    0.000
 5834.00    1.81010   1.90255    0.000
 5835.00    2.01932   1.90233    0.000
 5836.00    2.24564   1.90204    0.000
 5837.00    2.24678   1.90196    0.000
 5838.00    2.24048   1.90175    0.000
 5839.00    2.14496   1.90158    0.000
 5840.00    2.05822   1.90143    0.000
 5841.00    2.25031   1.90123    0.000
 5842.00    2.42403   1.90110    0.000
 5843.00    2.32034   1.90093    0.000
 5844.00    2.21532   1.90076    0.000
 5845.00    2.09752   1.90060    0.000
 5846.00    1.97750   1.90041    0.000
 5847.00    1.84194   1.90029    0.000
 5848.00    1.75272   1.90009    0.000
 5849.00    1.91401   1.89991    0.000
 5850.00    2.06929   1.89977    0.000
 5851.00    2.19855   1.89955    0.000
 5852.00    2.26806   1.89932    0.000
 5853.00    2.12429   1.89909    0.000
 5854.00    1.98322   1.89876    0.000
 5855.00    1.85021   1.89833    0.000
 5856.00    1.77941   1.89794    0.000
 5857.00    1.86734   1.89718    0.000
 5858.00    1.94541   1.89618    0.000
 5859.00    2.00185   1.89561    0.000
 5860.00    2.01816   1.89360    0.000
 5861.00    1.95804   1.89146    0.000
 5862.00    1.88431   1.88949    0.000
 5863.00    1.78796   1.88602    0.000
 5864.00    1.81699   1.88431    0.000
 5865.00    2.02868   1.87949    0.000
 5866.00    2.12053   1.87390    0.000
 5867.00    2.05886   1.87220    0.000
 5868.00    2.05042   1.86516    0.000
 5869.00    2.10207   1.86010    0.000
 5870.00    2.12406   1.85552    0.000
 5871.00    2.11651   1.84975    0.000
 5872.00    2.08037   1.85174    0.000
 5873.00    2.01912   1.84526    0.000
 5874.00    1.88712   1.84148    0.000
 5875.00    1.70039   1.84414    0.000
 5876.00    1.56261   1.84216    0.000
 5877.00    1.45811   1.84664    0.000
 5878.00    1.48490   1.84703    0.000
 5879.00    1.58994   1.84944    0.000
 5880.00    1.66793   1.85846    0.000
 5881.00    1.73186   1.85922    0.000
 5882.00    1.64291   1.86334    0.000
 5883.00    1.48504   1.86848    0.000
 5884.00    1.50848   1.87169    0.000
 5885.00    1.60221   1.87801    0.000
 5886.00    1.63966   1.87978    0.000
 5887.00    1.65854   1.88231    0.000
 5888.00    1.60174   1.88589    0.000
 5889.00    1.52402   1.88686    0.000
 5890.00    1.47001   1.88849    0.000
 5891.00    1.42140   1.88974    0.000
 5892.00    1.48202   1.89038    0.000
 5893.00    1.56252   1.89153    0.000
 5894.00    1.82761   1.89179    0.000
 5895.00    2.11848   1.89204    0.000
 5896.00    2.11604   1.89250    0.000
 5897.00    2.08416   1.89257    0.000
 5898.00    1.95664   1.89275    0.000
 5899.00    1.82303   1.89298    0.000
 5900.00    1.75817   1.89302    0.000
 5901.00    1.69556   1.89319    0.002
 5902.00    1.71375   1.89321    0.002
 5903.00    1.73107   1.89324    0.002
 5904.00    1.72379   1.89333    0.002
 5905.00    1.72377   1.89328    0.002
 5906.00    1.82710   1.89334    0.002
 5907.00    1.93746   1.89330    0.002
 5908.00    2.11331   1.89323    0.002
 5909.00    2.25673   1.89323    0.002
 5910.00    2.17986   1.89311    0.002
 5911.00    2.10948   1.89308    0.002
 5912.00    2.07327   1.89299    0.002
 5913.00    2.03415   1.89283    0.002
 5914.00    1.98269   1.89283    0.002
 5915.00    1.92786   1.89267    0.002
 5916.00    1.86125   1.89259    0.002
 5917.00    1.82377   1.89250    0.002
 5918.00    1.87199   1.89233    0.002
 5919.00    1.87680   1.89231    0.002
 5920.00    1.77280   1.89215    0.002
 5921.00    1.68493   1.89202    0.002
 5922.00    1.63191   1.89197    0.002
 5923.00    1.64144   1.89180    0.002
 5924.00    1.76826   1.89172    0.002
 5925.00    1.85745   1.89161    0.002
 5926.00    1.88505   1.89143    0.002
 5927.00    1.82035   1.89137    0.002
 5928.00    1.62314   1.89123    0.002
 5929.00    1.49245   1.89108    0.002
 5930.00    1.44576   1.89100    0.002
 5931.00    1.45398   1.89082    0.002
 5932.00    1.52330   1.89072    0.002
 5933.00    1.55264   1.89062    0.002
 5934.00    1.54274   1.89042    0.002
 5935.00    1.59660   1.89033    0.002
 5936.00    1.70565   1.89022    0.002
 5937.00    1.77799   1.89002    0.002
 5938.00    1.82234   1.88994    0.002
 5939.00    1.82333   1.88979    0.002
 5940.00    1.79527   1.88958    0.002
 5941.00    1.67417   1.88953    0.002
 5942.00    1.49845   1.88933    0.002
 5943.00    1.46701   1.88914    0.002
 5944.00    1.50942   1.88909    0.002
 5945.00    1.64663   1.88885    0.002
 5946.00    1.82588   1.88873    0.002
 5947.00    1.95588   1.88863    0.002
 5948.00    2.06712   1.88839    0.002
 5949.00    2.10821   1.88832    0.002
 5950.00    2.12661   1.88817    0.002
 5951.00    2.05176   1.88803    0.002
 5952.00    1.95165   1.88792    0.002
 5953.00    1.89581   1.88780    0.002
 5954.00    1.84980   1.88775    0.002
 5955.00    1.83876   1.88760    0.002
 5956.00    1.83390   1.88755    0.002
 5957.00    1.89256   1.88748    0.002
 5958.00    1.95979   1.88738    0.002
 5959.00    2.00631   1.88742    0.002
 5960.00    2.05084   1.88725    0.002
 5961.00    1.96334   1.88723    0.002
 5962.00    1.86797   1.88724    0.002
 5963.00    1.85637   1.88703    0.002
 5964.00    1.84688   1.88705    0.002
 5965.00    1.83381   1.88690    0.002
 5966.00    1.82224   1.88675    0.002
 5967.00    1.84891   1.88673    0.002
 5968.00    1.87771   1.88643    0.002
 5969.00    1.93541   1.88633    0.002
 5970.00    1.98674   1.88617    0.002
 5971.00    1.98120   1.88587    0.002
 5972.00    1.94636   1.88582    0.002
 5973.00    1.71873   1.88553    0.002
 5974.00    1.53722   1.88530    0.002
 5975.00    1.59210   1.88527    0.002
 5976.00    1.64805   1.88496    0.002
 5977.00    1.70838   1.88485    0.002
 5978.00    1.72859   1.88477    0.002
 5979.00    1.61140   1.88453    0.002
 5980.00    1.55849   1.88459    0.002
 5981.00    1.69117   1.88444    0.002
 5982.00    1.82835   1.88431    0.002
 5983.00    1.97660   1.88445    0.002
 5984.00    2.09644   1.88426    0.002
 5985.00    2.15590   1.88425    0.002
 5986.00    2.20750   1.88430    0.002
 5987.00    2.24462   1.88412    0.002
 5988.00    2.27088   1.88418    0.002
 5989.00    2.27963   1.88411    0.002
 5990.00    2.20473   1.88398    0.002
 5991.00    2.01145   1.88399    0.002
 5992.00    1.90646   1.88382    0.002
 5993.00    1.91139   1.88372    0.002
 5994.00    1.93440   1.88366    0.002
 5995.00    1.97724   1.88346    0.002
 5996.00    1.92383   1.88334    0.002
 5997.00    1.77728   1.88322    0.002
 5998.00    1.64031   1.88303    0.002
 5999.00    1.51152   1.88290    0.002
 6000.00    1.48137   1.88275    0.002
 6001.00    1.52535   1.88257    0.002
 6002.00    1.62323   1.88247    0.002
 6003.00    1.75670   1.88232    0.002
 6004.00    1.90731   1.88218    0.002
 6005.00    2.06781   1.88207    0.002
 6006.00    2.06272   1.88197    0.002
 6007.00    1.97420   1.88189    0.002
 6008.00    1.90895   1.88178    0.002
 6009.00    1.85385   1.88172    0.002
 6010.00    1.91290   1.88166    0.002
 6011.00    2.01468   1.88157    0.002
 6012.00    1.91094   1.88154    0.002
 6013.00    1.74197   1.88145    0.002
 6014.00    1.60392   1.88141    0.002
 6015.00    1.47408   1.88134    0.002
 6016.00    1.70272   1.88122    0.002
 6017.00    2.00910   1.88118    0.002
 6018.00    2.05360   1.88105    0.002
 6019.00    2.05301   1.88093    0.002
 6020.00    1.88231   1.88082    0.002
 6021.00    1.68940   1.88066    0.002
 6022.00    1.69923   1.88054    0.002
 6023.00    1.72768   1.88033    0.002
 6024.00    1.69968   1.88016    0.002
 6025.00    1.66854   1.88001    0.002
 6026.00    1.67651   1.87974    0.002
 6027.00    1.68677   1.87960    0.002
 6028.00    1.83968   1.87937    0.002
 6029.00    1.98977   1.87914    0.002
 6030.00    2.07421   1.87900    0.002
 6031.00    2.15837   1.87872    0.002
 6032.00    2.23893   1.87859    0.002
 6033.00    2.29991   1.87846    0.002
 6034.00    2.19221   1.87818    0.002
 6035.00    2.07410   1.87812    0.002
 6036.00    1.88946   1.87800    0.002
 6037.00    1.74256   1.87780    0.002
 6038.00    1.78425   1.87778    0.002
 6039.00    1.82020   1.87769    0.002
 6040.00    1.83296   1.87758    0.002
 6041.00    1.84633   1.87757    0.002
 6042.00    1.86179   1.87749    0.002
 6043.00    1.85529   1.87742    0.002
 6044.00    1.78661   1.87744    0.002
 6045.00    1.76052   1.87736    0.002
 6046.00    1.83762   1.87727    0.002
 6047.00    1.89173   1.87730    0.002
 6048.00    1.89775   1.87721    0.002
 6049.00    1.87759   1.87711    0.002
 6050.00    1.80984   1.87710    0.002
 6051.00    1.76348   1.87698    0.002
 6052.00    1.75111   1.87688    0.002
 6053.00    1.72337   1.87684    0.002
 6054.00    1.67421   1.87661    0.002
 6055.00    1.71215   1.87653    0.002
 6056.00    1.85700   1.87643    0.002
 6057.00    1.93478   1.87616    0.002
 6058.00    1.93999   1.87607    0.002
 6059.00    1.87493   1.87584    0.002
 6060.00    1.74281   1.87560    0.002
 6061.00    1.62211   1.87546    0.002
 6062.00    1.51102   1.87513    0.002
 6063.00    1.50957   1.87493    0.002
 6064.00    1.58936   1.87470    0.002
 6065.00    1.62851   1.87437    0.002
 6066.00    1.64121   1.87422    0.002
 6067.00    1.65592   1.87389    0.002
 6068.00    1.67176   1.87367    0.002
 6069.00    1.69690   1.87350    0.002
 6070.00    1.72666   1.87318    0.002
 6071.00    1.68685   1.87309    0.002
 6072.00    1.61722   1.87288    0.002
 6073.00    1.61771   1.87270    0.002
 6074.00    1.64397   1.87266    0.002
 6075.00    1.67068   1.87248    0.002
 6076.00    1.69752   1.87245    0.002
 6077.00    1.64480   1.87243    0.002
 6078.00    1.57144   1.87231    0.002
 6079.00    1.55289   1.87234    0.002
 6080.00    1.54594   1.87233    0.002
 6081.00    1.50217   1.87228    0.002
 6082.00    1.45225   1.87230    0.002
 6083.00    1.48202   1.87229    0.002
 6084.00    1.52184   1.87229    0.002
 6085.00    1.73047   1.87228    0.002
 6086.00    1.95390   1.87223    0.002
 6087.00    1.92233   1.87223    0.002
 6088.00    1.87755   1.87221    0.002
 6089.00    1.66296   1.87209    0.002
 6090.00    1.44912   1.87211    0.002
 6091.00    1.51619   1.87202    0.002
 6092.00    1.58128   1.87186    0.002
 6093.00    1.60396   1.87188    0.002
 6094.00    1.62166   1.87171    0.002
 6095.00    1.57898   1.87153    0.002
 6096.00    1.54244   1.87153    0.002
 6097.00    1.55685   1.87127    0.002
 6098.00    1.57633   1.87110    0.002
 6099.00    1.62717   1.87101    0.002
 6100.00    1.68659   1.87067    0.002
 6101.00    1.78780   1.87054    0.002
 6102.00    1.87416   1.87035    0.002
 6103.00    1.90170   1.86994    0.002
 6104.00    1.89966   1.86983    0.002
 6105.00    1.80023   1.86952    0.002
 6106.00    1.69694   1.86913    0.002
 6107.00    1.58286   1.86899    0.002
 6108.00    1.50770   1.86859    0.002
 6109.00    1.52526   1.86829    0.002
 6110.00    1.53587   1.86808    0.002
 6111.00    1.53222   1.86767    0.002
 6112.00    1.55506   1.86749    0.002
 6113.00    1.62532   1.86719    0.002
 6114.00    1.66811   1.86693    0.002
 6115.00    1.66788   1.86680    0.002
 6116.00    1.65614   1.86650    0.002
 6117.00    1.62859   1.86643    0.002
 6118.00    1.61118   1.86632    0.002
 6119.00    1.60605   1.86612    0.002
 6120.00    1.67754   1.86623    0.002
 6121.00    1.83074   1.86607    0.002
 6122.00    1.88447   1.86603    0.002
 6123.00    1.84462   1.86626    0.002
 6124.00    1.73726   1.86602    0.002
 6125.00    1.57391   1.86615    0.002
 6126.00    1.53765   1.86633    0.002
 6127.00    1.59418   1.86611    0.002
 6128.00    1.66912   1.86632    0.002
 6129.00    1.75586   1.86637    0.002
 6130.00    1.80165   1.86617    0.002
 6131.00    1.82447   1.86641    0.002
 6132.00    1.85222   1.86629    0.002
 6133.00    1.88239   1.86613    0.002
 6134.00    1.92677   1.86631    0.002
 6135.00    1.97715   1.86609    0.002
 6136.00    1.98064   1.86600    0.002
 6137.00    1.96721   1.86605    0.002
 6138.00    1.92796   1.86579    0.002
 6139.00    1.88082   1.86576    0.002
 6140.00    1.76999   1.86567    0.002
 6141.00    1.64299   1.86541    0.002
 6142.00    1.54526   1.86541    0.002
 6143.00    1.45357   1.86519    0.002
 6144.00    1.54230   1.86499    0.002
 6145.00    1.66035   1.86491    0.002
 6146.00    1.79484   1.86461    0.002
 6147.00    1.93133   1.86450    0.002
 6148.00    1.91823   1.86428    0.002
 6149.00    1.89264   1.86397    0.002
 6150.00    1.75308   1.86384    0.002
 6151.00    1.60805   1.86354    0.002
 6152.00    1.65851   1.86324    0.002
 6153.00    1.71391   1.86303    0.002
 6154.00    1.89000   1.86269    0.002
 6155.00    2.06004   1.86239    0.002
 6156.00    2.11102   1.86208    0.002
 6157.00    2.12958   1.86172    0.002
 6158.00    1.77400   1.86137    0.002
 6159.00    1.43482   1.86102    0.002
 6160.00    1.22684   1.86066    0.002
 6161.00    1.08525   1.86023    0.002
 6162.00    1.34337   1.85993    0.002
 6163.00    1.55892   1.85955    0.002
 6164.00    1.57213   1.85917    0.002
 6165.00    1.57430   1.85890    0.002
 6166.00    1.53372   1.85857    0.002
 6167.00    1.49783   1.85835    0.002
 6168.00    1.47708   1.85812    0.002
 6169.00    1.44638   1.85791    0.002
 6170.00    1.38847   1.85785    0.002
 6171.00    1.37276   1.85774    0.002
 6172.00    1.45584   1.85771    0.002
 6173.00    1.54489   1.85770    0.002
 6174.00    1.64605   1.85775    0.002
 6175.00    1.66044   1.85790    0.002
 6176.00    1.52192   1.85783    0.002
 6177.00    1.41229   1.85803    0.002
 6178.00    1.34724   1.85824    0.002
 6179.00    1.33815   1.85813    0.002
 6180.00    1.40484   1.85838    0.002
 6181.00    1.48998   1.85854    0.002
 6182.00    1.59713   1.85845    0.002
 6183.00    1.73085   1.85867    0.002
 6184.00    1.89253   1.85868    0.002
 6185.00    1.95697   1.85864    0.002
 6186.00    1.93121   1.85880    0.002
 6187.00    1.87527   1.85868    0.002
 6188.00    1.79466   1.85867    0.002
 6189.00    1.75775   1.85872    0.002
 6190.00    1.75231   1.85858    0.002
 6191.00    1.76243   1.85854    0.002
 6192.00    1.78239   1.85849    0.002
 6193.00    2.16793   1.85842    0.002
 6194.00    2.75535   1.85827    0.002
 6195.00    3.92118   1.85819    0.002
 6196.00    5.36475   1.85816   -2.000
 6197.00    5.79167   1.85793   -2.000
 6198.00    5.79715   1.85788   -2.000
 6199.00    4.33668   1.85781   -2.000
 6200.00    2.35660   1.85756   -2.000
 6201.00    0.64639   1.85756   -2.000
 6202.00   -0.98306   1.85742   -2.000
 6203.00   -0.78828   1.85719   -2.000
 6204.00   -0.14038   1.85719   -2.000
 6205.00    0.45033   1.85700   -2.000
 6206.00    1.02953   1.85679   -2.000
 6207.00    1.12901   1.85676   -2.000
 6208.00    1.15281   1.85649    0.002
 6209.00    1.15716   1.85634    0.002
 6210.00    1.15924   1.85623    0.002
 6211.00    1.35749   1.85590    0.002
 6212.00    1.57132   1.85578    0.002
 6213.00    1.71806   1.85554    0.002
 6214.00    1.86184   1.85522    0.002
 6215.00    1.90974   1.85503    0.002
 6216.00    1.95675   1.85469    0.002
 6217.00    2.01168   1.85437    0.002
 6218.00    2.05951   1.85408    0.002
 6219.00    1.97767   1.85364    0.002
 6220.00    1.90068   1.85330    0.002
 6221.00    1.87711   1.85289    0.002
 6222.00    1.85048   1.85240    0.002
 6223.00    1.80016   1.85206    0.002
 6224.00    1.75874   1.85152    0.002
 6225.00    1.76941   1.85109    0.002
 6226.00    1.78021   1.85073    0.002
 6227.00    1.79164   1.85015    0.002
 6228.00    1.78969   1.84986    0.002
 6229.00    1.73700   1.84954    0.002
 6230.00    1.70598   1.84903    0.002
 6231.00    1.74356   1.84891    0.002
 6232.00    1.80374   1.84870    0.002
 6233.00    1.92460   1.84837    0.002
 6234.00    1.98721   1.84843    0.002
 6235.00    1.91571   1.84834    0.002
 6236.00    1.81880   1.84825    0.002
 6237.00    1.67124   1.84845    0.002
 6238.00    1.54652   1.84846    0.002
 6239.00    1.46144   1.84856    0.002
 6240.00    1.39142   1.84880    0.002
 6241.00    1.34427   1.84890    0.002
 6242.00    1.35658   1.84906    0.002
 6243.00    1.44828   1.84927    0.002
 6244.00    1.58967   1.84943    0.002
 6245.00    1.78950   1.84954    0.002
 6246.00    1.93261   1.84969    0.002
 6247.00    2.01692   1.84986    0.002
 6248.00    1.98636   1.84983    0.002
 6249.00    1.85074   1.84997    0.002
 6250.00    1.73961   1.85006    0.002
 6251.00    1.64822   1.84993    0.002
 6252.00    1.59956   1.85004    0.002
 6253.00    1.58120   1.85002    0.002
 6254.00    1.60302   1.84987    0.002
 6255.00    1.64984   1.84989    0.002
 6256.00    1.84003   1.84981    0.002
 6257.00    2.10818   1.84967    0.002
 6258.00    2.56793   1.84963    0.002
 6259.00    3.11821   1.84950    0.002
 6260.00    3.19781   1.84936    0.003
 6261.00    3.08562   1.84929    0.003
 6262.00    2.39479   1.84910    0.003
 6263.00    1.50259   1.84902    0.003
 6264.00    1.09749   1.84888    0.003
 6265.00    0.83526   1.84867    0.003
 6266.00    1.07436   1.84862    0.003
 6267.00    1.43524   1.84843    0.002
 6268.00    1.63735   1.84823    0.002
 6269.00    1.80829   1.84818    0.002
 6270.00    1.85386   1.84798    0.002
 6271.00    1.88026   1.84776    0.002
 6272.00    1.87193   1.84771    0.002
 6273.00    1.85970   1.84751    0.002
 6274.00    1.79536   1.84728    0.002
 6275.00    1.72709   1.84723    0.002
 6276.00    1.65646   1.84699    0.002
 6277.00    1.58572   1.84682    0.002
 6278.00    1.52000   1.84673    0.002
 6279.00    1.45584   1.84648    0.002
 6280.00    1.45366   1.84635    0.000
 6281.00    1.45731   1.84620    0.000
 6282.00    1.56034   1.84601    0.000
 6283.00    1.66165   1.84588    0.000
 6284.00    1.74501   1.84566    0.000
 6285.00    1.81800   1.84554    0.000
 6286.00    1.81366   1.84536    0.000
 6287.00    1.79199   1.84512    0.000
 6288.00    1.67173   1.84499    0.000
 6289.00    1.57265   1.84474    0.000
 6290.00    1.56953   1.84449    0.000
 6291.00    1.57913   1.84431    0.000
 6292.00    1.63591   1.84395    0.000
 6293.00    1.67904   1.84367    0.000
 6294.00    1.67977   1.84340    0.000
 6295.00    1.66774   1.84293    0.000
 6296.00    1.62208   1.84257    0.000
 6297.00    1.56427   1.84221    0.000
 6298.00    1.47893   1.84167    0.000
 6299.00    1.44508   1.84120    0.000
 6300.00    1.51223   1.84080    0.000
 6301.00    1.55547   1.84022    0.000
 6302.00    1.55784   1.83968    0.000
 6303.00    1.59549   1.83930    0.000
 6304.00    1.68598   1.83876    0.000
 6305.00    1.73919   1.83827    0.000
 6306.00    1.74335   1.83799    0.000
 6307.00    1.69424   1.83757    0.000
 6308.00    1.58336   1.83723    0.000
 6309.00    1.49342   1.83715    0.000
 6310.00    1.42487   1.83691    0.000
 6311.00    1.39614   1.83680    0.000
 6312.00    1.40332   1.83694    0.000
 6313.00    1.42551   1.83688    0.000
 6314.00    1.45962   1.83699    0.000
 6315.00    1.48426   1.83732    0.000
 6316.00    1.50227   1.83737    0.000
 6317.00    1.55736   1.83764    0.000
 6318.00    1.63516   1.83806    0.000
 6319.00    1.66374   1.83809    0.000
 6320.00    1.66596   1.83845    0.000
 6321.00    1.53722   1.83884    0.002
 6322.00    1.34761   1.83878    0.002
 6323.00    1.27205   1.83914    0.002
 6324.00    1.24218   1.83937    0.002
 6325.00    1.27552   1.83928    0.002
 6326.00    1.33045   1.83951    0.002
 6327.00    1.33782   1.83959    0.002
 6328.00    1.33153   1.83947    0.002
 6329.00    1.34467   1.83951    0.002
 6330.00    1.36242   1.83951    0.002
 6331.00    1.39673   1.83931    0.002
 6332.00    1.43421   1.83918    0.002
 6333.00    1.45450   1.83914    0.002
 6334.00    1.47223   1.83883    0.002
 6335.00    1.42564   1.83861    0.002
 6336.00    1.37208   1.83847    0.002
 6337.00    1.43799   1.83812    0.002
 6338.00    1.51241   1.83787    0.002
 6339.00    1.51301   1.83762    0.002
 6340.00    1.51092   1.83730    0.002
 6341.00    1.46615   1.83708    0.002
 6342.00    1.42359   1.83677    0.002
 6343.00    1.46449   1.83653    0.002
 6344.00    1.49806   1.83638    0.002
 6345.00    1.41457   1.83613    0.002
 6346.00    1.33830   1.83598    0.002
 6347.00    1.33461   1.83589    0.002
 6348.00    1.34041   1.83582    0.002
 6349.00    1.41461   1.83575    0.002
 6350.00    1.49284   1.83564    0.002
 6351.00    1.59333   1.83580    0.002
 6352.00    1.68221   1.83577    0.002
 6353.00    1.71977   1.83563    0.002
 6354.00    1.73986   1.83580    0.002
 6355.00    1.69644   1.83573    0.002
 6356.00    1.66783   1.83559    0.002
 6357.00    1.68434   1.83569    0.002
 6358.00    1.70875   1.83552    0.002
 6359.00    1.75365   1.83537    0.002
 6360.00    1.73205   1.83536    0.002
 6361.00    1.56232   1.83506    0.002
 6362.00    1.42920   1.83490    0.002
 6363.00    1.36677   1.83479    0.002
 6364.00    1.34959   1.83439    0.002
 6365.00    1.40860   1.83425    0.002
 6366.00    1.46663   1.83404    0.002
 6367.00    1.52320   1.83365    0.002
 6368.00    1.53001   1.83353    0.002
 6369.00    1.47227   1.83326    0.002
 6370.00    1.39888   1.83294    0.002
 6371.00    1.30761   1.83284    0.002
 6372.00    1.33813   1.83259    0.002
 6373.00    1.49140   1.83237    0.002
 6374.00    1.60294   1.83223    0.002
 6375.00    1.67737   1.83204    0.002
 6376.00    1.72518   1.83197    0.002
 6377.00    1.75214   1.83182    0.002
 6378.00    1.72335   1.83158    0.002
 6379.00    1.65616   1.83161    0.002
 6380.00    1.52011   1.83146    0.002
 6381.00    1.34247   1.83118    0.002
 6382.00    1.20174   1.83127    0.002
 6383.00    1.08047   1.83107    0.002
 6384.00    1.06497   1.83076    0.002
 6385.00    1.09784   1.83086    0.002
 6386.00    1.17842   1.83055    0.002
 6387.00    1.27778   1.83021    0.002
 6388.00    1.44594   1.83015    0.002
 6389.00    1.63715   1.82974    0.002
 6390.00    1.74393   1.82931    0.002
 6391.00    1.82693   1.82906    0.002
 6392.00    1.73776   1.82854    0.002
 6393.00    1.60864   1.82796    0.002
 6394.00    1.46875   1.82755    0.002
 6395.00    1.32686   1.82695    0.002
 6396.00    1.19977   1.82621    0.002
 6397.00    1.07482   1.82575    0.002
 6398.00    1.14472   1.82515    0.002
 6399.00    1.23490   1.82435    0.002
 6400.00    1.24841   1.82398    0.002
 6401.00    1.25677   1.82351    0.002
 6402.00    1.20595   1.82278    0.002
 6403.00    1.15320   1.82266    0.002
 6404.00    1.24561   1.82240    0.002
 6405.00    1.33778   1.82195    0.002
 6406.00    1.42153   1.82211    0.002
 6407.00    1.49926   1.82212    0.002
 6408.00    1.48658   1.82205    0.002
 6409.00    1.47872   1.82241    0.002
 6410.00    1.51719   1.82267    0.002
 6411.00    1.54147   1.82291    0.002
 6412.00    1.46656   1.82334    0.002
 6413.00    1.39593   1.82374    0.002
 6414.00    1.34838   1.82413    0.002
 6415.00    1.32065   1.82452    0.002
 6416.00    1.37853   1.82490    0.002
 6417.00    1.40966   1.82531    0.002
 6418.00    1.34558   1.82559    0.002
 6419.00    1.27380   1.82588    0.002
 6420.00    1.17900   1.82618    0.002
 6421.00    1.13376   1.82635    0.002
 6422.00    1.21467   1.82653    0.002
 6423.00    1.29835   1.82669    0.002
 6424.00    1.38807   1.82676    0.002
 6425.00    1.42505   1.82683    0.002
 6426.00    1.36179   1.82689    0.002
 6427.00    1.33532   1.82687    0.002
 6428.00    1.36987   1.82686    0.002
 6429.00    1.36508   1.82683    0.002
 6430.00    1.30312   1.82674    0.002
 6431.00    1.25525   1.82668    0.002
 6432.00    1.22542   1.82662    0.002
 6433.00    1.21982   1.82646    0.002
 6434.00    1.24152   1.82637    0.002
 6435.00    1.27533   1.82631    0.002
 6436.00    1.32119   1.82607    0.002
 6437.00    1.32923   1.82598    0.002
 6438.00    1.30414   1.82592    0.002
 6439.00    1.27294   1.82563    0.002
 6440.00    1.23703   1.82555    0.002
 6441.00    1.27944   1.82545    0.002
 6442.00    1.37502   1.82518    0.002
 6443.00    1.47103   1.82509    0.002
 6444.00    1.56730   1.82493    0.002
 6445.00    1.63035   1.82472    0.002
 6446.00    1.67615   1.82457    0.002
 6447.00    1.53805   1.82441    0.002
 6448.00    1.31721   1.82424    0.002
 6449.00    1.16249   1.82401    0.002
 6450.00    1.03334   1.82390    0.002
 6451.00    0.98016   1.82374    0.002
 6452.00    0.95197   1.82347    0.002
 6453.00    1.09457   1.82341    0.002
 6454.00    1.28428   1.82324    0.002
 6455.00    1.35742   1.82300    0.002
 6456.00    1.40413   1.82295    0.002
 6457.00    1.33426   1.82278    0.002
 6458.00    1.24325   1.82259    0.002
 6459.00    1.21429   1.82252    0.002
 6460.00    1.19396   1.82237    0.002
 6461.00    1.27519   1.82223    0.002
 6462.00    1.36655   1.82209    0.002
 6463.00    1.33573   1.82198    0.002
 6464.00    1.29719   1.82186    0.002
 6465.00    1.32091   1.82166    0.002
 6466.00    1.34623   1.82158    0.002
 6467.00    1.30942   1.82145    0.002
 6468.00    1.27256   1.82120    0.002
 6469.00    1.23431   1.82114    0.002
 6470.00    1.19333   1.82098    0.002
 6471.00    1.11362   1.82072    0.002
 6472.00    1.05389   1.82066    0.002
 6473.00    1.17934   1.82047    0.002
 6474.00    1.28212   1.82021    0.002
 6475.00    1.23152   1.82014    0.002
 6476.00    1.19798   1.81995    0.002
 6477.00    1.25386   1.81968    0.002
 6478.00    1.30871   1.81960    0.002
 6479.00    1.35918   1.81943    0.002
 6480.00    1.41156   1.81917    0.002
 6481.00    1.47055   1.81907    0.002
 6482.00    1.54742   1.81891    0.002
 6483.00    1.67672   1.81864    0.002
 6484.00    1.77706   1.81851    0.002
 6485.00    1.80496   1.81835    0.002
 6486.00    1.80859   1.81809    0.002
 6487.00    1.75992   1.81792    0.002
 6488.00    1.69310   1.81774    0.002
 6489.00    1.59230   1.81748    0.002
 6490.00    1.48048   1.81727    0.003
 6491.00    1.35069   1.81706    0.007
 6492.00    1.24584   1.81681   -1.000
 6493.00    1.17673   1.81655   -1.000
 6494.00    1.15226   1.81633   -1.000
 6495.00    1.18404   1.81611   -1.000
 6496.00    1.18826   1.81580   -1.000
 6497.00    1.16185   1.81555   -1.000
 6498.00    1.14568   1.81537   -1.000
 6499.00    1.13954   1.81500   -1.000
 6500.00    1.12039   1.81474   -1.000
 6501.00    1.09002   1.81457   -1.000
 6502.00    1.04426   1.81412   -1.000
 6503.00    0.98681   1.81383   -1.000
 6504.00    1.00633   1.81363    0.007
 6505.00    1.07736   1.81306    0.003
 6506.00    1.19396   1.81270    0.002
 6507.00    1.33726   1.81240    0.002
 6508.00    1.44957   1.81169    0.002
 6509.00    1.54605   1.81117    0.002
 6510.00    1.55174   1.81071    0.002
 6511.00    1.51727   1.80982    0.002
 6512.00    1.49507   1.80911    0.002
 6513.00    1.47755   1.80843    0.002
 6514.00    1.44109   1.80734    0.002
 6515.00    1.39852   1.80646    0.002
 6516.00    1.38282   1.80554    0.002
 6517.00    1.37439   1.80431    0.002
 6518.00    1.36849   1.80333    0.002
 6519.00    1.36316   1.80227    0.002
 6520.00    1.30208   1.80101    0.002
 6521.00    1.23116   1.80005    0.002
 6522.00    1.33122   1.79899    0.002
 6523.00    1.45428   1.79786    0.002
 6524.00    1.56410   1.79703    0.002
 6525.00    1.67264   1.79609    0.002
 6526.00    1.59580   1.79518    0.002
 6527.00    1.50800   1.79447    0.002
 6528.00    1.47417   1.79368    0.000
 6529.00    1.44195   1.79292    0.000
 6530.00    1.44813   1.79218    0.000
 6531.00    1.45733   1.79140    0.000
 6532.00    1.54283   1.79049    0.000
 6533.00    1.61766   1.78941    0.000
 6534.00    1.54984   1.78824    0.000
 6535.00    1.47979   1.78668    0.000
 6536.00    1.38986   1.78481    0.000
 6537.00    1.30589   1.78263    0.000
 6538.00    1.26105   1.77984    0.000
 6539.00    1.24035   1.77649    0.000
 6540.00    1.34303   1.77251    0.000
 6541.00    1.44508   1.76770    0.000
 6542.00    1.54450   1.76196    0.000
 6543.00    1.62672   1.75522    0.000
 6544.00    1.65020   1.74743    0.000
 6545.00    1.67275   1.73827    0.000
 6546.00    1.69259   1.72787    0.000
 6547.00    1.65742   1.71621    0.000
 6548.00    1.48699   1.70296    0.000
 6549.00    1.33031   1.68863    0.000
 6550.00    1.20279   1.67307    0.000
 6551.00    1.10212   1.65627    0.000
 6552.00    1.05091   1.63920    0.000
 6553.00    1.02451   1.62137    0.000
 6554.00    1.03806   1.60357    0.000
 6555.00    1.14786   1.58683    0.000
 6556.00    1.39359   1.57037    0.000
 6557.00    1.69719   1.55591    0.000
 6558.00    2.07270   1.54391    0.000
 6559.00    2.36158   1.53339    0.000
 6560.00    2.55560   1.52677    0.000
 6561.00    2.49674   1.52331    0.000
 6562.00    2.19360   1.52212    0.000
 6563.00    1.97407   1.52572    0.000
 6564.00    1.82577   1.53192    0.000
 6565.00    1.73779   1.54043    0.000
 6566.00    1.69507   1.55306    0.000
 6567.00    1.60210   1.56691    0.000
 6568.00    1.47601   1.58225    0.000
 6569.00    1.29268   1.59963    0.000
 6570.00    1.07631   1.61672    0.000
 6571.00    0.94561   1.63417    0.000
 6572.00    0.85800   1.65163    0.000
 6573.00    0.92081   1.66782    0.000
 6574.00    1.04906   1.68340    0.000
 6575.00    1.17107   1.69783    0.000
 6576.00    1.29073   1.71078    0.000
 6577.00    1.46628   1.72265    0.000
 6578.00    1.65952   1.73306    0.000
 6579.00    1.75442   1.74229    0.000
 6580.00    1.82331   1.75037    0.000
 6581.00    1.81141   1.75729    0.000
 6582.00    1.78206   1.76342    0.000
 6583.00    1.67627   1.76856    0.000
 6584.00    1.55736   1.77302    0.000
 6585.00    1.41362   1.77697    0.000
 6586.00    1.26664   1.78016    0.000
 6587.00    1.10136   1.78309    0.000
 6588.00    0.93442   1.78560    0.000
 6589.00    1.05447   1.78759    0.000
 6590.00    1.19038   1.78960    0.000
 6591.00    1.29991   1.79120    0.000
 6592.00    1.40711   1.79245    0.000
 6593.00    1.34575   1.79386    0.000
 6594.00    1.28426   1.79491    0.000
 6595.00    1.21990   1.79569    0.000
 6596.00    1.16019   1.79669    0.000
 6597.00    1.15929   1.79743    0.000
 6598.00    1.17187   1.79789    0.000
 6599.00    1.30001   1.79859    0.000
 6600.00    1.40999   1.79915    0.000
 6601.00    1.40444   1.79942    0.000
 6602.00    1.37460   1.79988    0.000
 6603.00    1.22378   1.80032    0.000
 6604.00    1.11037   1.80050    0.000
 6605.00    1.14803   1.80079    0.000
 6606.00    1.20370   1.80112    0.000
 6607.00    1.31970   1.80128    0.000
 6608.00    1.40636   1.80143    0.000
 6609.00    1.41005   1.80167    0.002
 6610.00    1.43564   1.80183    0.002
 6611.00    1.51413   1.80190    0.002
 6612.00    1.58106   1.80206    0.002
 6613.00    1.62386   1.80219    0.002
 6614.00    1.57492   1.80224    0.002
 6615.00    1.35958   1.80233    0.002
 6616.00    1.24127   1.80239    0.002
 6617.00    1.27685   1.80245    0.002
 6618.00    1.30022   1.80250    0.002
 6619.00    1.30661   1.80247    0.002
 6620.00    1.29971   1.80254    0.002
 6621.00    1.27653   1.80257    0.002
 6622.00    1.29799   1.80246    0.002
 6623.00    1.36765   1.80254    0.002
 6624.00    1.37041   1.80257    0.002
 6625.00    1.30943   1.80240    0.002
 6626.00    1.28121   1.80248    0.002
 6627.00    1.28050   1.80252    0.002
 6628.00    1.32242   1.80233    0.002
 6629.00    1.39586   1.80240    0.002
 6630.00    1.33465   1.80245    0.002
 6631.00    1.18598   1.80227    0.002
 6632.00    1.18734   1.80233    0.002
 6633.00    1.27399   1.80238    0.002
 6634.00    1.40694   1.80223    0.002
 6635.00    1.56279   1.80226    0.002
 6636.00    1.57984   1.80230    0.002
 6637.00    1.53748   1.80217    0.002
 6638.00    1.56857   1.80219    0.002
 6639.00    1.62659   1.80220    0.002
 6640.00    1.59553   1.80208    0.002
 6641.00    1.53679   1.80210    0.002
 6642.00    1.46547   1.80206    0.002
 6643.00    1.39090   1.80193    0.002
 6644.00    1.48237   1.80198    0.002
 6645.00    1.60888   1.80187    0.002
 6646.00    1.57435   1.80172    0.002
 6647.00    1.51297   1.80180    0.002
 6648.00    1.38617   1.80163    0.002
 6649.00    1.25115   1.80145    0.002
 6650.00    1.18483   1.80154    0.002
 6651.00    1.12449   1.80131    0.002
 6652.00    1.09228   1.80105    0.002
 6653.00    1.06150   1.80111    0.002
 6654.00    1.22594   1.80085    0.002
 6655.00    1.39568   1.80043    0.003
 6656.00    1.69458   1.80037    0.003
 6657.00    1.97744   1.80004    0.003
 6658.00    1.92185   1.79935    0.003
 6659.00    1.86464   1.79909    0.003
 6660.00    1.78770   1.79857    0.003
 6661.00    1.69326   1.79743    0.003
 6662.00    1.45428   1.79686    0.002
 6663.00    1.23871   1.79599    0.002
 6664.00    1.16777   1.79422    0.002
 6665.00    1.08851   1.79329    0.002
 6666.00    0.96881   1.79192    0.002
 6667.00    0.87718   1.78944    0.002
 6668.00    0.89635   1.78823    0.002
 6669.00    0.96242   1.78637    0.002
 6670.00    1.18251   1.78341    0.002
 6671.00    1.34460   1.78219    0.002
 6672.00    1.34563   1.78011    0.002
 6673.00    1.33074   1.77723    0.002
 6674.00    1.27802   1.77643    0.002
 6675.00    1.23397   1.77463    0.002
 6676.00    1.20774   1.77254    0.002
 6677.00    1.15616   1.77262    0.002
 6678.00    1.05930   1.77159    0.002
 6679.00    0.98655   1.77080    0.002
 6680.00    0.95148   1.77195    0.002
 6681.00    0.91679   1.77191    0.002
 6682.00    0.88262   1.77244    0.002
 6683.00    0.88690   1.77447    0.002
 6684.00    0.93761   1.77528    0.002
 6685.00    1.09141   1.77671    0.002
 6686.00    1.35496   1.77915    0.002
 6687.00    1.43527   1.78040    0.002
 6688.00    1.34349   1.78212    0.002
 6689.00    1.38531   1.78447    0.002
 6690.00    1.53776   1.78572    0.002
 6691.00    1.55633   1.78724    0.002
 6692.00    1.47733   1.78916    0.002
 6693.00    1.32458   1.79011    0.002
 6694.00    1.12464   1.79121    0.002
 6695.00    1.09989   1.79260    0.002
 6696.00    1.17322   1.79317    0.000
 6697.00    1.14370   1.79385    0.000
 6698.00    1.06410   1.79476    0.000
 6699.00    1.04772   1.79500    0.000
 6700.00    1.05794   1.79538    0.000
 6701.00    1.26629   1.79594    0.000
 6702.00    1.54598   1.79596    0.000
 6703.00    1.45725   1.79616    0.000
 6704.00    1.25633   1.79649    0.000
 6705.00    1.22702   1.79636    0.000
 6706.00    1.24117   1.79651    0.000
 6707.00    1.30170   1.79666    0.000
 6708.00    1.37178   1.79645    0.000
 6709.00    1.32413   1.79660    0.000
 6710.00    1.25741   1.79662    0.000
 6711.00    1.42482   1.79637    0.000
 6712.00    1.62058   1.79653    0.000
 6713.00    1.76682   1.79645    0.000
 6714.00    1.90894   1.79618    0.000
 6715.00    1.65761   1.79634    0.000
 6716.00    1.38764   1.79621    0.000
 6717.00    1.33797   1.79593    0.000
 6718.00    1.29227   1.79609    0.000
 6719.00    1.29515   1.79596    0.000
 6720.00    1.29827   1.79567    0.000
 6721.00    1.30612   1.79581    0.000
 6722.00    1.30443   1.79571    0.000
 6723.00    1.19322   1.79543    0.000
 6724.00    1.10754   1.79553    0.000
 6725.00    1.22512   1.79548    0.000
 6726.00    1.29979   1.79522    0.000
 6727.00    1.11711   1.79526    0.000
 6728.00    1.04241   1.79526    0.000
 6729.00    1.47939   1.79504    0.000
 6730.00    1.79958   1.79500    0.000
 6731.00    1.66861   1.79504    0.000
 6732.00    1.52234   1.79490    0.000
 6733.00    1.32681   1.79474    0.000
 6734.00    1.18364   1.79482    0.000
 6735.00    1.18323   1.79476    0.000
 6736.00    1.14153   1.79449    0.000
 6737.00    1.00338   1.79459    0.000
 6738.00    0.95302   1.79463    0.000
 6739.00    1.08006   1.79425    0.000
 6740.00    1.16187   1.79441    0.000
 6741.00    1.16412   1.79451    0.000
 6742.00    1.15501   1.79408    0.000
 6743.00    1.12843   1.79429    0.000
 6744.00    1.15008   1.79444    0.000
 6745.00    1.23696   1.79398    0.000
 6746.00    1.32058   1.79421    0.000
 6747.00    1.40035   1.79439    0.000
 6748.00    1.43365   1.79395    0.000
 6749.00    1.41818   1.79415    0.000
 6750.00    1.57716   1.79434    0.000
 6751.00    1.89766   1.79394    0.000
 6752.00    2.03118   1.79407    0.000
 6753.00    2.01210   1.79423    0.003
 6754.00    1.64987   1.79391    0.003
 6755.00    1.04112   1.79394    0.003
 6756.00    0.73800   1.79405    0.003
 6757.00    0.62756   1.79382    0.003
 6758.00    0.70635   1.79377    0.003
 6759.00    0.88943   1.79380    0.003
 6760.00    1.18870   1.79368    0.003
 6761.00    1.54365   1.79358    0.003
 6762.00    1.61276   1.79350    0.003
 6763.00    1.56364   1.79349    0.003
 6764.00    1.55572   1.79336    0.003
 6765.00    1.56236   1.79316    0.003
 6766.00    1.58603   1.79324    0.003
 6767.00    1.61477   1.79310    0.003
 6768.00    1.80120   1.79283    0.003
 6769.00    2.02669   1.79292    0.003
 6770.00    1.83420   1.79279    0.003
 6771.00    1.55782   1.79252    0.003
 6772.00    1.44312   1.79255    0.003
 6773.00    1.35383   1.79243    0.003
 6774.00    1.15600   1.79220    0.003
 6775.00    0.94551   1.79214    0.003
 6776.00    0.99524   1.79206    0.003
 6777.00    1.06549   1.79186    0.003
 6778.00    1.28047   1.79176    0.003
 6779.00    1.50177   1.79171    0.003
 6780.00    1.29980   1.79152    0.003
 6781.00    1.09763   1.79144    0.003
 6782.00    1.09236   1.79144    0.003
 6783.00    1.10403   1.79122    0.003
 6784.00    1.42245   1.79120    0.003
 6785.00    1.68629   1.79125    0.003
 6786.00    1.35272   1.79098    0.003
 6787.00    1.08464   1.79103    0.003
 6788.00    1.32020   1.79113    0.003
 6789.00    1.54094   1.79082    0.003
 6790.00    1.67532   1.79089    0.003
 6791.00    1.73194   1.79107    0.003
 6792.00    1.42896   1.79073    0.003
 6793.00    1.21948   1.79077    0.003
 6794.00    1.36351   1.79103    0.003
 6795.00    1.45423   1.79069    0.003
 6796.00    1.37661   1.79066    0.003
 6797.00    1.29698   1.79097    0.003
 6798.00    1.21194   1.79068    0.003
 6799.00    1.30805   1.79056    0.003
 6800.00    1.82035   1.79087    0.003
 6801.00    2.07591   1.79067    0.003
 6802.00    1.82091   1.79048    0.003
 6803.00    1.65562   1.79070    0.003
 6804.00    1.64577   1.79062    0.003
 6805.00    1.58250   1.79040    0.003
 6806.00    1.43818   1.79049    0.003
 6807.00    1.33302   1.79049    0.003
 6808.00    1.28005   1.79031    0.003
 6809.00    1.24566   1.79024    0.003
 6810.00    1.23309   1.79030    0.003
 6811.00    1.21838   1.79020    0.003
 6812.00    1.20144   1.79000    0.003
 6813.00    1.22194   1.79006    0.003
 6814.00    1.27661   1.79006    0.003
 6815.00    1.18491   1.78979    0.003
 6816.00    0.97543   1.78982    0.003
 6817.00    0.97186   1.78987    0.003
 6818.00    1.11408   1.78961    0.003
 6819.00    1.12518   1.78958    0.003
 6820.00    1.05483   1.78966    0.003
 6821.00    1.11371   1.78946    0.003
 6822.00    1.24273   1.78937    0.003
 6823.00    1.32420   1.78941    0.003
 6824.00    1.38326   1.78930    0.003
 6825.00    1.62191   1.78916    0.003
 6826.00    1.93358   1.78917    0.003
 6827.00    1.80937   1.78912    0.003
 6828.00    1.53383   1.78896    0.003
 6829.00    1.48589   1.78894    0.003
 6830.00    1.50455   1.78892    0.003
 6831.00    1.40804   1.78876    0.003
 6832.00    1.28363   1.78873    0.003
 6833.00    1.19750   1.78870    0.003
 6834.00    1.11885   1.78857    0.003
 6835.00    1.27312   1.78852    0.003
 6836.00    1.46289   1.78846    0.003
 6837.00    1.34762   1.78840    0.003
 6838.00    1.19811   1.78831    0.003
 6839.00    1.44907   1.78821    0.003
 6840.00    1.72997   1.78822    0.003
 6841.00    1.57658   1.78809    0.003
 6842.00    1.40595   1.78798    0.003
 6843.00    1.45791   1.78802    0.003
 6844.00    1.50849   1.78790    0.003
 6845.00    1.44357   1.78778    0.003
 6846.00    1.37950   1.78781    0.003
 6847.00    1.32987   1.78771    0.003
 6848.00    1.27928   1.78762    0.003
 6849.00    1.21871   1.78760    0.003
 6850.00    1.18710   1.78752    0.003
 6851.00    1.37080   1.78747    0.003
 6852.00    1.50783   1.78740    0.003
 6853.00    1.38036   1.78735    0.003
 6854.00    1.27030   1.78730    0.003
 6855.00    1.23878   1.78721    0.003
 6856.00    1.19763   1.78718    0.003
 6857.00    1.12084   1.78710    0.003
 6858.00    1.06531   1.78702    0.003
 6859.00    1.07567   1.78699    0.003
 6860.00    1.10817   1.78686    0.003
 6861.00    1.19892   1.78677    0.003
 6862.00    1.35241   1.78674    0.003
 6863.00    1.64767   1.78654    0.003
 6864.00    1.76683   1.78638    0.003
 6865.00    1.54131   1.78635    0.003
 6866.00    1.38696   1.78606    0.003
 6867.00    1.35404   1.78578    0.003
 6868.00    1.30391   1.78570    0.003
 6869.00    1.22802   1.78526    0.003
 6870.00    1.25150   1.78480    0.003
 6871.00    1.40553   1.78460    0.003
 6872.00    1.38770   1.78398    0.003
 6873.00    1.17102   1.78322    0.003
 6874.00    1.11940   1.78286    0.003
 6875.00    1.23621   1.78199    0.003
 6876.00    1.18436   1.78090    0.003
 6877.00    0.98072   1.78032    0.003
 6878.00    0.94976   1.77924    0.003
 6879.00    1.05578   1.77790    0.003
 6880.00    1.00662   1.77706    0.003
 6881.00    0.84920   1.77595    0.003
 6882.00    0.96353   1.77453    0.003
 6883.00    1.24415   1.77357    0.003
 6884.00    1.24538   1.77269    0.003
 6885.00    1.09731   1.77146    0.003
 6886.00    1.16144   1.77062    0.003
 6887.00    1.32402   1.77023    0.003
 6888.00    1.30436   1.76949    0.003
 6889.00    1.21187   1.76905    0.003
 6890.00    1.11902   1.76932    0.003
 6891.00    1.02604   1.76925    0.003
 6892.00    1.30150   1.76936    0.003
 6893.00    1.68260   1.77025    0.003
 6894.00    1.43430   1.77074    0.003
 6895.00    1.03695   1.77133    0.003
 6896.00    1.20964   1.77256    0.003
 6897.00    1.49099   1.77336    0.003
 6898.00    1.62303   1.77423    0.003
 6899.00    1.73301   1.77549    0.003
 6900.00    1.67301   1.77636    0.003
 6901.00    1.59467   1.77722    0.003
 6902.00    1.43825   1.77831    0.003
 6903.00    1.27630   1.77901    0.003
 6904.00    1.07501   1.77967    0.003
 6905.00    0.87232   1.78054    0.003
 6906.00    1.06876   1.78097    0.003
 6907.00    1.26413   1.78139    0.003
 6908.00    1.37650   1.78199    0.003
 6909.00    1.46931   1.78222    0.003
 6910.00    1.25248   1.78242    0.003
 6911.00    1.05972   1.78279    0.003
 6912.00    1.10801   1.78294    0.003
 6913.00    1.14626   1.78295    0.003
 6914.00    1.11236   1.78319    0.003
 6915.00    1.08848   1.78326    0.003
 6916.00    1.11985   1.78319    0.003
 6917.00    1.10970   1.78338    0.003
 6918.00    0.91648   1.78332    0.003
 6919.00    0.82230   1.78332    0.003
 6920.00    1.08713   1.78345    0.003
 6921.00    1.27885   1.78327    0.003
 6922.00    1.24837   1.78339    0.003
 6923.00    1.24805   1.78345    0.003
 6924.00    1.32570   1.78321    0.003
 6925.00    1.28692   1.78339    0.003
 6926.00    0.98933   1.78341    0.003
 6927.00    0.98689   1.78321    0.003
 6928.00    1.55312   1.78335    0.003
 6929.00    1.74367   1.78334    0.003
 6930.00    1.30276   1.78327    0.003
 6931.00    1.06374   1.78330    0.003
 6932.00    1.12206   1.78331    0.003
 6933.00    1.10960   1.78329    0.003
 6934.00    1.00551   1.78327    0.003
 6935.00    1.00760   1.78330    0.003
 6936.00    1.13083   1.78323    0.003
 6937.00    1.22653   1.78329    0.003
 6938.00    1.29454   1.78326    0.003
 6939.00    1.30605   1.78316    0.003
 6940.00    1.26744   1.78327    0.003
 6941.00    1.18682   1.78318    0.003
 6942.00    1.07337   1.78308    0.003
 6943.00    0.95737   1.78322    0.003
 6944.00    0.83961   1.78306    0.003
 6945.00    0.67896   1.78300    0.003
 6946.00    0.49246   1.78314    0.003
 6947.00    0.45501   1.78294    0.003
 6948.00    0.49599   1.78291    0.003
 6949.00    0.74908   1.78305    0.003
 6950.00    1.09898   1.78283    0.003
 6951.00    1.04843   1.78281    0.003
 6952.00    0.84060   1.78294    0.003
 6953.00    1.02068   1.78275    0.003
 6954.00    1.33050   1.78273    0.003
 6955.00    1.46189   1.78278    0.003
 6956.00    1.54316   1.78276    0.003
 6957.00    1.28101   1.78263    0.003
 6958.00    0.93939   1.78261    0.003
 6959.00    1.44895   1.78278    0.003
 6960.00    2.11651   1.78252    0.003
 6961.00    1.50990   1.78245    0.003
 6962.00    0.72092   1.78273    0.003
 6963.00    0.70575   1.78243    0.003
 6964.00    0.77072   1.78231    0.003
 6965.00    0.90375   1.78260    0.003
 6966.00    1.04131   1.78231    0.003
 6967.00    0.96084   1.78218    0.003
 6968.00    0.87337   1.78241    0.003
 6969.00    0.80171   1.78217    0.003
 6970.00    0.73708   1.78205    0.003
 6971.00    0.88775   1.78218    0.003
 6972.00    1.04141   1.78202    0.003
 6973.00    1.23954   1.78191    0.003
 6974.00    1.36260   1.78199    0.003
 6975.00    0.76484   1.78184    0.003
 6976.00    0.30602   1.78176    0.003
 6977.00    0.81385   1.78186    0.003
 6978.00    1.22848   1.78167    0.003
 6979.00    1.14286   1.78164    0.003
 6980.00    1.06378   1.78173    0.003
 6981.00    1.01288   1.78157    0.003
 6982.00    1.02269   1.78152    0.003
 6983.00    1.24803   1.78167    0.003
 6984.00    1.36522   1.78148    0.003
 6985.00    1.15989   1.78146    0.003
 6986.00    1.05665   1.78161    0.003
 6987.00    1.21269   1.78142    0.003
 6988.00    1.32444   1.78144    0.003
 6989.00    1.33932   1.78155    0.003
 6990.00    1.23824   1.78140    0.003
 6991.00    0.91719   1.78147    0.003
 6992.00    0.78222   1.78152    0.003
 6993.00    0.95533   1.78140    0.003
 6994.00    1.08244   1.78151    0.003
 6995.00    1.14277   1.78155    0.003
 6996.00    1.22326   1.78136    0.003
 6997.00    1.32949   1.78156    0.003
 6998.00    1.27605   1.78157    0.003
 6999.00    1.04301   1.78136    0.003
 7000.00    0.95782   1.78158    0.003
 7001.00    1.01932   1.78159    0.003
 7002.00    1.07647   1.78135    0.003
 7003.00    1.12981   1.78158    0.003
 7004.00    1.24471   1.78161    0.003
 7005.00    1.40706   1.78135    0.003
 7006.00    1.24494   1.78161    0.003
 7007.00    0.86297   1.78157    0.003
 7008.00    0.77318   1.78138    0.003
 7009.00    0.85689   1.78164    0.003
 7010.00    0.94628   1.78154    0.003
 7011.00    1.03860   1.78145    0.003
 7012.00    1.05015   1.78167    0.003
 7013.00    1.02544   1.78156    0.003
 7014.00    0.93974   1.78153    0.003
 7015.00    0.83049   1.78167    0.003
 7016.00    0.73518   1.78167    0.003
 7017.00    0.64445   1.78155    0.003
 7018.00    0.76088   1.78172    0.003
 7019.00    0.93431   1.78176    0.003
 7020.00    0.99496   1.78154    0.003
 7021.00    1.03011   1.78180    0.003
 7022.00    1.22967   1.78181    0.003
 7023.00    1.45893   1.78153    0.003
 7024.00    1.39572   1.78182    0.003
 7025.00    1.29199   1.78180    0.003
 7026.00    1.33856   1.78157    0.003
 7027.00    1.40006   1.78179    0.003
 7028.00    1.32193   1.78179    0.003
 7029.00    1.23506   1.78163    0.003
 7030.00    1.37171   1.78175    0.003
 7031.00    1.51383   1.78181    0.003
 7032.00    1.42375   1.78167    0.003
 7033.00    1.33070   1.78177    0.003
 7034.00    1.15630   1.78182    0.003
 7035.00    0.96772   1.78177    0.003
 7036.00    0.58021   1.78190    0.003
 7037.00    0.27436   1.78182    0.003
 7038.00    0.72143   1.78192    0.003
 7039.00    1.07004   1.78205    0.003
 7040.00    0.75515   1.78191    0.003
 7041.00    0.48500   1.78207    0.003
 7042.00    0.44873   1.78213    0.003
 7043.00    0.53944   1.78209    0.003
 7044.00    1.16472   1.78217    0.003
 7045.00    1.52024   1.78218    0.003
 7046.00    0.93741   1.78229    0.003
 7047.00    0.54954   1.78220    0.003
 7048.00    0.73230   1.78220    0.003
 7049.00    0.85334   1.78240    0.003
 7050.00    0.82031   1.78219   -2.000
 7051.00    0.81433   1.78222   -2.000
 7052.00    0.86653   1.78235   -2.000
 7053.00    0.90156   1.78221   -2.000
 7054.00    0.90453   1.78218   -2.000
 7055.00    1.02589   1.78222   -2.000
 7056.00    1.34030   1.78220   -2.000
 7057.00    1.36543   1.78216   -2.000
 7058.00    0.97676   1.78203   -2.000
 7059.00    0.94569   1.78219   -2.000
 7060.00    1.36460   1.78211   -2.000
 7061.00    1.45292   1.78190   -2.000
 7062.00    1.17467   1.78209   -2.000
 7063.00    1.13007   1.78216   -2.000
 7064.00    1.31402   1.78178   -2.000
 7065.00    1.31508   1.78198   -2.000
 7066.00    1.15841   1.78215   -2.000
 7067.00    1.01992   1.78176   -2.000
 7068.00    0.89526   1.78183   -2.000
 7069.00    0.93361   1.78202   -2.000
 7070.00    1.08082   1.78180   -2.000
 7071.00    0.95952   1.78162   -2.000
 7072.00    0.68120   1.78183   -2.000
 7073.00    0.73220   1.78172   -2.000
 7074.00    0.95109   1.78139   -2.000
 7075.00    0.75451   1.78150   -2.000
 7076.00    0.37449   1.78147   -2.000
 7077.00    0.55027   1.78111   -2.000
 7078.00    0.93680   1.78103   -2.000
 7079.00    1.14325   1.78104   -2.000
 7080.00    1.29171   1.78077   -2.000
 7081.00    1.24927   1.78055   -2.000
 7082.00    1.15540   1.78049   -2.000
 7083.00   -1.39122   1.78038   -2.000
 7084.00   -4.47938   1.78010   -2.000
 7085.00   -2.54840   1.77999   -2.000
 7086.00    0.26482   1.77995   -2.000
 7087.00    0.92470   1.77977   -2.000
 7088.00    1.29610   1.77966   -2.000
 7089.00    1.02005   1.77972   -2.000
 7090.00    0.68249   1.77959   -2.000
 7091.00    0.74330   1.77953   -2.000
 7092.00    0.82748   1.77974   -2.000
 7093.00    0.86173   1.77969   -2.000
 7094.00    0.89305   1.77960   -2.000
 7095.00    0.69355   1.78001   -2.000
 7096.00    0.51423   1.77998   -2.000
 7097.00    0.83674   1.77997   -2.000
 7098.00    1.13791   1.78040   -2.000
 7099.00    1.15573   1.78047   -2.000
 7100.00    1.13445   1.78055   -2.000
 7101.00    0.76670   1.78078   -2.000
 7102.00    0.49268   1.78098   -2.000
 7103.00    0.83100   1.78109   -2.000
 7104.00    1.10242   1.78114   -2.000
 7105.00    1.03303   1.78146   -2.000
 7106.00    0.94069   1.78147   -2.000
 7107.00    0.75386   1.78147   -2.000
 7108.00    0.70828   1.78180   -2.000
 7109.00    1.14422   1.78171   -2.000
 7110.00    1.41498   1.78174   -2.000
 7111.00    1.21117   1.78200   -2.000
 7112.00    0.98746   1.78185   -2.000
 7113.00    0.71493   1.78193   -2.000
 7114.00    0.55110   1.78209   -2.000
 7115.00    0.61733   1.78201   -2.000
 7116.00    0.66482   1.78200   -2.000
 7117.00    0.67787   1.78221   -2.000
 7118.00    0.76324   1.78209   -2.000
 7119.00    0.96481   1.78206   -2.000
 7120.00    1.23943   1.78230   -2.000
 7121.00    1.61703   1.78215   -2.000
 7122.00    1.85589   1.78217   -2.000
 7123.00    1.92266   1.78230   -2.000
 7124.00    1.78949   1.78229   -2.000
 7125.00    1.43772   1.78228   -2.000
 7126.00    1.14573   1.78227   -2.000
 7127.00    0.91137   1.78245   -2.000
 7128.00   -0.81555   1.78238   -2.000
 7129.00   -3.81170   1.78228   -2.000
 7130.00   -3.00153   1.78256   -2.000
 7131.00    0.65916   1.78248   -2.000
 7132.00    1.63087   1.78235   -2.000
 7133.00    0.83335   1.78260   -2.000
 7134.00    0.70553   1.78257   -2.000
 7135.00    0.96347   1.78247   -2.000
 7136.00    0.85815   1.78260   -2.000
 7137.00    0.57056   1.78263   -2.000
 7138.00    0.54870   1.78256   -2.000
 7139.00    0.64222   1.78266   -2.000
 7140.00    0.80159   1.78264   -2.000
 7141.00    0.98550   1.78266   -2.000
 7142.00    1.00365   1.78266   -2.000
 7143.00    0.96944   1.78273   -2.000
 7144.00    0.91611   1.78271   -2.000
 7145.00    0.85774   1.78271   -2.000
 7146.00    0.91752   1.78278   -2.000
 7147.00    1.00277   1.78276   -2.000
 7148.00    0.97545   1.78277   -2.000
 7149.00    0.92891   1.78285   -2.000
 7150.00    0.87832   1.78284   -2.000
 7151.00    0.82721   1.78277   -2.000
 7152.00    0.89698   1.78292   -2.000
 7153.00    0.97773   1.78294   -2.000
 7154.00    0.99347   1.78281   -2.000
 7155.00    1.00565   1.78292   -2.000
 7156.00    0.64939   1.78306   -2.000
 7157.00    0.29658   1.78289   -2.000
 7158.00    0.96323   1.78296   -2.000
 7159.00    1.62003   1.78317   -2.000
 7160.00    2.05321   1.78300   -2.000
 7161.00    2.46048   1.78304   -2.000
 7162.00    2.54150   1.78325   -2.000
 7163.00    2.52906   1.78318   -2.000
 7164.00    1.71926   1.78308   -2.000
 7165.00    0.95657   1.78335   -2.000
 7166.00    0.49243   1.78338   -2.000
 7167.00    0.17486   1.78316   -2.000
 7168.00    0.58503   1.78344   -2.000
 7169.00    0.93557   1.78348   -2.000
 7170.00    1.04610   1.78334   -2.000
 7171.00    1.14867   1.78349   -2.000
 7172.00    1.22469   1.78357   -2.000
 7173.00    1.17039   1.78348   -2.000
 7174.00    0.74850   1.78349   -2.000
 7175.00    0.45347   1.78363   -2.000
 7176.00    0.46442   1.78356   -2.000
 7177.00    0.59316   1.78352   -2.000
 7178.00    0.96715   1.78362   -2.000
 7179.00    1.28262   1.78360   -2.000
 7180.00    1.49217   1.78359   -2.000
 7181.00    1.60346   1.78358   -2.000
 7182.00    1.55921   1.78365   -2.000
 7183.00    1.35627   1.78366   -2.000
 7184.00    0.93285   1.78358   -2.000
 7185.00    0.72359   1.78368   -2.000
 7186.00    0.77623   1.78374   -2.000
 7187.00    0.95975   1.78360   -2.000
 7188.00    1.28435   1.78380   -2.000
 7189.00    1.22287   1.78378   -2.000
 7190.00    0.79428   1.78372   -2.000
 7191.00    0.55309   1.78388   -2.000
 7192.00    0.46900   1.78387   -2.000
 7193.00    0.58094   1.78389   -2.000
 7194.00    0.83758   1.78392   -2.000
 7195.00    0.71439   1.78404   -2.000
 7196.00    0.34496   1.78404   -2.000
 7197.00    0.53500   1.78398   -2.000
 7198.00    1.04241   1.78421   -2.000
 7199.00    1.25131   1.78422   -2.000
 7200.00    1.31279   1.78410   -2.000
 7201.00    1.44636   1.78438   -2.000
 7202.00    1.61070   1.78437   -2.000
 7203.00    0.89340   1.78432   -2.000
 7204.00   -0.14648   1.78446   -2.000
 7205.00   -0.41074   1.78461   -2.000
 7206.00   -0.43472   1.78457   -2.000
 7207.00    0.28828   1.78455   -2.000
 7208.00    1.20407   1.78485   -2.000
 7209.00    1.04914   1.78483   -2.000
 7210.00    0.66899   1.78476   -2.000
 7211.00    0.85733   1.78500   -2.000
 7212.00    1.14009   1.78517   -2.000
 7213.00    1.18350   1.78497   -2.000
 7214.00    1.19701   1.78518   -2.000
 7215.00    0.80430   1.78541   -2.000
 7216.00    0.37641   1.78531   -2.000
 7217.00    0.25434   1.78535   -2.000
 7218.00    0.14782   1.78559   -2.000
