###################################################################
## OUTPUT of StarlightChains_v04.for    [Cid@UFSC - 01/Apr/2007] ##
###################################################################

## Some input info
KUG0210-078._25_30.txt                   [arq_obs]
Base.CB07.vall.4m                        [arq_base]
Masks.EmLines.NEW.gm                     [arq_masks]
StCv04.C11.config                        [arq_config]
   66                                    [N_base]
    0                                    [N_YAV_components = # of components with extra extinction!]
    0                                    [i_FitPowerLaw (1/0 = Yes/No)]
-9.99                                    [alpha_PowerLaw]
CCM                                      [red_law_option]
 1.458241                                [q_norm = A(l_norm)/A(V)]

## (Re)Sampling Parameters
 3741.00                                 [l_ini (A)]
 7218.00                                 [l_fin (A)]
    1.00                                 [dl    (A)]     (OBS: dl_cushion =    50.00 A)

## Normalization info
 4020.00                                 [l_norm (A) - for base]
 4010.00                                 [llow_norm (A) - window for f_obs]
 4060.00                                 [lupp_norm (A) - window for f_obs]
1.496402E-17                             [fobs_norm (in input units)]

## S/N
 3691.00                                 [llow_SN (A) - window for S/N]
 7268.00                                 [lupp_SN (A) - window for S/N]
   5.510                                 [S/N in S/N window]
   5.451                                 [S/N in norm. window]
   0.021                                 [S/N_err in S/N window]
   0.021                                 [S/N_err in norm. window]
  1.0000                                 [fscale_chi2]

## etc...
    -2007303                             [idum_orig]
  2430                                   [NOl_eff]
  2181                                   [Nl_eff]
   249    NSIGMA                         [Ntot_cliped & clip_method]
 11868220                                [Nglobal_steps]
   7                                     [N_chains]
  41                                     [NEX0s_base = N_base in EX0s-fits]
 0   0   1      249   2.0   1.044E+04    [Clip-Bug, RC-Crash & Burn-In warning-flags, n_censored_weights, wei_nsig_threshold & wei_limit]
   106    104.957    103.785      1.172  [idt_all, wdt_TotTime, wdt_UsrTime & wdt_SysTime (sec)]

## Synthesis Results - Best model ##

 8.47802E-05                             [chi2/Nl_eff]
    13.56270                             [adev (%)]

   116.13735                             [sum-of-x (%)]
 2.63081E-17                             [Flux_tot (units of input spectrum!)]
 6.68971E-13                             [Mini_tot (???)]
 3.37056E-13                             [Mcor_tot (???)]

 -23.13                                  [v0_min  (km/s)]
  41.48                                  [vd_min  (km/s)]
 0.3087                                  [AV_min  (mag)]
 0.0000                                  [YAV_min (mag)]

# j     x_j(%)      Mini_j(%)     Mcor_j(%)     age_j(yr)     Z_j      (L/M)_j    YAV?  Mstars   component_j        a/Fe...       SSP_chi2r SSP_adev(%)   SSP_AV   SSP_x(%)
  1      4.3509     1.3467E-02    2.6729E-02    1.000000E+06  0.00400  1.094E-02    0   1.0000   age020_m42            0.0000     1.0218E-04    16.4515   2.8900    98.5055
  2      0.0000     0.0000E+00    0.0000E+00    3.160000E+06  0.00400  4.007E-02    0   0.9999   age045_m42            0.0000     1.0253E-04    15.2433   2.3030    99.1393
  3      0.0000     0.0000E+00    0.0000E+00    5.010000E+06  0.00400  2.539E-02    0   0.9488   age055_m42            0.0000     9.6297E-05    16.3182   2.4583   103.8892
  4      0.0000     0.0000E+00    0.0000E+00    6.610000E+06  0.00400  2.620E-02    0   0.9220   age061_m42            0.0000     9.8012E-05    15.3689   2.1664   102.1119
  5      0.0000     0.0000E+00    0.0000E+00    1.000000E+07  0.00400  1.322E-02    0   0.8862   age070_m42            0.0000     9.2033E-05    14.3238   1.8499   106.4501
  6     23.8877     1.0261E-01    1.7455E-01    1.445000E+07  0.00400  7.883E-03    0   0.8571   age078_m42            0.0000     8.9772E-05    15.2283   2.0820   108.0105
  7      0.0487     3.1402E-04    5.0945E-04    2.512000E+07  0.00400  5.251E-03    0   0.8174   age090_m42            0.0000     8.8693E-05    14.2414   1.6904   108.5626
  8      0.0000     0.0000E+00    0.0000E+00    4.000000E+07  0.00400  3.649E-03    0   0.7851   age104_m42            0.0000     8.7955E-05    14.2330   1.4708   109.0935
  9      5.1645     5.6449E-02    8.5474E-02    5.500000E+07  0.00400  3.098E-03    0   0.7629   age110_m42            0.0000     9.0675E-05    14.4943   1.6608   107.0383
 10      0.0000     0.0000E+00    0.0000E+00    1.015200E+08  0.00400  2.228E-03    0   0.7207   age116_m42            0.0000     9.5315E-05    14.3473   1.7531   103.7920
 11      2.2601     7.0019E-02    9.2387E-02    2.861200E+08  0.00400  1.093E-03    0   0.6648   age125_m42            0.0000     9.8681E-05    13.1550   1.2986   101.5482
 12      0.0000     0.0000E+00    0.0000E+00    5.088000E+08  0.00400  6.597E-04    0   0.6365   age130_m42            0.0000     9.9009E-05    13.5564   1.2890   102.3187
 13      0.0000     0.0000E+00    0.0000E+00    1.434000E+09  0.00400  2.132E-04    0   0.5798   age139_m42            0.0000     8.9559E-05    13.9643   0.2221   109.2522
 14      0.0000     0.0000E+00    0.0000E+00    4.250000E+09  0.00400  5.895E-05    0   0.5377   age158_m42            0.0000     9.0110E-05    15.9149  -0.3545   110.9986
 15      0.0000     0.0000E+00    0.0000E+00    7.500000E+09  0.00400  3.510E-05    0   0.5212   age171_m42            0.0000     8.9615E-05    16.6157  -0.5867   112.2031
 16      2.7585     4.6587E+00    4.6546E+00    1.300000E+10  0.00400  2.005E-05    0   0.5034   age193_m42            0.0000     8.6549E-05    17.7810  -0.8409   115.7741
 17      0.0000     0.0000E+00    0.0000E+00    1.800000E+10  0.00400  1.525E-05    0   0.4967   age213_m42            0.0000     8.8395E-05    17.3134  -0.8240   113.3305
 18      0.0000     0.0000E+00    0.0000E+00    1.000000E+06  0.00800  1.238E-02    0   1.0000   age020_m52            0.0000     1.0265E-04    16.4698   2.8840    98.7507
 19      0.0000     0.0000E+00    0.0000E+00    3.160000E+06  0.00800  3.074E-02    0   0.9966   age045_m52            0.0000     1.0084E-04    16.6712   2.7753   101.0483
 20      0.0000     0.0000E+00    0.0000E+00    5.010000E+06  0.00800  2.668E-02    0   0.9443   age055_m52            0.0000     9.6070E-05    16.5753   2.4967   104.8406
 21      0.0000     0.0000E+00    0.0000E+00    6.610000E+06  0.00800  2.136E-02    0   0.9177   age061_m52            0.0000     9.2434E-05    14.5775   1.3200   109.1707
 22      3.2706     9.1151E-03    1.5969E-02    1.000000E+07  0.00800  1.215E-02    0   0.8827   age070_m52            0.0000     9.2282E-05    14.1447   2.0052   107.3485
 23      0.0000     0.0000E+00    0.0000E+00    1.445000E+07  0.00800  8.717E-03    0   0.8552   age078_m52            0.0000     9.1878E-05    14.8052   2.0865   107.6811
 24      1.2738     7.7133E-03    1.2495E-02    2.512000E+07  0.00800  5.592E-03    0   0.8162   age090_m52            0.0000     9.0064E-05    13.9024   1.7754   108.7439
 25      0.0000     0.0000E+00    0.0000E+00    4.000000E+07  0.00800  3.896E-03    0   0.7841   age104_m52            0.0000     8.9946E-05    14.0095   1.6969   108.9312
 26      0.0000     0.0000E+00    0.0000E+00    1.015200E+08  0.00800  2.148E-03    0   0.7226   age116_m52            0.0000     9.5007E-05    14.0045   1.7170   104.7480
 27      0.0000     0.0000E+00    0.0000E+00    2.861200E+08  0.00800  9.925E-04    0   0.6683   age125_m52            0.0000     9.9452E-05    13.4575   1.3511   103.2672
 28      0.0000     0.0000E+00    0.0000E+00    9.047900E+08  0.00800  3.141E-04    0   0.6138   age135_m52            0.0000     9.6022E-05    14.0359   0.4962   110.0887
 29      0.0000     0.0000E+00    0.0000E+00    1.434000E+09  0.00800  1.719E-04    0   0.5853   age139_m52            0.0000     9.1123E-05    15.2969  -0.2361   115.3861
 30      0.0000     0.0000E+00    0.0000E+00    2.500000E+09  0.00800  7.872E-05    0   0.5600   age150_m52            0.0000     9.1958E-05    17.0112  -0.5999   116.8702
 31      0.0000     0.0000E+00    0.0000E+00    4.250000E+09  0.00800  4.336E-05    0   0.5426   age158_m52            0.0000     9.2322E-05    17.0410  -0.6111   115.4521
 32      0.0000     0.0000E+00    0.0000E+00    6.250000E+09  0.00800  3.159E-05    0   0.5319   age166_m52            0.0000     9.0834E-05    18.2048  -0.8883   118.9053
 33     15.4757     3.8504E+01    3.8768E+01    1.300000E+10  0.00800  1.361E-05    0   0.5073   age193_m52            0.0000     1.0531E-04    26.7270  -1.0000   124.9390
 34     16.4487     5.6340E+01    5.5799E+01    1.800000E+10  0.00800  9.886E-06    0   0.4990   age213_m52            0.0000     1.2409E-04    35.3343  -1.0000   128.6054
 35      1.3047     2.8615E-03    5.6793E-03    1.000000E+06  0.02000  1.544E-02    0   1.0000   age020_m62            0.0000     1.0417E-04    16.4123   2.8914    98.4757
 36      0.0000     0.0000E+00    0.0000E+00    3.160000E+06  0.02000  3.762E-02    0   0.9858   age045_m62            0.0000     1.0037E-04    16.9956   2.7406   103.2094
 37      0.7893     8.1089E-04    1.5035E-03    5.010000E+06  0.02000  3.296E-02    0   0.9342   age055_m62            0.0000     9.8828E-05    16.1256   2.4524   103.4906
 38      0.0000     0.0000E+00    0.0000E+00    8.710000E+06  0.02000  1.154E-02    0   0.8861   age067_m62            0.0000     8.6920E-05    12.0670   1.4273   112.8451
 39      1.5308     6.7645E-03    1.1374E-02    1.445000E+07  0.02000  7.663E-03    0   0.8472   age078_m62            0.0000     8.7747E-05    13.6489   1.6083   112.1611
 40      0.0000     0.0000E+00    0.0000E+00    2.512000E+07  0.02000  4.532E-03    0   0.8099   age090_m62            0.0000     8.5170E-05    13.6782   1.5749   113.1902
 41      0.0000     0.0000E+00    0.0000E+00    5.500000E+07  0.02000  2.733E-03    0   0.7595   age110_m62            0.0000     9.0055E-05    14.0824   1.6681   108.8365
 42      0.0000     0.0000E+00    0.0000E+00    1.609000E+08  0.02000  1.369E-03    0   0.6985   age120_m62            0.0000     9.8363E-05    13.6063   1.6681   103.8664
 43      0.0000     0.0000E+00    0.0000E+00    2.861200E+08  0.02000  9.013E-04    0   0.6714   age125_m62            0.0000     9.9786E-05    13.4640   1.4685   104.5256
 44      0.0000     0.0000E+00    0.0000E+00    5.088000E+08  0.02000  5.028E-04    0   0.6449   age130_m62            0.0000     9.8185E-05    14.2422   1.0529   108.8396
 45      0.0000     0.0000E+00    0.0000E+00    9.047900E+08  0.02000  2.428E-04    0   0.6179   age135_m62            0.0000     9.6583E-05    15.1546   0.3618   113.0919
 46      0.0000     0.0000E+00    0.0000E+00    1.434000E+09  0.02000  1.263E-04    0   0.5908   age139_m62            0.0000     9.6429E-05    16.0486  -0.1679   115.5653
 47      0.0000     0.0000E+00    0.0000E+00    2.500000E+09  0.02000  5.985E-05    0   0.5673   age150_m62            0.0000     9.5172E-05    18.1115  -0.6819   121.0113
 48      0.0000     0.0000E+00    0.0000E+00    4.250000E+09  0.02000  3.271E-05    0   0.5468   age158_m62            0.0000     9.4177E-05    20.3537  -1.0000   127.2444
 49      0.0000     0.0000E+00    0.0000E+00    1.000000E+10  0.02000  1.360E-05    0   0.5167   age181_m62            0.0000     1.2623E-04    33.7307  -1.0000   135.7279
 50      0.0000     0.0000E+00    0.0000E+00    1.800000E+10  0.02000  7.124E-06    0   0.5013   age213_m62            0.0000     1.9178E-04    53.8317  -1.0000   144.0962
 51      0.0000     0.0000E+00    0.0000E+00    1.000000E+06  0.05000  2.592E-02    0   0.9998   age020_m72            0.0000     1.0734E-04    16.2135   2.9156    97.1699
 52      9.1752     6.4125E-03    1.2189E-02    3.160000E+06  0.05000  4.845E-02    0   0.9577   age045_m72            0.0000     9.7513E-05    17.2112   2.5921   105.9001
 53      0.0000     0.0000E+00    0.0000E+00    5.010000E+06  0.05000  3.072E-02    0   0.9147   age055_m72            0.0000     9.2745E-05    15.1339   2.1464   109.3501
 54     10.5473     2.4546E-02    4.3247E-02    6.610000E+06  0.05000  1.455E-02    0   0.8877   age061_m72            0.0000     8.8272E-05    12.7296   1.4640   113.3812
 55      0.0000     0.0000E+00    0.0000E+00    1.000000E+07  0.05000  9.074E-03    0   0.8524   age070_m72            0.0000     9.1308E-05    15.9403   2.2830   110.5766
 56      0.0000     0.0000E+00    0.0000E+00    2.512000E+07  0.05000  4.250E-03    0   0.7902   age090_m72            0.0000     8.8537E-05    14.9647   2.0391   110.4578
 57     17.8419     1.9571E-01    2.9591E-01    4.000000E+07  0.05000  3.087E-03    0   0.7618   age104_m72            0.0000     9.0699E-05    14.0358   1.9038   107.8871
 58      0.0000     0.0000E+00    0.0000E+00    1.015200E+08  0.05000  1.700E-03    0   0.7096   age116_m72            0.0000     9.8774E-05    13.2451   1.8262   102.6767
 59      0.0090     4.1375E-04    5.4470E-04    2.861200E+08  0.05000  7.384E-04    0   0.6633   age125_m72            0.0000     1.0132E-04    13.7000   1.3328   105.8572
 60      0.0000     0.0000E+00    0.0000E+00    5.088000E+08  0.05000  3.819E-04    0   0.6372   age130_m72            0.0000     9.8499E-05    14.9505   0.7244   112.9773
 61      0.0000     0.0000E+00    0.0000E+00    9.047900E+08  0.05000  1.676E-04    0   0.6110   age135_m72            0.0000     9.7389E-05    17.4380  -0.1641   120.1443
 62      0.0000     0.0000E+00    0.0000E+00    1.434000E+09  0.05000  8.837E-05    0   0.5874   age139_m72            0.0000     9.3844E-05    18.3845  -0.7094   124.0013
 63      0.0000     0.0000E+00    0.0000E+00    2.500000E+09  0.05000  4.233E-05    0   0.5598   age150_m72            0.0000     9.8086E-05    20.8039  -1.0000   129.1329
 64      0.0000     0.0000E+00    0.0000E+00    6.250000E+09  0.05000  1.435E-05    0   0.5249   age166_m72            0.0000     1.4041E-04    38.3662  -1.0000   135.2248
 65      0.0000     0.0000E+00    0.0000E+00    1.300000E+10  0.05000  6.513E-06    0   0.5036   age193_m72            0.0000     2.5369E-04    67.4168  -1.0000   149.2372
 66      0.0000     0.0000E+00    0.0000E+00    1.800000E+10  0.05000  4.527E-06    0   0.4945   age213_m72            0.0000     3.6759E-04    86.9016  -1.0000   156.4844


## Synthesis Results - Average & Chains ##

# j      x_j: min, <> & last-chain-values for 1 ...  7 chains
  1      4.3509     14.5145     14.2373     10.7439     13.3845      8.8417     12.3907     10.7944     11.1618
  2      0.0000      0.2234      0.9067      1.1131      0.5211      0.3970      1.4477      1.4784      0.1892
  3      0.0000      0.2084      0.0000      0.3215      0.0621      1.7901      0.2095      0.4825      1.7094
  4      0.0000      0.1784      0.3939      0.1780      0.0000      0.9265      0.1855      0.0375      1.6425
  5      0.0000      0.1559      1.1446      0.1961      0.0000      0.1929      0.2287      0.3307      0.2631
  6     23.8877      0.1879      0.5991      0.0407      0.0000      0.7097      0.5147      0.9693      0.0887
  7      0.0487      0.1617      0.3412      0.0626      0.0000      0.1838      2.0180      1.0051      0.0000
  8      0.0000      0.1505      0.3831      0.3033      0.4490      0.3423      0.2173      0.0876      0.4049
  9      5.1645      0.1704      0.2151      0.3291      0.7114      0.2709      0.3569      0.0000      0.4149
 10      0.0000      0.2535      0.0000      1.0114      1.9269      0.6127      0.4454      0.7870      1.6136
 11      2.2601      0.2322      0.7775      0.2610      0.4590      0.0000      0.9481      1.5417      0.2370
 12      0.0000      0.1404      0.3630      0.2280      1.1262      2.4464      0.0987      0.0368      0.0000
 13      0.0000      0.1870      1.0145      0.9267      0.0000      0.0000      0.5879      1.5134      0.0000
 14      0.0000      0.1614      0.0000      0.5670      0.1855      0.0000      0.0000      0.3132      0.0000
 15      0.0000      0.1959      0.7219      0.2439      0.0000      0.8042      0.0000      0.1476      1.0175
 16      2.7585     24.8740     15.6113     25.1302     21.3857     16.5896     17.5683     19.1839     15.6694
 17      0.0000      0.1780      0.0000      0.2408      0.0000      0.9697      0.0000      0.5117      0.1682
 18      0.0000      6.9287      4.8444      7.5338      7.0585      6.5132      6.4480      4.5492      7.2095
 19      0.0000      0.2232      1.3224      0.4148      0.5233      0.1613      0.2128      3.1251      0.3730
 20      0.0000      0.2385      0.0000      0.7368      0.5316      0.3686      0.0000      0.0000      0.0000
 21      0.0000      0.1996      1.0363      0.0185      0.6432      0.0000      0.8956      1.4397      0.1254
 22      3.2706      0.1360      0.1260      0.0000      0.0000      0.6663      0.3172      0.0000      0.0000
 23      0.0000      0.1249      1.0784      0.0000      0.1329      0.4578      0.0000      1.0486      0.1448
 24      1.2738      0.2104      2.6668      0.6979      0.0000      0.1849      0.9397      0.0000      0.5942
 25      0.0000      0.1859      0.6364      0.0310      0.1433      0.2645      0.0000      0.1569      0.0000
 26      0.0000      0.1844      0.7550      0.8276      0.6393      0.1513      0.1901      0.9840      0.6339
 27      0.0000      0.2108      0.7604      0.2101      1.3193      0.5478      0.4437      0.7732      0.6667
 28      0.0000      0.2125      0.8918      0.0407      0.2857      1.6901      0.4910      0.3349      0.9099
 29      0.0000      0.1561      0.9183      0.8978      0.0928      0.2375      0.2725      0.2001      0.1688
 30      0.0000      0.1687      0.6134      0.6175      0.2735      0.5499      0.1597      0.0594      0.5164
 31      0.0000      0.1668      0.3263      0.2292      0.1431      0.3033      0.3971      0.4664      0.0338
 32      0.0000      0.4344      0.0000      0.5244      0.6530      0.6223      0.8194      0.6698      0.0000
 33     15.4757     27.8742     25.9873     24.6686     23.5232     26.5836     26.8749     27.3395     28.4886
 34     16.4487     14.9048     12.4712     14.1102     12.9315      9.9095      8.6410     11.3763     10.4129
 35      1.3047      0.8178      0.9549      0.9929      1.9446      0.9088      1.0227      0.7709      0.7561
 36      0.0000      0.1745      0.0000      0.0156      1.2010      0.3560      0.7348      0.0000      0.1942
 37      0.7893      0.1811      0.3113      0.1942      0.1216      1.9219      0.5390      0.0000      1.3737
 38      0.0000      0.2128      0.8328      0.1667      0.1953      1.3046      0.0000      0.8409      0.0000
 39      1.5308      0.2099      1.1084      0.2343      0.0000      0.0000      0.4370      0.6873      0.8091
 40      0.0000      0.2166      0.8390      0.3682      0.3626      1.1678      0.2288      1.1823      1.5561
 41      0.0000      0.1959      1.3232      0.8641      0.1211      1.5403      1.0160      0.1167      1.4144
 42      0.0000      0.1725      0.0000      0.5295      0.0000      0.9443      1.5336      0.1476      0.0000
 43      0.0000      0.1684      0.5627      0.3547      0.1012      0.9196      0.3659      0.0000      0.4189
 44      0.0000      0.1317      0.9508      0.5310      0.0000      0.0447      0.8990      0.0000      0.2360
 45      0.0000      0.2558      0.7673      0.1990      0.4731      0.3544      2.2904      0.1852      2.1414
 46      0.0000      0.2186      1.2940      0.0000      0.0270      0.3212      2.3828      0.3385      0.9121
 47      0.0000      0.1698      0.4413      0.1615      0.0910      0.2677      1.1868      0.0000      1.1779
 48      0.0000      0.1603      0.0000      0.0000      1.4713      0.0000      0.1370      0.0000      0.3651
 49      0.0000      0.2070      0.1036      0.0647      0.7283      0.4376      0.0000      0.2060      0.3847
 50      0.0000      0.1826      0.0000      0.2568      0.0000      0.0373      0.0000      0.0000      0.6284
 51      0.0000      1.0756      0.8529      0.9416      1.4482      1.8959      0.8039      2.3798      0.5807
 52      9.1752      0.2270      1.1192      0.4108      0.9281      0.0000      0.4776      0.5523      1.4061
 53      0.0000      0.1917      0.3161      0.0000      0.7122      1.2667      0.0000      0.1293      0.0000
 54     10.5473      0.1825      0.0000      0.6313      1.5376      0.0488      0.6139      1.3095      0.0000
 55      0.0000      0.1605      0.2065      0.1578      0.7981      0.3960      0.9777      0.2929      0.1897
 56      0.0000      0.1552      0.5609      0.8138      0.0000      0.0799      0.0000      0.3943      0.0000
 57     17.8419      0.1939      0.2783      0.6034      0.0000      1.2893      0.9585      0.2035      0.8806
 58      0.0000      0.1770      0.0000      0.2696      0.0000      1.0205      0.0000      0.0000      0.4894
 59      0.0090      0.1956      0.7997      0.8235      0.0000      0.6510      1.2187      1.1233      2.4915
 60      0.0000      0.1537      0.0000      0.2509      0.2900      1.0423      0.6831      0.0000      0.0826
 61      0.0000      0.1986      0.0000      0.3551      0.0000      0.4358      0.0000      0.8472      1.4730
 62      0.0000      0.1656      0.0000      0.6519      0.3094      0.0000      0.4257      0.0000      0.2231
 63      0.0000     13.6571     10.4157     10.9176     11.7975     11.1002     11.0017     10.8481      9.8061
 64      0.0000      0.2002      0.4544      0.4125      1.2638      0.8404      0.5857      0.6958      1.3258
 65      0.0000      0.2011      0.0000      0.0000      0.3124      0.6908      0.0000      0.6328      0.0000
 66      0.0000      0.1198      0.0000      0.1069      0.0000      0.0000      1.0209      0.0764      0.0094

# j      m_j: min, <> & last-chain-values for 1 ...  7 chains
  1  2.6729E-02  4.9375E-02  5.9285E-02  3.9177E-02  5.1556E-02  3.6075E-02  5.0948E-02  4.1725E-02  4.4601E-02
  2  0.0000E+00  2.0747E-04  1.0307E-03  1.1080E-03  5.4799E-04  4.4223E-04  1.6250E-03  1.5600E-03  2.0635E-04
  3  0.0000E+00  2.8980E-04  0.0000E+00  4.7931E-04  9.7729E-05  2.9860E-03  3.5219E-04  7.6241E-04  2.7925E-03
  4  0.0000E+00  2.3370E-04  6.3150E-04  2.4995E-04  0.0000E+00  1.4553E-03  2.9359E-04  5.5766E-05  2.5268E-03
  5  0.0000E+00  3.8884E-04  3.4953E-03  5.2441E-04  0.0000E+00  5.7724E-04  6.8956E-04  9.3755E-04  7.7086E-04
  6  1.7455E-01  7.6032E-04  2.9676E-03  1.7647E-04  0.0000E+00  3.4441E-03  2.5175E-03  4.4567E-03  4.2148E-04
  7  5.0945E-04  9.3653E-04  2.4197E-03  3.8872E-04  0.0000E+00  1.2772E-03  1.4130E-02  6.6161E-03  0.0000E+00
  8  0.0000E+00  1.2052E-03  3.7546E-03  2.6030E-03  4.0712E-03  3.2876E-03  2.1034E-03  7.9740E-04  3.8085E-03
  9  8.5474E-02  1.5617E-03  2.4127E-03  3.2331E-03  7.3826E-03  2.9776E-03  3.9534E-03  0.0000E+00  4.4665E-03
 10  0.0000E+00  3.0520E-03  0.0000E+00  1.3051E-02  2.6265E-02  8.8471E-03  6.4803E-03  1.0766E-02  2.2818E-02
 11  9.2387E-02  5.2565E-03  2.1544E-02  6.3319E-03  1.1765E-02  0.0000E+00  2.5939E-02  3.9654E-02  6.3021E-03
 12  0.0000E+00  5.0409E-03  1.5957E-02  8.7749E-03  4.5789E-02  1.0536E-01  4.2853E-03  1.5030E-03  0.0000E+00
 13  0.0000E+00  1.8926E-02  1.2569E-01  1.0054E-01  0.0000E+00  0.0000E+00  7.1916E-02  1.7404E-01  0.0000E+00
 14  0.0000E+00  5.4771E-02  0.0000E+00  2.0630E-01  7.1310E-02  0.0000E+00  0.0000E+00  1.2080E-01  0.0000E+00
 15  0.0000E+00  1.0826E-01  4.8834E-01  1.4448E-01  0.0000E+00  5.3303E-01  0.0000E+00  9.2691E-02  6.6046E-01
 16  4.6546E+00  2.3241E+01  1.7856E+01  2.5170E+01  2.2626E+01  1.8592E+01  1.9841E+01  2.0368E+01  1.7198E+01
 17  0.0000E+00  2.1578E-01  0.0000E+00  3.1289E-01  0.0000E+00  1.4098E+00  0.0000E+00  7.0485E-01  2.3954E-01
 18  0.0000E+00  2.0828E-02  1.7826E-02  2.4276E-02  2.4026E-02  2.3483E-02  2.3429E-02  1.5539E-02  2.5458E-02
 19  0.0000E+00  2.6927E-04  1.9530E-03  5.3643E-04  7.1496E-04  2.3349E-04  3.1041E-04  4.2844E-03  5.2859E-04
 20  0.0000E+00  3.1421E-04  0.0000E+00  1.0404E-03  7.9292E-04  5.8233E-04  0.0000E+00  0.0000E+00  0.0000E+00
 21  0.0000E+00  3.1920E-04  2.0283E-03  3.1779E-05  1.1646E-03  0.0000E+00  1.7309E-03  2.6156E-03  2.3560E-04
 22  1.5969E-02  3.6770E-04  4.1686E-04  0.0000E+00  0.0000E+00  2.1607E-03  1.0365E-03  0.0000E+00  0.0000E+00
 23  0.0000E+00  4.5586E-04  4.8195E-03  0.0000E+00  5.4927E-04  2.0049E-03  0.0000E+00  4.3504E-03  6.2084E-04
 24  1.2495E-02  1.1429E-03  1.7732E-02  4.0634E-03  0.0000E+00  1.2047E-03  6.1695E-03  0.0000E+00  3.7916E-03
 25  0.0000E+00  1.3922E-03  5.8351E-03  2.4860E-04  1.2154E-03  2.3762E-03  0.0000E+00  1.3355E-03  0.0000E+00
 26  0.0000E+00  2.3089E-03  1.1570E-02  1.1106E-02  9.0632E-03  2.2713E-03  2.8763E-03  1.3998E-02  9.3218E-03
 27  0.0000E+00  5.2818E-03  2.3324E-02  5.6443E-03  3.7436E-02  1.6466E-02  1.3438E-02  2.2017E-02  1.9625E-02
 28  0.0000E+00  1.5456E-02  7.9389E-02  3.1746E-03  2.3529E-02  1.4742E-01  4.3159E-02  2.7672E-02  7.7725E-02
 29  0.0000E+00  1.9781E-02  1.4243E-01  1.2194E-01  1.3316E-02  3.6091E-02  4.1731E-02  2.8817E-02  2.5119E-02
 30  0.0000E+00  4.4653E-02  1.9877E-01  1.7523E-01  8.1998E-02  1.7463E-01  5.1104E-02  1.7859E-02  1.6060E-01
 31  0.0000E+00  7.7684E-02  1.8602E-01  1.1442E-01  7.5437E-02  1.6940E-01  2.2354E-01  2.4682E-01  1.8501E-02
 32  0.0000E+00  2.7219E-01  0.0000E+00  3.5221E-01  4.6336E-01  4.6771E-01  6.2061E-01  4.7691E-01  0.0000E+00
 33  3.8768E+01  3.8666E+01  4.4127E+01  3.6681E+01  3.6948E+01  4.4229E+01  4.5061E+01  4.3094E+01  4.6420E+01
 34  5.5799E+01  2.7998E+01  2.8677E+01  2.8412E+01  2.7506E+01  2.2326E+01  1.9620E+01  2.4283E+01  2.2976E+01
 35  5.6793E-03  1.9711E-03  2.8174E-03  2.5653E-03  5.3072E-03  2.6273E-03  2.9795E-03  2.1113E-03  2.1408E-03
 36  0.0000E+00  1.7017E-04  0.0000E+00  1.6354E-05  1.3262E-03  4.1642E-04  8.6614E-04  0.0000E+00  2.2249E-04
 37  1.5035E-03  1.9104E-04  4.0198E-04  2.1957E-04  1.4519E-04  2.4315E-03  6.8722E-04  0.0000E+00  1.7021E-03
 38  0.0000E+00  6.0814E-04  2.9129E-03  5.1047E-04  6.3192E-04  4.4714E-03  0.0000E+00  2.7305E-03  0.0000E+00
 39  1.1374E-02  8.6343E-04  5.5825E-03  1.0335E-03  0.0000E+00  0.0000E+00  2.1732E-03  3.2134E-03  3.9102E-03
 40  0.0000E+00  1.4407E-03  6.8304E-03  2.6246E-03  2.7304E-03  9.3157E-03  1.8390E-03  8.9348E-03  1.2157E-02
 41  0.0000E+00  2.0256E-03  1.6751E-02  9.5796E-03  1.4183E-03  1.9106E-02  1.2700E-02  1.3714E-03  1.7183E-02
 42  0.0000E+00  3.2761E-03  0.0000E+00  1.0777E-02  0.0000E+00  2.1505E-02  3.5197E-02  3.1841E-03  0.0000E+00
 43  0.0000E+00  4.6692E-03  1.9096E-02  1.0541E-02  3.1758E-03  3.0576E-02  1.2259E-02  0.0000E+00  1.3641E-02
 44  0.0000E+00  6.2860E-03  5.5557E-02  2.7167E-02  0.0000E+00  2.5578E-03  5.1867E-02  0.0000E+00  1.3232E-02
 45  0.0000E+00  2.4230E-02  8.8953E-02  2.0208E-02  5.0739E-02  4.0261E-02  2.6219E-01  1.9926E-02  2.3823E-01
 46  0.0000E+00  3.8054E-02  2.7574E-01  0.0000E+00  5.3170E-03  6.7065E-02  5.0137E-01  6.6959E-02  1.8652E-01
 47  0.0000E+00  5.9901E-02  1.9057E-01  6.1074E-02  3.6353E-02  1.1324E-01  5.0603E-01  0.0000E+00  4.8807E-01
 48  0.0000E+00  9.9693E-02  0.0000E+00  0.0000E+00  1.0365E+00  0.0000E+00  1.0301E-01  0.0000E+00  2.6680E-01
 49  0.0000E+00  2.9261E-01  1.7932E-01  9.8016E-02  1.1660E+00  7.4216E-01  0.0000E+00  3.3099E-01  6.3887E-01
 50  0.0000E+00  4.7817E-01  0.0000E+00  7.2078E-01  0.0000E+00  1.1720E-01  0.0000E+00  0.0000E+00  1.9332E+00
 51  0.0000E+00  1.5440E-03  1.4987E-03  1.4489E-03  2.3540E-03  3.2642E-03  1.3948E-03  3.8817E-03  9.7922E-04
 52  1.2189E-02  1.6701E-04  1.0078E-03  3.2394E-04  7.7310E-04  0.0000E+00  4.2468E-04  4.6170E-04  1.2150E-03
 53  0.0000E+00  2.1239E-04  4.2876E-04  0.0000E+00  8.9360E-04  1.6835E-03  0.0000E+00  1.6286E-04  0.0000E+00
 54  4.3247E-02  4.1437E-04  0.0000E+00  1.5364E-03  3.9531E-03  1.3282E-04  1.6849E-03  3.3785E-03  0.0000E+00
 55  0.0000E+00  5.6114E-04  8.8382E-04  5.9131E-04  3.1591E-03  1.6605E-03  4.1313E-03  1.1635E-03  7.7918E-04
 56  0.0000E+00  1.0736E-03  4.7507E-03  6.0357E-03  0.0000E+00  6.6314E-04  0.0000E+00  3.1000E-03  0.0000E+00
 57  2.9591E-01  1.7806E-03  3.1284E-03  5.9402E-03  0.0000E+00  1.4201E-02  1.0640E-02  2.1233E-03  9.5000E-03
 58  0.0000E+00  2.7503E-03  0.0000E+00  4.4896E-03  0.0000E+00  1.9015E-02  0.0000E+00  0.0000E+00  8.9299E-03
 59  5.4470E-04  6.5375E-03  3.2725E-02  2.9510E-02  0.0000E+00  2.6101E-02  4.9244E-02  4.2670E-02  9.7838E-02
 60  0.0000E+00  9.5424E-03  0.0000E+00  1.6703E-02  2.0390E-02  7.7625E-02  5.1271E-02  0.0000E+00  6.0261E-03
 61  0.0000E+00  2.6940E-02  0.0000E+00  5.1640E-02  0.0000E+00  7.0916E-02  0.0000E+00  1.3061E-01  2.3474E-01
 62  0.0000E+00  4.0965E-02  0.0000E+00  1.7285E-01  8.6672E-02  0.0000E+00  1.2728E-01  0.0000E+00  6.4823E-02
 63  0.0000E+00  6.7214E+00  6.2749E+00  5.7597E+00  6.5746E+00  6.5524E+00  6.5447E+00  6.0667E+00  5.6691E+00
 64  0.0000E+00  2.7254E-01  7.5721E-01  6.0185E-01  1.9480E+00  1.3721E+00  9.6370E-01  1.0762E+00  2.1200E+00
 65  0.0000E+00  5.7872E-01  0.0000E+00  0.0000E+00  1.0180E+00  2.3844E+00  0.0000E+00  2.0691E+00  0.0000E+00
 66  0.0000E+00  4.8713E-01  0.0000E+00  4.6565E-01  0.0000E+00  0.0000E+00  5.0164E+00  3.5307E-01  4.5052E-02

# AV, chi2 & Mass for <> & i_chain = 1 ...  7 solutions
AV       0.3087      0.2221      0.1473      0.0975      0.2157      0.1679      0.1016      0.1433      0.0780
chi2 8.4780E-05  1.4198E-04  1.0420E-04  1.1489E-04  1.1917E-04  1.0835E-04  1.0348E-04  1.1133E-04  1.0395E-04
Mass 3.3706E-13  5.4184E-13  4.0032E-13  4.2758E-13  4.7446E-13  4.2005E-13  3.8132E-13  4.2894E-13  3.8012E-13
 -23.13                                  [v0_min (km/s) before EX0s...]
  41.48                                  [vd_min (km/s) before EX0s...]


## Synthetic spectrum (Best Model) ##l_obs f_obs f_syn wei
 3478    [Nl_obs]
 3741.00    1.09299   0.99213    0.000
 3742.00    1.34761   0.97639    0.000
 3743.00    1.56425   0.94783    0.000
 3744.00    1.41041   0.91469    0.000
 3745.00    1.04071   0.87500   -1.000
 3746.00    0.74131   0.83131   -1.000
 3747.00    0.47761   0.77695   -1.000
 3748.00    0.44429   0.70506   -1.000
 3749.00    0.51227   0.65127   -1.000
 3750.00    0.75612   0.66235   -1.000
 3751.00    1.06638   0.73250   -1.000
 3752.00    1.11729   0.81597   -1.000
 3753.00    1.08508   0.88882   -1.000
 3754.00    1.29075   0.95048   -1.000
 3755.00    1.56016   0.98905   -1.000
 3756.00    1.32637   0.99064   -1.000
 3757.00    0.98214   0.96577   -1.000
 3758.00    0.80711   0.94893   -1.000
 3759.00    0.66162   0.96076   -1.000
 3760.00    0.78059   0.98579   -1.000
 3761.00    0.93469   1.00031   -1.000
 3762.00    1.06388   0.99622   -1.000
 3763.00    1.19073   0.98140   -1.000
 3764.00    1.12976   0.96804   -1.000
 3765.00    1.05796   0.94649   -1.000
 3766.00    0.77077   0.90135   -1.000
 3767.00    0.48245   0.84886   -1.000
 3768.00    0.67555   0.80286   -1.000
 3769.00    0.85682   0.75310   -1.000
 3770.00    0.75083   0.71679   -1.000
 3771.00    0.65991   0.73559   -1.000
 3772.00    0.76644   0.80288   -1.000
 3773.00    0.89821   0.87258   -1.000
 3774.00    1.25141   0.92333   -1.000
 3775.00    1.52230   0.96268   -1.000
 3776.00    1.25954   0.99713   -1.000
 3777.00    1.01791   1.02423   -1.000
 3778.00    0.88327   1.04740   -1.000
 3779.00    0.78798   1.07452   -1.000
 3780.00    0.85379   1.09839   -1.000
 3781.00    0.93336   1.10864   -1.000
 3782.00    1.05961   1.11178   -1.000
 3783.00    1.21169   1.11497   -1.000
 3784.00    1.43766   1.10865   -1.000
 3785.00    1.61142   1.08344   -1.000
 3786.00    1.65758   1.05238   -1.000
 3787.00    1.53145   1.03081   -1.000
 3788.00    1.04218   1.01534   -1.000
 3789.00    0.74014   1.00118   -1.000
 3790.00    0.78108   0.99129   -1.000
 3791.00    0.89122   0.97994   -1.000
 3792.00    1.11215   0.95160   -1.000
 3793.00    1.10508   0.90180   -1.000
 3794.00    0.77773   0.84060   -1.000
 3795.00    0.52361   0.77660   -1.000
 3796.00    0.35998   0.70870   -1.000
 3797.00    0.35852   0.64871   -1.000
 3798.00    0.53374   0.63693   -1.000
 3799.00    0.66337   0.69374   -1.000
 3800.00    0.74919   0.78537   -1.000
 3801.00    0.89285   0.86901   -1.000
 3802.00    1.08552   0.93508   -1.000
 3803.00    1.09189   0.98634   -1.000
 3804.00    0.95922   1.01468   -1.000
 3805.00    0.92122   1.01734   -1.000
 3806.00    0.94527   1.01265   -1.000
 3807.00    1.02658   1.02549   -1.000
 3808.00    1.14074   1.05690   -1.000
 3809.00    1.07444   1.08739   -1.000
 3810.00    0.91794   1.10395   -1.000
 3811.00    0.67074   1.10300   -1.000
 3812.00    0.38433   1.08484   -1.000
 3813.00    0.19979   1.05880   -1.000
 3814.00    0.05303   1.03699   -1.000
 3815.00    0.08191   1.02383   -1.000
 3816.00    0.16599   1.02094   -1.000
 3817.00    0.19551   1.01163   -1.000
 3818.00    0.21072   0.96463   -1.000
 3819.00    0.30418   0.89996   -1.000
 3820.00    0.41441   0.88745   -1.000
 3821.00    0.69837   0.93884   -1.000
 3822.00    1.01183   0.99150   -1.000
 3823.00    0.98456   1.00075   -1.000
 3824.00    0.91358   0.97628   -1.000
 3825.00    0.65590   0.95042   -1.000
 3826.00    0.38147   0.93659   -1.000
 3827.00    0.60824   0.92649   -1.000
 3828.00    0.86195   0.91245   -1.000
 3829.00    0.66337   0.89355   -1.000
 3830.00    0.45752   0.86332   -1.000
 3831.00    0.40255   0.81021   -1.000
 3832.00    0.35417   0.73913   -1.000
 3833.00    0.45216   0.66785   -1.000
 3834.00    0.55458   0.61260   -1.000
 3835.00    0.71218   0.59591   -1.000
 3836.00    0.82475   0.62552   -1.000
 3837.00    0.55669   0.67611   -1.000
 3838.00    0.33902   0.72843   -1.000
 3839.00    0.43833   0.78204   -1.000
 3840.00    0.54356   0.83579   -1.000
 3841.00    0.67799   0.89246   -1.000
 3842.00    0.72556   0.94804   -1.000
 3843.00    0.42541   0.98851   -1.000
 3844.00    0.22611   1.01084   -1.000
 3845.00    0.36204   1.02256   -1.000
 3846.00    0.49423   1.03326   -1.000
 3847.00    0.61589   1.04352    0.000
 3848.00    0.73549   1.04263    0.000
 3849.00    0.85010   1.03112    0.000
 3850.00    1.00658   1.02869    0.000
 3851.00    1.24989   1.04417    0.000
 3852.00    1.29556   1.05786    0.000
 3853.00    0.98478   1.05503    0.000
 3854.00    0.71607   1.04252    0.000
 3855.00    0.51369   1.02802    0.000
 3856.00    0.48988   1.02132    0.000
 3857.00    0.71325   1.02404    0.000
 3858.00    0.78588   1.01768    0.000
 3859.00    0.67482   1.00284    0.000
 3860.00    0.61132   1.00359    0.000
 3861.00    0.59890   1.02583    0.000
 3862.00    0.57503   1.04987    0.000
 3863.00    0.54029   1.06017    0.000
 3864.00    0.53839   1.05782    0.000
 3865.00    0.56392   1.04905    0.000
 3866.00    0.74447   1.03610    0.000
 3867.00    1.03904   1.02553    0.000
 3868.00    1.15882   1.02693    0.000
 3869.00    1.16572   1.02712    0.000
 3870.00    1.17902   1.00627    0.000
 3871.00    1.19594   0.97643    0.000
 3872.00    1.14530   0.97049    0.000
 3873.00    1.06144   0.99735    0.000
 3874.00    0.90795   1.02784    0.000
 3875.00    0.72487   1.03333    0.000
 3876.00    0.80365   1.01297    0.000
 3877.00    0.97781   0.98328    0.000
 3878.00    0.94491   0.96396    0.000
 3879.00    0.84817   0.96254    0.000
 3880.00    0.68879   0.95774    0.000
 3881.00    0.51333   0.93260   -1.000
 3882.00    0.58800   0.90639   -1.000
 3883.00    0.71495   0.89524   -1.000
 3884.00    0.70414   0.87244   -1.000
 3885.00    0.67063   0.81252   -1.000
 3886.00    0.70329   0.73608   -1.000
 3887.00    0.74415   0.66829   -1.000
 3888.00    0.89443   0.61967   -1.000
 3889.00    1.05407   0.61891   -1.000
 3890.00    0.86396   0.68083   -1.000
 3891.00    0.65641   0.76923   -1.000
 3892.00    0.82958   0.84312   -1.000
 3893.00    1.00599   0.89081   -1.000
 3894.00    0.98932   0.91913   -1.000
 3895.00    0.97100   0.94336   -1.000
 3896.00    0.91897   0.97471   -1.000
 3897.00    0.87274   1.00068   -1.000
 3898.00    0.89528   1.00713   -1.000
 3899.00    0.91797   1.00883   -1.000
 3900.00    0.94193   1.02380   -1.000
 3901.00    0.97943   1.04334   -1.000
 3902.00    1.09972   1.05072   -1.000
 3903.00    1.16481   1.05061   -1.000
 3904.00    0.96422   1.04685   -1.000
 3905.00    0.78220   1.03706   -1.000
 3906.00    0.67287   1.03897   -1.000
 3907.00    0.60449   1.06213   -1.000
 3908.00    0.66955   1.08892   -1.000
 3909.00    0.75280   1.10358   -1.000
 3910.00    0.88620   1.10817   -1.000
 3911.00    0.97640   1.11121   -1.000
 3912.00    0.96455   1.11232   -1.000
 3913.00    1.00446   1.10920   -1.000
 3914.00    1.14998   1.10567   -1.000
 3915.00    1.16728   1.10158   -1.000
 3916.00    0.95685   1.09397   -1.000
 3917.00    0.77180   1.08161   -1.000
 3918.00    0.62619   1.05858   -1.000
 3919.00    0.64516   1.02743   -1.000
 3920.00    0.88869   1.00597   -1.000
 3921.00    0.92032   1.00838   -1.000
 3922.00    0.69740   1.02453   -1.000
 3923.00    0.65553   1.03489   -1.000
 3924.00    0.80540   1.03140   -1.000
 3925.00    0.95779   1.00977   -1.000
 3926.00    1.11254   0.98009   -1.000
 3927.00    1.08567   0.96055   -1.000
 3928.00    0.90925   0.94954   -1.000
 3929.00    0.76674   0.93742   -1.000
 3930.00    0.64882   0.92135   -1.000
 3931.00    0.56794   0.89820   -1.000
 3932.00    0.51062   0.86780   -1.000
 3933.00    0.49688   0.84471   -1.000
 3934.00    0.50739   0.84847   -1.000
 3935.00    0.44042   0.87503   -1.000
 3936.00    0.33593   0.90770   -1.000
 3937.00    0.32365   0.93908   -1.000
 3938.00    0.34992   0.96719   -1.000
 3939.00    0.51562   0.99080   -1.000
 3940.00    0.73119   1.00655   -1.000
 3941.00    0.66144   1.01253   -1.000
 3942.00    0.50546   1.01027   -1.000
 3943.00    0.64475   1.00335   -1.000
 3944.00    0.85819   1.00640   -1.000
 3945.00    0.96622   1.02944   -1.000
 3946.00    1.05274   1.05266   -1.000
 3947.00    0.89709   1.05645   -1.000
 3948.00    0.70265   1.05462   -1.000
 3949.00    0.63796   1.06471   -1.000
 3950.00    0.58876   1.07784   -1.000
 3951.00    0.82512   1.07546   -1.000
 3952.00    1.08474   1.06189   -1.000
 3953.00    1.01811   1.05928    0.095
 3954.00    0.93649   1.06572    0.046
 3955.00    1.24221   1.05859    0.045
 3956.00    1.54274   1.03951    0.044
 3957.00    1.31429   1.02935    0.044
 3958.00    1.08272   1.02932    0.044
 3959.00    0.79198   1.01736    0.043
 3960.00    0.52008   0.97596    0.000
 3961.00    0.46031   0.91927    0.000
 3962.00    0.41778   0.87468    0.000
 3963.00    0.51070   0.83804    0.000
 3964.00    0.55782   0.79162    0.000
 3965.00    0.33320   0.73801    0.000
 3966.00    0.14306   0.67886    0.000
 3967.00    0.11485   0.60882    0.000
 3968.00    0.19883   0.53780    0.000
 3969.00    0.71274   0.49249    0.000
 3970.00    1.07202   0.50066    0.000
 3971.00    0.93703   0.56193    0.000
 3972.00    0.82459   0.64393    0.000
 3973.00    0.77323   0.72244    0.000
 3974.00    0.65487   0.79521    0.000
 3975.00    0.38095   0.85890    0.000
 3976.00    0.18949   0.90881    0.000
 3977.00    0.16364   0.95074    0.000
 3978.00    0.35090   0.98983    0.000
 3979.00    0.91091   1.02347    0.000
 3980.00    1.12054   1.04417    0.000
 3981.00    0.79376   1.04692    0.044
 3982.00    0.69005   1.04306    0.044
 3983.00    0.88632   1.04945    0.045
 3984.00    0.92271   1.06709    0.046
 3985.00    0.76977   1.08408    0.045
 3986.00    0.75217   1.09499    0.045
 3987.00    0.87591   1.10701    0.045
 3988.00    1.04078   1.11686    0.045
 3989.00    1.24353   1.11499    0.045
 3990.00    1.46983   1.11307    0.046
 3991.00    1.71524   1.12228    0.046
 3992.00    1.55280   1.13235    0.045
 3993.00    1.09895   1.13040    0.044
 3994.00    0.84607   1.11811    0.043
 3995.00    0.71921   1.10711    0.042
 3996.00    0.74132   1.09947    0.042
 3997.00    0.84507   1.09492    0.042
 3998.00    1.17411   1.10468    0.043
 3999.00    1.61045   1.12797    0.043
 4000.00    1.69445   1.14398    0.043
 4001.00    1.63363   1.14723    0.043
 4002.00    1.24224   1.14876    0.043
 4003.00    0.73475   1.14114    0.042
 4004.00    0.48257   1.11045    0.041
 4005.00    0.30605   1.07752    0.041
 4006.00    0.31838   1.07353    0.040
 4007.00    0.37709   1.08625    0.040
 4008.00    0.56471   1.08815    0.040
 4009.00    0.77796   1.08719    0.040
 4010.00    1.02827   1.10231    0.041
 4011.00    1.28435   1.12432    0.041
 4012.00    1.34798   1.13810    0.041
 4013.00    1.38948   1.14503    0.041
 4014.00    1.28875   1.15175    0.041
 4015.00    1.17702   1.15832    0.041
 4016.00    1.06050   1.15546    0.041
 4017.00    0.94377   1.14683    0.041
 4018.00    1.08443   1.14945    0.041
 4019.00    1.22042   1.15806    0.040
 4020.00    1.04842   1.15517    0.040
 4021.00    0.88286   1.14347    0.040
 4022.00    0.83088   1.12966    0.040
 4023.00    0.79591   1.10409    0.039
 4024.00    0.94400   1.06141    0.040
 4025.00    1.02476   1.02344    0.041
 4026.00    0.59445   1.02462    0.041
 4027.00    0.22674   1.06914    0.041
 4028.00    0.22018   1.11444    0.040
 4029.00    0.26054   1.12093    0.040
 4030.00    0.51593   1.09680    0.041
 4031.00    0.73400   1.07566    0.041
 4032.00    0.81205   1.06969    0.040
 4033.00    0.93987   1.07272    0.040
 4034.00    1.22371   1.08550    0.041
 4035.00    1.39531   1.11259    0.042
 4036.00    1.26835   1.14987    0.041
 4037.00    1.27073   1.17971    0.040
 4038.00    1.56844   1.18718    0.041
 4039.00    1.61362   1.17390    0.041
 4040.00    1.15958   1.15552    0.042
 4041.00    1.03157   1.15011    0.042
 4042.00    1.46522   1.15076    0.043
 4043.00    1.52294   1.12791    0.043
 4044.00    1.01354   1.07674    0.042
 4045.00    0.67608   1.03626    0.042
 4046.00    0.56656   1.04710    0.041
 4047.00    0.60849   1.09574    0.041
 4048.00    0.82724   1.13568    0.041
 4049.00    0.91833   1.15408    0.041
 4050.00    0.87800   1.16279    0.041
 4051.00    0.88797   1.16159    0.041
 4052.00    0.94362   1.14942    0.041
 4053.00    1.02370   1.13367    0.041
 4054.00    1.12334   1.12071    0.040
 4055.00    1.00000   1.11502    0.039
 4056.00    0.71965   1.11129    0.039
 4057.00    0.76316   1.10270    0.039
 4058.00    1.00671   1.10140    0.040
 4059.00    0.93950   1.11689    0.040
 4060.00    0.70461   1.13358    0.039
 4061.00    0.82632   1.12590    0.039
 4062.00    1.11516   1.08750    0.040
 4063.00    1.17521   1.05145    0.039
 4064.00    1.14283   1.05628    0.039
 4065.00    1.18152   1.08569    0.038
 4066.00    1.24471   1.09980    0.038
 4067.00    1.22351   1.10450    0.038
 4068.00    1.17780   1.11910    0.038
 4069.00    1.25683   1.12611    0.039
 4070.00    1.36583   1.10310    0.039
 4071.00    1.42611   1.07041    0.039
 4072.00    1.47694   1.07115    0.039
 4073.00    1.15495   1.09967    0.039
 4074.00    0.77678   1.10669    0.038
 4075.00    0.79608   1.07764    0.038
 4076.00    0.85933   1.04140    0.039
 4077.00    0.97737   1.02736    0.038
 4078.00    1.09943   1.04471    0.038
 4079.00    0.95198   1.08245    0.038
 4080.00    0.79422   1.12044    0.038
 4081.00    0.87825   1.13863    0.038
 4082.00    0.96677   1.12888    0.038
 4083.00    1.17345   1.10535    0.039
 4084.00    1.35485   1.08878    0.039
 4085.00    1.11949   1.08849    0.039
 4086.00    0.92202   1.10387    0.038
 4087.00    1.11447   1.12481    0.039
 4088.00    1.31218   1.13483    0.040
 4089.00    1.54845   1.12901    0.040
 4090.00    1.76999   1.11519    0.041
 4091.00    1.90892   1.09706    0.041
 4092.00    1.90609   1.07972    0.000
 4093.00    1.26897   1.06828    0.000
 4094.00    0.79177   1.04509    0.000
 4095.00    0.90195   0.99773    0.000
 4096.00    0.92016   0.94740    0.000
 4097.00    0.65556   0.91062    0.000
 4098.00    0.58163   0.87416    0.000
 4099.00    1.00607   0.81462    0.000
 4100.00    1.31038   0.73025    0.000
 4101.00    1.34488   0.66656    0.000
 4102.00    1.40866   0.67727    0.000
 4103.00    1.52941   0.74951    0.000
 4104.00    1.64824   0.83160    0.000
 4105.00    1.76384   0.90143    0.000
 4106.00    1.67815   0.95517    0.000
 4107.00    1.29325   0.98854    0.000
 4108.00    1.01955   1.00514    0.000
 4109.00    0.89115   1.01227    0.000
 4110.00    0.83291   1.01835    0.000
 4111.00    0.85543   1.03108    0.000
 4112.00    0.85234   1.05242    0.000
 4113.00    0.82325   1.07627    0.038
 4114.00    0.93134   1.09276    0.037
 4115.00    1.16225   1.10141    0.036
 4116.00    1.16728   1.10481    0.036
 4117.00    0.99408   1.09514    0.036
 4118.00    0.82728   1.07111    0.037
 4119.00    0.66493   1.05080    0.037
 4120.00    0.68023   1.04686    0.037
 4121.00    0.80365   1.05690    0.037
 4122.00    0.90365   1.07458    0.037
 4123.00    0.99120   1.09447    0.037
 4124.00    1.08012   1.11340    0.036
 4125.00    1.16966   1.12169    0.036
 4126.00    1.08822   1.10931    0.036
 4127.00    0.93887   1.08534    0.035
 4128.00    0.86854   1.07064    0.035
 4129.00    0.82495   1.06762    0.036
 4130.00    0.98876   1.05934    0.036
 4131.00    1.21159   1.04342    0.036
 4132.00    1.37424   1.03449    0.036
 4133.00    1.52277   1.04165    0.036
 4134.00    1.57035   1.06400    0.036
 4135.00    1.59887   1.09466    0.036
 4136.00    1.57407   1.11568    0.036
 4137.00    1.54148   1.12190    0.036
 4138.00    1.38771   1.12694    0.036
 4139.00    1.22106   1.13059    0.035
 4140.00    0.98512   1.12028    0.035
 4141.00    0.74439   1.08092    0.036
 4142.00    0.84364   1.01066    0.070
 4143.00    0.95462   0.95476   35.361
 4144.00    1.07849   0.96676   -1.000
 4145.00    1.19971   1.02795   -1.000
 4146.00    1.23236   1.07889   -1.000
 4147.00    1.27011   1.09928   -1.000
 4148.00    1.38689   1.09772   -1.000
 4149.00    1.50785   1.08550   -1.000
 4150.00    1.67003   1.07896   -1.000
 4151.00    1.81487   1.08031   -1.000
 4152.00    1.83655   1.07740   -1.000
 4153.00    1.81264   1.07025    0.474
 4154.00    1.53979   1.06784    0.064
 4155.00    1.30703   1.07041    0.037
 4156.00    1.24949   1.07476    0.038
 4157.00    1.18717   1.08650    0.038
 4158.00    1.10763   1.10456    0.037
 4159.00    1.08268   1.11656    0.036
 4160.00    1.22247   1.11774    0.036
 4161.00    1.28206   1.11745    0.037
 4162.00    1.13570   1.12167    0.036
 4163.00    1.06142   1.12120    0.036
 4164.00    1.14636   1.11314    0.036
 4165.00    1.10165   1.10505    0.036
 4166.00    0.80858   1.09450    0.036
 4167.00    0.71970   1.08102    0.035
 4168.00    0.97207   1.07846    0.036
 4169.00    1.27542   1.08817    0.036
 4170.00    1.65344   1.08873    0.037
 4171.00    1.73267   1.06470    0.036
 4172.00    1.42707   1.03282    0.036
 4173.00    1.24064   1.02340    0.036
 4174.00    1.18947   1.03857    0.036
 4175.00    0.91173   1.05653    0.036
 4176.00    0.40721   1.06160    0.035
 4177.00    0.35234   1.05727    0.035
 4178.00    0.69438   1.06005    0.035
 4179.00    0.94594   1.07444    0.035
 4180.00    1.12715   1.08299    0.035
 4181.00    1.21969   1.07697    0.035
 4182.00    1.25159   1.07169    0.034
 4183.00    1.35206   1.07894    0.034
 4184.00    1.49362   1.09165    0.035
 4185.00    1.35960   1.09335    0.035
 4186.00    1.08144   1.07438    0.034
 4187.00    1.01360   1.05486    0.034
 4188.00    1.04115   1.05891    0.034
 4189.00    1.19876   1.07351    0.034
 4190.00    1.40712   1.07827    0.033
 4191.00    1.51014   1.08162    0.033
 4192.00    1.57818   1.09792    0.034
 4193.00    1.44918   1.11265    0.034
 4194.00    1.26526   1.10226    0.034
 4195.00    1.27223   1.07420    0.033
 4196.00    1.32300   1.05071    0.033
 4197.00    1.32696   1.03528    0.033
 4198.00    1.32232   1.02587    0.033
 4199.00    1.21842   1.02760    0.034
 4200.00    1.10048   1.03237    0.034
 4201.00    1.12218   1.03103    0.033
 4202.00    1.15812   1.03539    0.032
 4203.00    1.13243   1.05054    0.032
 4204.00    1.10273   1.06398    0.032
 4205.00    1.10149   1.07497    0.032
 4206.00    1.10085   1.09054    0.032
 4207.00    0.91745   1.10615    0.032
 4208.00    0.75015   1.11145    0.032
 4209.00    1.05591   1.10380    0.032
 4210.00    1.35154   1.09682    0.033
 4211.00    1.49954   1.10112    0.033
 4212.00    1.58204   1.10587    0.033
 4213.00    1.04516   1.09534    0.032
 4214.00    0.58617   1.06691    0.032
 4215.00    0.66258   1.04100    0.032
 4216.00    0.78164   1.04760    0.032
 4217.00    1.12732   1.08178    0.033
 4218.00    1.40143   1.11098    0.033
 4219.00    1.36987   1.12496    0.033
 4220.00    1.31470   1.13050    0.033
 4221.00    1.17636   1.12248    0.033
 4222.00    1.07323   1.09592    0.033
 4223.00    1.07440   1.05912    0.033
 4224.00    1.02858   1.01513    0.033
 4225.00    0.86415   0.96183    0.033
 4226.00    0.78553   0.92241    0.033
 4227.00    0.89333   0.93767    0.033
 4228.00    0.94685   1.00227    0.032
 4229.00    0.89798   1.06311    0.032
 4230.00    0.94387   1.09337    0.032
 4231.00    1.14575   1.09702    0.032
 4232.00    1.27132   1.07967    0.032
 4233.00    1.28673   1.06264    0.032
 4234.00    1.18496   1.05860    0.032
 4235.00    0.93442   1.05049    0.031
 4236.00    0.86963   1.03974    0.031
 4237.00    1.01265   1.04367    0.030
 4238.00    1.10449   1.05447    0.030
 4239.00    1.14582   1.06298    0.031
 4240.00    1.16535   1.07490    0.031
 4241.00    1.16591   1.08620    0.031
 4242.00    1.20460   1.09080    0.031
 4243.00    1.27254   1.10201    0.031
 4244.00    1.32047   1.12009    0.031
 4245.00    1.35491   1.11991    0.032
 4246.00    1.20965   1.09554    0.032
 4247.00    0.95828   1.06780    0.032
 4248.00    0.78574   1.04981    0.032
 4249.00    0.65377   1.03580    0.033
 4250.00    0.72255   1.02953    0.033
 4251.00    0.88089   1.04321    0.032
 4252.00    0.98609   1.05735    0.032
 4253.00    1.07090   1.04594    0.032
 4254.00    1.19568   1.02827    0.032
 4255.00    1.33350   1.03831    0.032
 4256.00    1.19052   1.07031    0.032
 4257.00    0.97090   1.08578    0.032
 4258.00    1.14705   1.06529    0.032
 4259.00    1.41189   1.02968    0.032
 4260.00    1.33875   1.00995    0.032
 4261.00    1.20517   1.02499    0.032
 4262.00    1.07358   1.06551    0.032
 4263.00    0.94226   1.10033    0.032
 4264.00    0.86024   1.11448    0.032
 4265.00    0.78303   1.10965    0.031
 4266.00    0.77811   1.08458    0.031
 4267.00    0.77761   1.05581    0.031
 4268.00    0.97515   1.04579    0.030
 4269.00    1.17757   1.03742    0.030
 4270.00    1.28959   1.00602    0.030
 4271.00    1.38936   0.97118    0.031
 4272.00    1.16528   0.96608    0.031
 4273.00    0.94812   0.97966    0.030
 4274.00    0.82601   0.98777    0.030
 4275.00    0.71187   1.00456    0.029
 4276.00    0.67002   1.04148    0.030
 4277.00    0.65336   1.07768    0.030
 4278.00    0.80439   1.08961    0.030
 4279.00    0.92194   1.07225    0.030
 4280.00    0.86612   1.04819    0.030
 4281.00    0.83421   1.04216    0.030
 4282.00    0.90207   1.04984   -2.000
 4283.00    1.05119   1.05661   -2.000
 4284.00    1.48082   1.05044   -2.000
 4285.00    1.77462   1.03412   -2.000
 4286.00    1.67360   1.02724   -2.000
 4287.00    1.44731   1.02678   -2.000
 4288.00    0.91034   1.00876   -2.000
 4289.00    0.53652   0.97758   -2.000
 4290.00    0.51148   0.96829   -2.000
 4291.00    0.60915   0.99479   -2.000
 4292.00    0.93467   1.03112   -2.000
 4293.00    1.15231   1.04350   -2.000
 4294.00    1.19498   1.03238   -2.000
 4295.00    1.17583   1.02289   -2.000
 4296.00    1.06874   1.01517   -2.000
 4297.00    1.01845   0.99456   -2.000
 4298.00    1.03924   0.95872    0.032
 4299.00    1.12070   0.92285    0.032
 4300.00    1.26907   0.91185    0.031
 4301.00    1.21959   0.92116    0.031
 4302.00    0.97763   0.92650    0.031
 4303.00    0.89706   0.92932    0.031
 4304.00    0.95496   0.93676    0.031
 4305.00    1.01184   0.93846    0.031
 4306.00    1.06794   0.92602    0.030
 4307.00    1.10898   0.90248    0.030
 4308.00    1.14002   0.88648    0.031
 4309.00    0.99714   0.89500    0.031
 4310.00    0.75312   0.92036    0.031
 4311.00    0.72292   0.94697    0.030
 4312.00    0.80108   0.96892    0.030
 4313.00    0.78011   0.98803    0.030
 4314.00    0.71563   1.01568    0.029
 4315.00    0.83286   1.06458    0.029
 4316.00    1.01854   1.11712    0.030
 4317.00    1.08479   1.14114    0.030
 4318.00    1.11285   1.13706    0.031
 4319.00    1.22589   1.12336    0.031
 4320.00    1.36163   1.10756    0.031
 4321.00    1.23854   1.09009    0.031
 4322.00    1.05880   1.06121    0.032
 4323.00    0.94330   1.01013    0.031
 4324.00    0.83897   0.95143    0.031
 4325.00    0.89067   0.91905    0.031
 4326.00    0.96302   0.94168    0.031
 4327.00    1.06598   1.00607    0.031
 4328.00    1.17180   1.05952    0.032
 4329.00    1.06043   1.07025    0.031
 4330.00    0.93663   1.05470    0.000
 4331.00    1.10520   1.04278    0.000
 4332.00    1.27888   1.03840    0.000
 4333.00    1.25663   1.03214    0.000
 4334.00    1.23559   1.02367    0.000
 4335.00    1.24344   1.00097    0.000
 4336.00    1.26093   0.93949    0.000
 4337.00    1.40382   0.84777    0.000
 4338.00    1.47759   0.75926    0.000
 4339.00    0.94758   0.68713    0.000
 4340.00    0.50070   0.65643    0.000
 4341.00    0.59083   0.70150    0.000
 4342.00    0.69071   0.78949    0.000
 4343.00    0.83976   0.86018    0.000
 4344.00    0.99442   0.91021    0.000
 4345.00    1.17200   0.95349    0.000
 4346.00    1.29430   0.98216    0.000
 4347.00    1.22958   1.00379    0.000
 4348.00    1.15768   1.03292    0.000
 4349.00    1.06535   1.04833    0.000
 4350.00    1.01470   1.01983    0.000
 4351.00    1.06566   0.97168    0.030
 4352.00    1.13864   0.96180    0.030
 4353.00    1.25794   0.99665    0.030
 4354.00    1.34831   1.03436    0.030
 4355.00    1.38579   1.05918    0.030
 4356.00    1.30617   1.08002    0.030
 4357.00    1.03945   1.08687    0.030
 4358.00    0.91131   1.07110    0.030
 4359.00    0.97745   1.05841    0.030
 4360.00    1.05337   1.07270    0.030
 4361.00    1.14138   1.09811    0.030
 4362.00    1.23454   1.11092    0.030
 4363.00    1.33331   1.11663    0.029
 4364.00    1.37891   1.12840    0.029
 4365.00    1.37350   1.13121    0.029
 4366.00    1.27704   1.10747    0.029
 4367.00    1.10356   1.07705    0.028
 4368.00    0.93787   1.06805    0.028
 4369.00    0.77797   1.07534    0.029
 4370.00    0.70592   1.08066    0.029
 4371.00    0.69137   1.08086    0.029
 4372.00    0.75889   1.07235    0.029
 4373.00    0.87342   1.04762    0.029
 4374.00    0.90729   1.01947    0.029
 4375.00    0.90092   1.01648    0.029
 4376.00    0.93517   1.04702    0.029
 4377.00    0.98694   1.08577    0.029
 4378.00    0.85097   1.10361    0.028
 4379.00    0.64554   1.09885    0.028
 4380.00    0.61688   1.08485    0.028
 4381.00    0.64364   1.05366    0.028
 4382.00    0.76223   0.98842    0.028
 4383.00    0.90485   0.91820    0.028
 4384.00    0.90847   0.90174    0.028
 4385.00    0.88240   0.94411    0.028
 4386.00    0.85493   0.98697    0.027
 4387.00    0.82724   0.99446    0.027
 4388.00    0.88488   0.99247    0.027
 4389.00    0.95342   1.00285    0.028
 4390.00    1.07036   1.01872    0.028
 4391.00    1.19161   1.04025    0.027
 4392.00    1.23806   1.06270    0.028
 4393.00    1.28053   1.06594    0.028
 4394.00    1.32272   1.05216    0.056
 4395.00    1.36369   1.05367   -1.000
 4396.00    1.30567   1.08376   -1.000
 4397.00    1.24542   1.11116   -1.000
 4398.00    1.13642   1.10615   -1.000
 4399.00    1.02475   1.07656   -1.000
 4400.00    0.88016   1.05457   -1.000
 4401.00    0.73078   1.06407   -1.000
 4402.00    0.54102   1.07891   -1.000
 4403.00    0.39525   1.05205   -1.000
 4404.00    0.52516   1.00308   -1.000
 4405.00    0.64890   0.99243    0.320
 4406.00    0.74227   1.01733    0.046
 4407.00    0.83453   1.03175    0.028
 4408.00    0.92242   1.03680    0.028
 4409.00    1.00085   1.06114    0.028
 4410.00    1.04795   1.09723    0.027
 4411.00    1.05350   1.12254    0.027
 4412.00    0.94260   1.12979    0.027
 4413.00    0.84745   1.10695    0.027
 4414.00    0.79007   1.05610    0.027
 4415.00    0.79271   1.02044    0.027
 4416.00    0.91957   1.02793    0.028
 4417.00    0.98069   1.06035    0.028
 4418.00    0.92347   1.09665    0.028
 4419.00    0.89515   1.12252    0.028
 4420.00    0.91231   1.12298    0.028
 4421.00    0.92622   1.10032    0.028
 4422.00    0.93562   1.07886    0.027
 4423.00    0.95359   1.07904    0.027
 4424.00    0.98198   1.09031    0.028
 4425.00    1.00992   1.09214    0.028
 4426.00    1.03738   1.08628    0.028
 4427.00    1.11671   1.08659    0.028
 4428.00    1.24511   1.09161    0.028
 4429.00    1.22828   1.08516    0.028
 4430.00    1.09034   1.07486    0.028
 4431.00    0.99272   1.08161    0.028
 4432.00    0.92470   1.08885    0.028
 4433.00    0.88730   1.07056    0.028
 4434.00    0.86964   1.03820    0.028
 4435.00    0.94736   1.02496    0.029
 4436.00    1.07887   1.04636    0.029
 4437.00    1.12531   1.08754    0.029
 4438.00    1.12999   1.12419    0.028
 4439.00    1.21500   1.13656    0.029
 4440.00    1.33410   1.11667    0.029
 4441.00    1.25572   1.07890    0.029
 4442.00    1.10557   1.04971    0.029
 4443.00    1.11889   1.04943    0.029
 4444.00    1.18248   1.07955    0.029
 4445.00    1.08452   1.11426    0.029
 4446.00    0.94520   1.12545    0.029
 4447.00    0.96681   1.12144    0.029
 4448.00    1.02197   1.12109    0.029
 4449.00    1.06080   1.11701    0.029
 4450.00    1.09695   1.10839    0.029
 4451.00    1.09460   1.10749    0.028
 4452.00    1.08752   1.10488    0.028
 4453.00    1.13560   1.08311    0.028
 4454.00    1.18837   1.04898    0.028
 4455.00    1.12439   1.03018    0.028
 4456.00    1.05464   1.03763    0.027
 4457.00    0.81175   1.04968    0.027
 4458.00    0.57427   1.04943    0.027
 4459.00    0.84936   1.04267    0.027
 4460.00    1.10455   1.03357    0.028
 4461.00    0.95674   1.02583    0.000
 4462.00    0.81595   1.03789    0.000
 4463.00    0.75763   1.06818    0.000
 4464.00    0.72159   1.08708    0.000
 4465.00    0.86616   1.08662    0.000
 4466.00    0.98703   1.08079    0.000
 4467.00    0.96369   1.07227    0.000
 4468.00    0.95900   1.05445    0.000
 4469.00    1.04376   1.02874    0.000
 4470.00    1.12838   1.00566    0.000
 4471.00    1.21246   1.00429    0.000
 4472.00    1.24988   1.04052    0.000
 4473.00    1.13561   1.09359    0.000
 4474.00    1.06524   1.12585    0.000
 4475.00    1.11561   1.13661    0.000
 4476.00    1.16251   1.14936    0.000
 4477.00    1.20122   1.16251    0.000
 4478.00    1.23103   1.15154    0.000
 4479.00    1.24269   1.10803    0.000
 4480.00    1.24021   1.05584    0.000
 4481.00    1.21267   1.03239    0.000
 4482.00    1.23832   1.05441    0.027
 4483.00    1.34646   1.10140    0.027
 4484.00    1.30886   1.14089    0.027
 4485.00    1.07276   1.16074    0.027
 4486.00    0.99610   1.16081    0.027
 4487.00    1.11060   1.13982    0.028
 4488.00    1.14630   1.10576    0.028
 4489.00    1.09869   1.08185    0.027
 4490.00    1.10438   1.08649    0.027
 4491.00    1.15978   1.11128    0.028
 4492.00    1.12297   1.12733    0.027
 4493.00    1.01035   1.11513    0.027
 4494.00    0.94133   1.08778    0.027
 4495.00    0.90387   1.07349    0.027
 4496.00    1.02718   1.08279    0.027
 4497.00    1.25261   1.10858    0.027
 4498.00    1.27720   1.13461    0.027
 4499.00    1.19024   1.14353    0.027
 4500.00    1.08464   1.13243    0.027
 4501.00    0.97003   1.12379    0.027
 4502.00    0.95085   1.14359    0.027
 4503.00    0.97149   1.17872    0.027
 4504.00    1.16656   1.19636    0.027
 4505.00    1.42388   1.18982    0.027
 4506.00    1.53986   1.17256    0.027
 4507.00    1.61321   1.15846    0.027
 4508.00    1.36051   1.15612    0.027
 4509.00    1.02615   1.16413    0.026
 4510.00    1.12801   1.17028    0.026
 4511.00    1.31855   1.16234    0.026
 4512.00    1.30236   1.14375    0.026
 4513.00    1.25319   1.12708    0.027
 4514.00    1.19515   1.11954    0.026
 4515.00    1.13606   1.12242    0.026
 4516.00    1.08734   1.12612    0.026
 4517.00    1.03947   1.12077    0.026
 4518.00    1.21680   1.11868    0.026
 4519.00    1.40438   1.13215    0.027
 4520.00    1.19287   1.14892    0.026
 4521.00    0.98258   1.14694    0.026
 4522.00    1.08470   1.12409    0.026
 4523.00    1.17336   1.10512    0.026
 4524.00    1.00921   1.09771    0.026
 4525.00    0.87709   1.08508    0.026
 4526.00    1.10384   1.06310    0.026
 4527.00    1.28996   1.04032    0.026
 4528.00    1.15813   1.02661    0.026
 4529.00    1.03801   1.02950    0.026
 4530.00    0.98712   1.04633    0.026
 4531.00    0.97171   1.06738    0.026
 4532.00    1.12238   1.07638    0.026
 4533.00    1.21918   1.06059    0.026
 4534.00    1.11004   1.03744    0.026
 4535.00    1.01013   1.04061    0.026
 4536.00    0.93965   1.08208    0.026
 4537.00    0.92964   1.13051    0.026
 4538.00    1.08302   1.14585    0.026
 4539.00    1.20859   1.12860    0.026
 4540.00    1.26973   1.10570    0.026
 4541.00    1.30898   1.10042    0.026
 4542.00    1.30435   1.11311    0.026
 4543.00    1.30629   1.11888    0.026
 4544.00    1.31968   1.10704    0.026
 4545.00    1.23976   1.09852    0.026
 4546.00    1.01723   1.10337    0.026
 4547.00    0.94571   1.10332    0.026
 4548.00    1.07693   1.08631    0.026
 4549.00    1.11343   1.07185    0.026
 4550.00    1.03798   1.08103    0.000
 4551.00    1.00826   1.09341    0.000
 4552.00    1.02620   1.08581    0.000
 4553.00    1.05349   1.07019    0.000
 4554.00    1.08938   1.06245    0.000
 4555.00    1.14946   1.07213    0.000
 4556.00    1.22914   1.10150    0.000
 4557.00    1.19249   1.13317    0.000
 4558.00    1.07287   1.14878    0.000
 4559.00    0.96367   1.15059    0.000
 4560.00    0.86100   1.14985    0.000
 4561.00    0.82707   1.14885    0.000
 4562.00    0.83073   1.13674    0.000
 4563.00    0.95973   1.11080    0.000
 4564.00    1.14830   1.08968    0.000
 4565.00    1.17047   1.09126    0.000
 4566.00    1.12440   1.11438    0.000
 4567.00    1.06879   1.14050    0.000
 4568.00    1.00983   1.15292    0.000
 4569.00    0.98493   1.14799    0.000
 4570.00    0.97010   1.12494    0.000
 4571.00    1.01017   1.10212    0.000
 4572.00    1.06369   1.11063    0.000
 4573.00    1.07627   1.13754    0.000
 4574.00    1.08073   1.14719    0.000
 4575.00    1.07087   1.14324    0.000
 4576.00    1.05880   1.14277    0.000
 4577.00    1.11185   1.13937    0.000
 4578.00    1.17235   1.12180    0.000
 4579.00    1.08092   1.09503    0.000
 4580.00    0.97783   1.07790    0.000
 4581.00    1.13632   1.08131    0.000
 4582.00    1.30569   1.09242    0.000
 4583.00    1.19507   1.09523    0.000
 4584.00    1.08319   1.09226    0.000
 4585.00    1.02187   1.09133    0.000
 4586.00    0.96976   1.09907    0.000
 4587.00    1.07859   1.11862    0.000
 4588.00    1.18399   1.13792    0.000
 4589.00    1.25284   1.14151    0.000
 4590.00    1.31159   1.12674    0.000
 4591.00    1.29411   1.10574    0.000
 4592.00    1.26921   1.09432    0.000
 4593.00    1.20163   1.09347    0.000
 4594.00    1.12681   1.09284    0.000
 4595.00    1.01889   1.09155    0.000
 4596.00    0.94383   1.09523    0.000
 4597.00    0.99169   1.10336    0.000
 4598.00    1.02188   1.11128    0.000
 4599.00    0.99681   1.10938    0.000
 4600.00    0.96802   1.09753    0.000
 4601.00    0.92933   1.09335    0.000
 4602.00    0.94613   1.10148    0.000
 4603.00    1.08938   1.10953    0.000
 4604.00    1.16118   1.11009    0.000
 4605.00    1.09202   1.10731    0.000
 4606.00    1.07690   1.11362    0.000
 4607.00    1.15472   1.13478    0.000
 4608.00    1.18073   1.16035    0.000
 4609.00    1.12876   1.17151    0.000
 4610.00    1.05169   1.16303    0.000
 4611.00    0.94143   1.14758    0.000
 4612.00    0.99567   1.13549    0.000
 4613.00    1.24164   1.13221    0.000
 4614.00    1.32039   1.13995    0.000
 4615.00    1.22728   1.14719    0.000
 4616.00    1.21100   1.14799    0.000
 4617.00    1.26437   1.14608    0.000
 4618.00    1.25336   1.13630    0.000
 4619.00    1.19091   1.12733    0.000
 4620.00    1.14867   1.13527    0.000
 4621.00    1.12064   1.14877    0.000
 4622.00    1.13614   1.15335    0.000
 4623.00    1.17847   1.15401    0.000
 4624.00    1.15769   1.15154    0.000
 4625.00    1.10292   1.14430    0.000
 4626.00    1.10485   1.14041    0.000
 4627.00    1.13330   1.13936    0.000
 4628.00    1.15475   1.13090    0.000
 4629.00    1.17339   1.12287    0.000
 4630.00    1.14218   1.13163    0.000
 4631.00    1.09383   1.14485    0.000
 4632.00    1.06039   1.13911    0.000
 4633.00    1.03126   1.12222    0.000
 4634.00    1.07389   1.11462    0.000
 4635.00    1.13371   1.11487    0.000
 4636.00    1.14167   1.11041    0.000
 4637.00    1.13962   1.09858    0.000
 4638.00    1.11745   1.08748    0.000
 4639.00    1.09226   1.08428    0.000
 4640.00    1.07943   1.09365    0.000
 4641.00    1.06795   1.11161    0.000
 4642.00    1.11885   1.12234    0.000
 4643.00    1.17428   1.11974    0.000
 4644.00    1.13617   1.10705    0.000
 4645.00    1.09453   1.08257    0.000
 4646.00    1.07236   1.05476    0.000
 4647.00    1.05043   1.04352    0.000
 4648.00    1.03335   1.05369    0.000
 4649.00    1.01731   1.07417    0.000
 4650.00    1.01841   1.09366    0.000
 4651.00    1.02007   1.10837    0.000
 4652.00    1.02740   1.11762    0.000
 4653.00    1.03631   1.11268    0.000
 4654.00    1.05665   1.09323    0.000
 4655.00    1.07641   1.07848    0.000
 4656.00    1.09287   1.08332    0.000
 4657.00    1.12058   1.11014    0.000
 4658.00    1.19844   1.14725    0.000
 4659.00    1.25425   1.17143    0.000
 4660.00    1.22933   1.16856    0.000
 4661.00    1.19504   1.14423    0.000
 4662.00    1.13203   1.11715    0.000
 4663.00    1.06334   1.10378    0.000
 4664.00    0.97985   1.10119    0.000
 4665.00    0.94053   1.08627    0.000
 4666.00    1.00019   1.04872    0.000
 4667.00    1.02537   1.01614    0.000
 4668.00    0.98358   1.01893    0.000
 4669.00    0.97470   1.05075    0.000
 4670.00    1.02154   1.08658    0.000
 4671.00    1.04606   1.10828    0.000
 4672.00    1.03749   1.10974    0.000
 4673.00    1.04130   1.10179    0.000
 4674.00    1.06128   1.10125    0.000
 4675.00    1.07554   1.11362    0.000
 4676.00    1.08325   1.12724    0.000
 4677.00    1.10464   1.12523    0.000
 4678.00    1.13991   1.10788    0.000
 4679.00    1.12990   1.08880    0.000
 4680.00    1.07942   1.07597    0.000
 4681.00    1.15193   1.07290    0.000
 4682.00    1.32129   1.08376    0.000
 4683.00    1.24783   1.10119    0.000
 4684.00    1.00618   1.10939    0.000
 4685.00    0.98424   1.10709    0.000
 4686.00    1.09572   1.10269    0.000
 4687.00    1.11399   1.10049    0.000
 4688.00    1.08282   1.10278    0.000
 4689.00    1.12904   1.10484    0.000
 4690.00    1.21087   1.10051    0.000
 4691.00    1.11977   1.09778    0.000
 4692.00    0.96016   1.10504    0.000
 4693.00    0.87865   1.11715    0.000
 4694.00    0.82351   1.12996    0.000
 4695.00    0.88896   1.14122    0.000
 4696.00    0.98862   1.13957    0.000
 4697.00    1.07261   1.11647    0.000
 4698.00    1.15294   1.08703    0.000
 4699.00    0.99763   1.07621    0.000
 4700.00    0.79799   1.08119    0.000
 4701.00    0.81383   1.07966    0.000
 4702.00    0.86100   1.06930    0.000
 4703.00    0.99132   1.06829    0.000
 4704.00    1.13042   1.08227    0.000
 4705.00    1.11980   1.09286    0.000
 4706.00    1.09889   1.08622    0.000
 4707.00    1.12953   1.07073    0.000
 4708.00    1.16193   1.06122    0.000
 4709.00    1.11629   1.06676    0.000
 4710.00    1.07391   1.08762    0.000
 4711.00    1.14172   1.10377    0.000
 4712.00    1.20139   1.09465    0.000
 4713.00    1.13605   1.07274    0.000
 4714.00    1.07156   1.06519    0.000
 4715.00    1.01530   1.08131    0.000
 4716.00    0.96568   1.10773    0.000
 4717.00    0.96306   1.12767    0.000
 4718.00    0.94722   1.13900    0.000
 4719.00    0.85948   1.14724    0.000
 4720.00    0.81991   1.14980    0.000
 4721.00    0.99021   1.14318    0.000
 4722.00    1.14621   1.13517    0.000
 4723.00    1.25095   1.13831    0.000
 4724.00    1.27672   1.14957    0.000
 4725.00    1.06477   1.14919    0.000
 4726.00    0.91445   1.12329    0.000
 4727.00    0.92201   1.08497    0.000
 4728.00    0.93588   1.06235    0.000
 4729.00    0.96366   1.06210    0.000
 4730.00    0.96599   1.07029    0.000
 4731.00    0.91968   1.08101    0.000
 4732.00    0.90592   1.09418    0.000
 4733.00    0.94643   1.10561    0.000
 4734.00    1.04622   1.11353    0.000
 4735.00    1.23266   1.11188    0.000
 4736.00    1.34711   1.10080    0.000
 4737.00    1.36902   1.10120    0.000
 4738.00    1.35832   1.11571    0.000
 4739.00    1.31070   1.12029    0.000
 4740.00    1.27912   1.11076    0.000
 4741.00    1.26357   1.10622    0.000
 4742.00    1.17598   1.11498    0.000
 4743.00    1.02490   1.12522    0.000
 4744.00    0.92383   1.12640    0.000
 4745.00    0.86157   1.12683    0.000
 4746.00    0.94965   1.13475    0.000
 4747.00    1.14035   1.14089    0.000
 4748.00    1.14683   1.13988    0.000
 4749.00    1.04309   1.13901    0.000
 4750.00    0.98007   1.13908    0.000
 4751.00    0.93829   1.13313    0.000
 4752.00    0.95076   1.12183    0.000
 4753.00    0.98777   1.11168    0.000
 4754.00    1.00148   1.10580    0.000
 4755.00    1.00612   1.10360    0.000
 4756.00    0.97804   1.10310    0.000
 4757.00    0.93912   1.10485    0.000
 4758.00    1.02967   1.11025    0.000
 4759.00    1.15621   1.11706    0.000
 4760.00    1.17976   1.11408    0.000
 4761.00    1.17975   1.09375    0.023
 4762.00    1.10422   1.06988    0.023
 4763.00    1.01486   1.05785    0.024
 4764.00    1.03422   1.05279    0.023
 4765.00    1.06889   1.04883    0.023
 4766.00    1.08842   1.05326    0.023
 4767.00    1.10641   1.06949    0.022
 4768.00    1.11679   1.09063    0.023
 4769.00    1.12668   1.10741    0.023
 4770.00    1.00878   1.10876    0.023
 4771.00    0.88754   1.09639    0.023
 4772.00    1.02718   1.09096    0.023
 4773.00    1.15633   1.10401    0.023
 4774.00    0.98155   1.12200    0.023
 4775.00    0.82626   1.12826    0.022
 4776.00    0.95249   1.12700    0.022
 4777.00    1.07520   1.12664    0.023
 4778.00    1.16483   1.12200    0.022
 4779.00    1.23624   1.11292    0.022
 4780.00    1.18286   1.10777    0.022
 4781.00    1.14254   1.10365    0.022
 4782.00    1.17143   1.09308    0.022
 4783.00    1.19544   1.08513    0.022
 4784.00    1.19863   1.08788    0.022
 4785.00    1.18159   1.08676    0.022
 4786.00    1.09342   1.07772    0.022
 4787.00    1.01256   1.07572    0.022
 4788.00    0.95329   1.07810    0.022
 4789.00    0.93744   1.07860    0.022
 4790.00    1.03094   1.08370    0.022
 4791.00    1.10063   1.09336    0.022
 4792.00    1.11871   1.10719    0.022
 4793.00    1.11483   1.12769    0.022
 4794.00    1.06963   1.14591    0.022
 4795.00    1.07003   1.14946    0.022
 4796.00    1.14533   1.13776    0.023
 4797.00    1.14921   1.11754    0.023
 4798.00    1.05017   1.09661    0.023
 4799.00    1.00465   1.08621    0.022
 4800.00    1.02695   1.09432    0.022
 4801.00    1.01851   1.11461    0.023
 4802.00    0.97574   1.12981    0.023
 4803.00    1.00899   1.12720    0.023
 4804.00    1.11713   1.11040    0.023
 4805.00    1.17478   1.09553    0.023
 4806.00    1.18856   1.08939    0.022
 4807.00    1.13317   1.08573    0.022
 4808.00    1.02483   1.08600    0.022
 4809.00    1.02350   1.09326    0.022
 4810.00    1.09414   1.10022    0.022
 4811.00    1.11447   1.10221    0.022
 4812.00    1.10513   1.10286    0.022
 4813.00    1.09913   1.10497    0.022
 4814.00    1.09483   1.10804    0.022
 4815.00    1.11113   1.11305    0.022
 4816.00    1.13661   1.12120    0.022
 4817.00    0.99718   1.12921    0.022
 4818.00    0.79467   1.13313    0.022
 4819.00    0.89785   1.13253    0.022
 4820.00    1.10042   1.12872    0.022
 4821.00    1.13275   1.11913    0.022
 4822.00    1.11872   1.09650    0.022
 4823.00    1.13718   1.07205    0.022
 4824.00    1.16291   1.07183    0.022
 4825.00    1.12600   1.09279    0.022
 4826.00    1.07793   1.10725    0.022
 4827.00    1.00413   1.10351    0.022
 4828.00    0.92682   1.09349    0.022
 4829.00    0.91876   1.09037    0.022
 4830.00    0.91743   1.08829    0.022
 4831.00    0.93901   1.07815    0.022
 4832.00    0.96199   1.07366    0.022
 4833.00    0.94977   1.08590    0.022
 4834.00    0.93672   1.09947    0.022
 4835.00    0.94366   1.10173    0.022
 4836.00    0.95220   1.09974    0.021
 4837.00    1.00276   1.09685    0.022
 4838.00    1.04898   1.08502    0.022
 4839.00    1.03609   1.06850    0.022
 4840.00    1.03946   1.06285    0.022
 4841.00    1.18970   1.06747    0.022
 4842.00    1.31292   1.06760    0.021
 4843.00    1.25685   1.06590    0.021
 4844.00    1.18506   1.07608    0.021
 4845.00    1.03213   1.09019    0.021
 4846.00    0.92520   1.08862    0.021
 4847.00    1.00972   1.06831    0.021
 4848.00    1.08139   1.04790    0.000
 4849.00    1.10878   1.04608    0.000
 4850.00    1.13830   1.05407    0.000
 4851.00    1.17398   1.05372    0.000
 4852.00    1.16778   1.04429    0.000
 4853.00    1.05790   1.02342    0.000
 4854.00    0.97628   0.98622    0.000
 4855.00    0.95497   0.95272    0.000
 4856.00    0.94209   0.94373    0.000
 4857.00    0.94481   0.93875    0.000
 4858.00    0.94163   0.90126    0.000
 4859.00    0.92887   0.82262    0.000
 4860.00    0.89654   0.73385    0.000
 4861.00    0.83643   0.69823    0.000
 4862.00    0.80701   0.74595    0.000
 4863.00    0.81593   0.82636    0.000
 4864.00    0.81287   0.88722    0.000
 4865.00    0.79661   0.92990    0.000
 4866.00    0.83307   0.96292    0.000
 4867.00    0.92072   0.98494    0.000
 4868.00    0.94710   0.99908    0.000
 4869.00    0.92101   1.00007    0.000
 4870.00    0.86742   0.97907    0.000
 4871.00    0.79308   0.95888    0.000
 4872.00    0.73408   0.97101    0.000
 4873.00    0.68524   1.00340    0.000
 4874.00    0.70905   1.02458    0.000
 4875.00    0.77504   1.03304    0.021
 4876.00    0.86150   1.04292    0.021
 4877.00    0.95831   1.05619    0.021
 4878.00    0.97865   1.07332    0.021
 4879.00    0.96550   1.08792    0.021
 4880.00    1.00927   1.08156    0.021
 4881.00    1.07444   1.06236    0.021
 4882.00    1.05933   1.05706    0.021
 4883.00    1.01861   1.06107    0.021
 4884.00    0.96023   1.05304    0.021
 4885.00    0.89715   1.03721    0.020
 4886.00    0.93077   1.03273    0.021
 4887.00    0.98549   1.04068    0.021
 4888.00    0.92549   1.04416    0.021
 4889.00    0.84560   1.03025    0.020
 4890.00    0.81104   1.00711    0.020
 4891.00    0.78244   1.00703    0.020
 4892.00    0.86324   1.04570    0.021
 4893.00    0.95421   1.09539    0.021
 4894.00    0.95589   1.13002    0.021
 4895.00    0.95252   1.14710    0.021
 4896.00    1.01250   1.15111    0.021
 4897.00    1.07269   1.14637    0.022
 4898.00    0.99815   1.13057    0.021
 4899.00    0.92841   1.10723    0.021
 4900.00    0.97247   1.09533    0.021
 4901.00    1.01783   1.09717    0.021
 4902.00    1.07989   1.09385    0.021
 4903.00    1.12481   1.08735    0.021
 4904.00    1.02061   1.09716    0.021
 4905.00    0.93724   1.11989    0.021
 4906.00    0.98788   1.13121    0.021
 4907.00    1.02510   1.11988    0.021
 4908.00    0.99484   1.09440    0.021
 4909.00    0.98439   1.06780    0.021
 4910.00    1.05458   1.05496    0.021
 4911.00    1.09128   1.06377    0.021
 4912.00    1.01500   1.08253    0.021
 4913.00    0.98411   1.09830    0.021
 4914.00    1.08245   1.11307    0.021
 4915.00    1.13214   1.12449    0.021
 4916.00    1.06347   1.11594    0.021
 4917.00    1.00519   1.07804    0.021
 4918.00    0.96870   1.02223    0.021
 4919.00    0.94596   0.97202    0.021
 4920.00    0.94828   0.94799    0.021
 4921.00    0.93081   0.96001    0.022
 4922.00    0.88179   0.99340    0.021
 4923.00    0.90822   1.01884    0.021
 4924.00    1.04027   1.03350    0.022
 4925.00    1.07805   1.05726    0.022
 4926.00    0.99976   1.08965    0.021
 4927.00    0.97036   1.11305    0.021
 4928.00    0.99404   1.12738    0.022
 4929.00    1.00673   1.13693    0.022
 4930.00    1.00888   1.13848    0.022
 4931.00    1.00589   1.12768    0.022
 4932.00    0.99855   1.09851    0.021
 4933.00    0.99491   1.06592    0.021
 4934.00    0.99401   1.06177    0.021
 4935.00    1.06595   1.07979    0.021
 4936.00    1.18545   1.08034    0.021
 4937.00    1.09523   1.05252    0.021
 4938.00    0.88512   1.02598    0.021
 4939.00    0.89707   1.03252    0.021
 4940.00    1.01957   1.06796    0.000
 4941.00    1.05204   1.09944    0.000
 4942.00    1.04574   1.11412    0.000
 4943.00    1.05801   1.12271    0.000
 4944.00    1.07715   1.12383    0.000
 4945.00    1.08760   1.11563    0.000
 4946.00    1.09532   1.11359    0.000
 4947.00    1.08413   1.12407    0.000
 4948.00    1.06801   1.13489    0.000
 4949.00    1.08493   1.14005    0.000
 4950.00    1.10890   1.14293    0.000
 4951.00    1.12885   1.14092    0.000
 4952.00    1.14813   1.13031    0.000
 4953.00    1.07658   1.11728    0.000
 4954.00    0.99347   1.10426    0.000
 4955.00    1.02946   1.07740    0.000
 4956.00    1.07601   1.02696    0.000
 4957.00    0.98713   0.98652    0.000
 4958.00    0.89111   1.00247    0.000
 4959.00    0.94434   1.05636    0.000
 4960.00    1.00106   1.09356    0.000
 4961.00    1.10788   1.10069    0.000
 4962.00    1.20702   1.09870    0.000
 4963.00    1.13893   1.09499    0.000
 4964.00    1.07764   1.08004    0.000
 4965.00    1.09992   1.05926    0.000
 4966.00    1.11265   1.04907    0.000
 4967.00    1.04549   1.05011    0.000
 4968.00    0.98868   1.05471    0.000
 4969.00    0.99656   1.06051    0.000
 4970.00    1.01967   1.06876    0.000
 4971.00    1.11746   1.08113    0.000
 4972.00    1.19164   1.09433    0.000
 4973.00    1.17187   1.10456    0.000
 4974.00    1.14605   1.10951    0.000
 4975.00    1.10024   1.10604    0.000
 4976.00    1.05332   1.09541    0.000
 4977.00    1.00332   1.07952    0.000
 4978.00    0.95944   1.06322    0.000
 4979.00    0.93017   1.05273    0.000
 4980.00    0.89783   1.03870    0.000
 4981.00    0.85915   1.01012    0.000
 4982.00    0.88389   0.98204    0.000
 4983.00    1.02259   0.97764    0.000
 4984.00    1.08516   0.99509    0.000
 4985.00    1.02812   1.01995    0.000
 4986.00    0.93511   1.04740    0.000
 4987.00    0.79252   1.06949    0.000
 4988.00    0.75234   1.07380    0.000
 4989.00    0.83651   1.06273    0.000
 4990.00    0.91129   1.05103    0.000
 4991.00    0.97604   1.05158    0.000
 4992.00    1.01640   1.05930    0.000
 4993.00    1.03373   1.06102    0.000
 4994.00    0.98487   1.06355    0.000
 4995.00    0.88092   1.07294    0.000
 4996.00    0.86238   1.07795    0.000
 4997.00    0.90643   1.07184    0.000
 4998.00    0.95581   1.05357    0.000
 4999.00    1.00860   1.02837    0.000
 5000.00    1.00201   1.01168    0.000
 5001.00    0.96200   1.01073    0.000
 5002.00    0.95986   1.01885    0.000
 5003.00    0.97627   1.02306    0.000
 5004.00    0.99299   1.01105    0.000
 5005.00    1.00984   0.98900    0.000
 5006.00    0.95467   0.98366    0.000
 5007.00    0.87340   1.00821    0.000
 5008.00    0.93075   1.03999    0.000
 5009.00    1.03062   1.05185    0.000
 5010.00    1.08032   1.04126    0.000
 5011.00    1.11721   1.01610    0.000
 5012.00    0.98743   0.98507    0.000
 5013.00    0.82302   0.96045    0.000
 5014.00    0.80483   0.95263    0.000
 5015.00    0.81058   0.96432    0.000
 5016.00    0.83879   0.98163    0.000
 5017.00    0.86975   0.98979    0.000
 5018.00    0.90101   0.99648    0.000
 5019.00    0.93230   1.01097    0.000
 5020.00    0.96910   1.02134    0.000
 5021.00    1.00618   1.01681    0.000
 5022.00    0.93693   1.01265    0.000
 5023.00    0.86707   1.02467    0.000
 5024.00    0.85971   1.04108    0.000
 5025.00    0.85229   1.04486    0.000
 5026.00    0.84345   1.03444    0.000
 5027.00    0.84123   1.02410    0.000
 5028.00    0.91617   1.03173    0.000
 5029.00    0.97948   1.05024    0.020
 5030.00    0.94887   1.06316    0.020
 5031.00    0.94503   1.07412    0.020
 5032.00    1.10353   1.08806    0.020
 5033.00    1.22312   1.09192    0.020
 5034.00    1.15657   1.07039    0.021
 5035.00    1.07415   1.03521    0.021
 5036.00    0.92985   1.01831    0.021
 5037.00    0.83809   1.02074    0.020
 5038.00    0.91674   1.01028    0.021
 5039.00    0.96493   0.97322    0.021
 5040.00    0.92948   0.93278    0.021
 5041.00    0.90352   0.93022    0.021
 5042.00    0.89985   0.97654    0.021
 5043.00    0.94502   1.03353    0.021
 5044.00    1.08947   1.07200    0.020
 5045.00    1.15244   1.09315    0.020
 5046.00    1.07121   1.09222    0.020
 5047.00    1.03346   1.06490    0.020
 5048.00    1.06300   1.03012    0.020
 5049.00    1.06411   1.01192    0.020
 5050.00    1.02658   1.01138    0.020
 5051.00    0.96584   1.01855    0.020
 5052.00    0.87732   1.03370    0.020
 5053.00    0.85374   1.05495    0.020
 5054.00    0.89870   1.06933    0.020
 5055.00    0.95606   1.07168    0.020
 5056.00    1.02498   1.07236    0.020
 5057.00    1.02293   1.07940    0.020
 5058.00    0.96264   1.08679    0.020
 5059.00    0.95205   1.09019    0.020
 5060.00    0.97733   1.09604    0.020
 5061.00    0.93104   1.10187    0.020
 5062.00    0.83935   1.09352    0.019
 5063.00    0.84003   1.06286    0.020
 5064.00    0.89193   1.02662    0.020
 5065.00    0.91226   1.01496    0.020
 5066.00    0.91737   1.02593    0.020
 5067.00    0.94986   1.03277    0.020
 5068.00    0.99375   1.03411    0.020
 5069.00    0.97643   1.04350    0.020
 5070.00    0.93731   1.05107    0.020
 5071.00    0.94756   1.04260    0.020
 5072.00    0.97265   1.03372    0.020
 5073.00    0.91669   1.03968    0.019
 5074.00    0.84047   1.04608    0.019
 5075.00    0.84365   1.04359    0.019
 5076.00    0.86292   1.04310    0.020
 5077.00    0.86488   1.03971    0.019
 5078.00    0.86410   1.01257    0.019
 5079.00    0.80917   0.97428    0.019
 5080.00    0.74782   0.96291    0.019
 5081.00    0.78950   0.97999    0.019
 5082.00    0.83947   0.99723    0.018
 5083.00    0.88212   1.00837    0.018
 5084.00    0.92445   1.02448    0.018
 5085.00    0.90983   1.04101    0.018
 5086.00    0.89624   1.04686    0.018
 5087.00    0.96790   1.04639    0.018
 5088.00    1.03371   1.04960    0.018
 5089.00    0.99076   1.05506    0.018
 5090.00    0.95196   1.05832    0.018
 5091.00    0.95929   1.06398    0.019
 5092.00    0.95512   1.07483    0.019
 5093.00    0.86146   1.08171    0.019
 5094.00    0.78797   1.07522    0.019
 5095.00    0.83333   1.05783    0.019
 5096.00    0.87875   1.03630    0.019
 5097.00    0.92439   1.01179    0.019
 5098.00    0.95611   0.98928    0.019
 5099.00    0.93473   0.98660    0.019
 5100.00    0.92149   1.00988    0.019
 5101.00    0.93414   1.03674    0.019
 5102.00    0.93801   1.04629    0.019
 5103.00    0.91824   1.04076    0.019
 5104.00    0.88656   1.03220    0.019
 5105.00    0.82735   1.02412    0.019
 5106.00    0.79250   1.01242    0.019
 5107.00    0.80638   1.00217    0.019
 5108.00    0.82213   1.00063    0.019
 5109.00    0.84116   1.00177    0.019
 5110.00    0.84700   1.00614    0.019
 5111.00    0.83275   1.02053    0.019
 5112.00    0.87336   1.03564    0.020
 5113.00    0.98749   1.04418    0.020
 5114.00    1.00797   1.05073    0.020
 5115.00    0.91797   1.05829    0.020
 5116.00    0.88641   1.06852    0.020
 5117.00    0.91567   1.07755    0.020
 5118.00    0.93840   1.07669    0.020
 5119.00    0.95515   1.06509    0.020
 5120.00    0.99860   1.04812    0.020
 5121.00    1.06365   1.02795    0.020
 5122.00    1.09066   1.00317    0.020
 5123.00    1.09058   0.98073    0.020
 5124.00    1.00990   0.97513    0.020
 5125.00    0.87887   0.98371    0.019
 5126.00    0.81889   0.98957    0.019
 5127.00    0.79768   0.98768    0.020
 5128.00    0.78583   0.98461    0.020
 5129.00    0.77841   0.98685    0.020
 5130.00    0.85639   0.99815    0.020
 5131.00    0.96931   1.01320    0.020
 5132.00    0.90955   1.02265    0.020
 5133.00    0.78941   1.02956    0.020
 5134.00    0.76417   1.04148    0.020
 5135.00    0.76690   1.04788    0.019
 5136.00    0.81953   1.03557    0.019
 5137.00    0.88434   1.01322    0.019
 5138.00    0.86125   0.99492    0.019
 5139.00    0.82080   0.99243    0.019
 5140.00    0.88677   1.00361    0.020
 5141.00    0.96914   1.00167    0.020
 5142.00    0.93683   0.98628    0.019
 5143.00    0.89146   0.98650    0.019
 5144.00    0.87090   0.99744    0.019
 5145.00    0.85223   0.99661    0.019
 5146.00    0.76309   0.98891    0.019
 5147.00    0.67105   0.98918    0.019
 5148.00    0.73862   0.99890    0.019
 5149.00    0.80716   1.00470    0.019
 5150.00    0.86177   0.99561    0.019
 5151.00    0.91248   0.98081    0.019
 5152.00    0.89561   0.97329    0.019
 5153.00    0.88115   0.97505    0.019
 5154.00    0.89219   0.98718    0.019
 5155.00    0.90353   1.00998    0.019
 5156.00    0.91714   1.03611    0.019
 5157.00    0.92512   1.05507    0.019
 5158.00    0.90090   1.06098    0.019
 5159.00    0.90102   1.06010    0.018
 5160.00    1.01201   1.05846    0.019
 5161.00    1.06878   1.04993    0.019
 5162.00    0.92329   1.03594    0.019
 5163.00    0.81130   1.02142    0.019
 5164.00    0.80387   0.99140    0.019
 5165.00    0.79575   0.93260    0.019
 5166.00    0.78579   0.86207    0.019
 5167.00    0.76351   0.81850    0.019
 5168.00    0.71321   0.82834    0.019
 5169.00    0.70461   0.87078    0.019
 5170.00    0.77811   0.88752    0.019
 5171.00    0.79346   0.85078    0.019
 5172.00    0.70898   0.81160    0.019
 5173.00    0.66336   0.83536    0.019
 5174.00    0.67615   0.90860    0.019
 5175.00    0.69797   0.96981    0.019
 5176.00    0.73172   0.99662    0.019
 5177.00    0.79223   1.00613    0.019
 5178.00    0.88386   1.00816    0.019
 5179.00    0.94122   1.00016    0.018
 5180.00    0.96344   0.97812    0.018
 5181.00    0.92125   0.93192    0.018
 5182.00    0.82077   0.86162    0.018
 5183.00    0.75581   0.81171    0.018
 5184.00    0.71916   0.83439    0.019
 5185.00    0.70326   0.91105    0.019
 5186.00    0.70191   0.97712    0.019
 5187.00    0.74221   1.00379    0.019
 5188.00    0.80814   1.01102    0.019
 5189.00    0.81204   1.01788    0.019
 5190.00    0.78260   1.00714    0.000
 5191.00    0.79290   0.97029    0.000
 5192.00    0.82176   0.94478    0.000
 5193.00    0.80441   0.95339    0.000
 5194.00    0.76848   0.97092    0.000
 5195.00    0.76965   0.98087    0.000
 5196.00    0.78357   0.99300    0.000
 5197.00    0.77931   1.00886    0.000
 5198.00    0.76981   1.02299    0.000
 5199.00    0.76514   1.03230    0.000
 5200.00    0.76163   1.03305    0.000
 5201.00    0.89013   1.02593    0.000
 5202.00    1.04405   1.01427    0.000
 5203.00    0.99849   0.99238    0.000
 5204.00    0.92311   0.95750    0.000
 5205.00    0.79659   0.92941    0.000
 5206.00    0.66446   0.92219    0.000
 5207.00    0.70348   0.92073    0.000
 5208.00    0.75486   0.91885    0.000
 5209.00    0.76277   0.93226    0.000
 5210.00    0.76907   0.96339    0.000
 5211.00    0.82342   1.00099    0.019
 5212.00    0.87898   1.03361    0.019
 5213.00    0.97059   1.04796    0.019
 5214.00    1.05323   1.03673    0.019
 5215.00    0.99051   1.01328    0.019
 5216.00    0.93551   1.00347    0.019
 5217.00    0.95914   1.01667    0.019
 5218.00    0.97856   1.03960    0.019
 5219.00    0.96741   1.05727    0.019
 5220.00    0.95162   1.06721    0.019
 5221.00    0.90995   1.06938    0.019
 5222.00    0.88045   1.05758    0.019
 5223.00    0.90511   1.02883    0.019
 5224.00    0.91761   0.98811    0.019
 5225.00    0.88563   0.94487    0.018
 5226.00    0.85730   0.91869    0.018
 5227.00    0.84010   0.93527    0.018
 5228.00    0.82645   0.98666    0.018
 5229.00    0.82202   1.03232    0.018
 5230.00    0.80508   1.05235    0.018
 5231.00    0.76015   1.04723    0.018
 5232.00    0.78090   1.02224    0.018
 5233.00    0.92894   1.00055    0.018
 5234.00    1.00850   1.00247    0.018
 5235.00    0.97232   1.02500    0.018
 5236.00    0.95537   1.05267    0.018
 5237.00    0.96689   1.06980    0.018
 5238.00    0.95822   1.07194    0.018
 5239.00    0.92327   1.06809    0.018
 5240.00    0.93335   1.06754    0.018
 5241.00    0.99508   1.06850    0.018
 5242.00    1.01527   1.06810    0.018
 5243.00    0.99345   1.07280    0.018
 5244.00    0.96249   1.07912    0.018
 5245.00    0.92338   1.06540    0.019
 5246.00    0.90405   1.03021    0.019
 5247.00    0.90028   1.00602    0.019
 5248.00    0.93867   1.00500    0.019
 5249.00    1.00621   1.00314    0.019
 5250.00    0.98135   0.99629    0.019
 5251.00    0.90049   1.00328    0.019
 5252.00    0.86205   1.02005    0.019
 5253.00    0.84607   1.02552    0.019
 5254.00    0.83023   1.01783    0.019
 5255.00    0.81445   1.02123    0.019
 5256.00    0.86951   1.04884    0.019
 5257.00    0.95257   1.08036    0.019
 5258.00    0.93485   1.09315    0.019
 5259.00    0.88319   1.08340    0.019
 5260.00    0.89948   1.05615    0.020
 5261.00    0.93502   1.01747    0.020
 5262.00    0.94100   0.97584    0.020
 5263.00    0.94010   0.94066    0.020
 5264.00    0.85306   0.91685    0.020
 5265.00    0.74988   0.91034    0.020
 5266.00    0.71168   0.92819    0.020
 5267.00    0.68289   0.94691    0.020
 5268.00    0.76055   0.92564    0.020
 5269.00    0.84940   0.88649    0.020
 5270.00    0.86343   0.89547    0.020
 5271.00    0.87235   0.95144    0.021
 5272.00    0.85805   0.99604    0.020
 5273.00    0.84297   1.00678    0.020
 5274.00    0.78998   1.00067    0.020
 5275.00    0.74561   1.00078    0.020
 5276.00    0.97870   1.02569    0.020
 5277.00    1.19041   1.06439    0.020
 5278.00    1.07643   1.08510    0.020
 5279.00    0.97408   1.07681    0.019
 5280.00    0.98523   1.05316    0.019
 5281.00    0.98411   1.02900    0.019
 5282.00    0.89655   1.01038    0.019
 5283.00    0.82683   1.00535    0.018
 5284.00    0.85381   1.02727    0.019
 5285.00    0.87760   1.06895    0.019
 5286.00    0.88750   1.09984    0.018
 5287.00    0.88568   1.10494    0.018
 5288.00    0.84194   1.09849    0.018
 5289.00    0.82822   1.09782    0.018
 5290.00    0.90464   1.10218    0.018
 5291.00    0.97644   1.10068    0.018
 5292.00    1.03637   1.09182    0.018
 5293.00    1.08184   1.08446    0.018
 5294.00    1.09550   1.07742    0.018
 5295.00    1.05468   1.05546    0.019
 5296.00    0.90993   1.01551    0.018
 5297.00    0.83860   0.98271    0.018
 5298.00    0.88951   0.98506    0.018
 5299.00    0.95448   1.01261    0.019
 5300.00    1.03999   1.03103    0.019
 5301.00    1.05493   1.03487    0.019
 5302.00    0.97930   1.04615    0.019
 5303.00    0.93819   1.07191    0.019
 5304.00    0.93610   1.09553    0.019
 5305.00    0.95277   1.10051    0.019
 5306.00    0.98814   1.08947    0.019
 5307.00    1.01342   1.08111    0.019
 5308.00    1.02982   1.08739    0.019
 5309.00    1.00982   1.09919    0.019
 5310.00    0.96161   1.10301    0.019
 5311.00    0.99894   1.09807    0.019
 5312.00    1.09456   1.09036    0.019
 5313.00    1.10161   1.08458    0.019
 5314.00    1.05578   1.07886    0.019
 5315.00    1.04761   1.06732    0.019
 5316.00    1.05906   1.05600    0.019
 5317.00    1.03541   1.05663    0.019
 5318.00    0.99591   1.06438    0.019
 5319.00    1.00244   1.06766    0.019
 5320.00    1.02686   1.06645    0.019
 5321.00    1.03840   1.06270    0.019
 5322.00    1.04569   1.05117    0.019
 5323.00    0.96131   1.03242    0.019
 5324.00    0.85152   1.02171    0.019
 5325.00    0.77517   1.01934    0.019
 5326.00    0.70643   0.99398    0.019
 5327.00    0.78444   0.93876    0.019
 5328.00    0.88924   0.90798    0.019
 5329.00    0.91383   0.94103    0.019
 5330.00    0.92716   1.00155    0.019
 5331.00    0.87456   1.03769    0.019
 5332.00    0.81532   1.04591    0.018
 5333.00    0.89962   1.05306    0.019
 5334.00    0.99313   1.06733    0.019
 5335.00    1.04885   1.07382    0.019
 5336.00    1.10316   1.06852    0.018
 5337.00    1.03958   1.06133    0.018
 5338.00    0.97936   1.04900    0.018
 5339.00    1.01548   1.02294    0.018
 5340.00    1.04791   1.00169    0.018
 5341.00    1.02753   1.01095    0.018
 5342.00    1.01043   1.03978    0.018
 5343.00    1.02408   1.05885    0.018
 5344.00    1.03422   1.05744    0.018
 5345.00    1.02044   1.04685    0.018
 5346.00    1.00873   1.04261    0.018
 5347.00    1.00795   1.04057    0.018
 5348.00    1.00306   1.03207    0.018
 5349.00    0.98078   1.03116    0.018
 5350.00    0.95311   1.04998    0.018
 5351.00    0.90653   1.07358    0.018
 5352.00    0.88264   1.08537    0.018
 5353.00    0.92564   1.09225    0.018
 5354.00    0.96060   1.10453    0.018
 5355.00    0.97537   1.11584    0.018
 5356.00    0.99955   1.11988    0.018
 5357.00    1.04409   1.12030    0.018
 5358.00    1.09504   1.11948    0.018
 5359.00    1.15803   1.11365    0.018
 5360.00    1.17993   1.09830    0.018
 5361.00    1.13442   1.07773    0.018
 5362.00    1.06009   1.06359    0.018
 5363.00    0.94430   1.05789    0.018
 5364.00    0.91695   1.05309    0.018
 5365.00    1.00150   1.04967    0.019
 5366.00    1.02227   1.05085    0.019
 5367.00    0.97193   1.05072    0.019
 5368.00    0.95361   1.03812   -2.000
 5369.00    0.96679   1.00735   -2.000
 5370.00    0.98431   0.97417   -2.000
 5371.00    1.00559   0.97104   -2.000
 5372.00    0.83203   1.00854   -2.000
 5373.00    0.50963   1.05804   -2.000
 5374.00    0.53852   1.08923   -2.000
 5375.00    0.80328   1.09684   -2.000
 5376.00    0.98318   1.09166   -2.000
 5377.00    1.11316   1.08819   -2.000
 5378.00    1.15744   1.08866   -2.000
 5379.00    1.15777   1.08390   -2.000
 5380.00    1.07197   1.07317   -2.000
 5381.00    0.94791   1.06365   -2.000
 5382.00    0.94579   1.05771   -2.000
 5383.00    0.99023   1.05826    0.019
 5384.00    0.97673   1.06765    0.019
 5385.00    0.94445   1.07740    0.019
 5386.00    0.96556   1.07950    0.019
 5387.00    1.00117   1.07431    0.018
 5388.00    0.98449   1.06282    0.018
 5389.00    0.95615   1.04800    0.018
 5390.00    0.92094   1.03680    0.018
 5391.00    0.88451   1.03186    0.018
 5392.00    0.92142   1.02990    0.018
 5393.00    0.96828   1.02803    0.018
 5394.00    0.95676   1.02314    0.018
 5395.00    0.93961   1.00718    0.018
 5396.00    0.91414   0.98432    0.018
 5397.00    0.88817   0.98261    0.018
 5398.00    0.87167   1.01011    0.018
 5399.00    0.85568   1.03630    0.018
 5400.00    0.88298   1.04488    0.018
 5401.00    0.90943   1.04665    0.018
 5402.00    0.91359   1.03976    0.018
 5403.00    0.92229   1.01189    0.017
 5404.00    0.99244   0.97305    0.017
 5405.00    1.04258   0.95243    0.017
 5406.00    0.91271   0.96509    0.017
 5407.00    0.81143   0.99101    0.017
 5408.00    0.89900   0.99880    0.017
 5409.00    0.97012   0.99037    0.018
 5410.00    0.95666   0.99547    0.018
 5411.00    0.94039   1.02264    0.018
 5412.00    0.91244   1.04916    0.018
 5413.00    0.89691   1.05807    0.018
 5414.00    0.92406   1.05720    0.018
 5415.00    0.96025   1.06282    0.018
 5416.00    1.02261   1.07555    0.018
 5417.00    1.04569   1.08163    0.018
 5418.00    0.97173   1.07484    0.018
 5419.00    0.93655   1.06266    0.018
 5420.00    0.98391   1.05681    0.018
 5421.00    1.01173   1.06073    0.019
 5422.00    1.00341   1.06061    0.018
 5423.00    0.99711   1.04724    0.018
 5424.00    0.99403   1.03945    0.019
 5425.00    1.01332   1.05444    0.019
 5426.00    1.06430   1.07663    0.019
 5427.00    1.08384   1.07413    0.019
 5428.00    1.06418   1.03711    0.019
 5429.00    1.06102   1.00113    0.019
 5430.00    1.07600   1.00189    0.019
 5431.00    1.04054   1.01870    0.019
 5432.00    0.95617   1.01694    0.019
 5433.00    0.91080   1.00061    0.018
 5434.00    0.89876   0.99117    0.018
 5435.00    0.89320   0.99892    0.018
 5436.00    0.89251   1.02152    0.018
 5437.00    0.96154   1.05136    0.018
 5438.00    1.07669   1.07898    0.019
 5439.00    1.09567   1.09675    0.018
 5440.00    1.05894   1.10380    0.018
 5441.00    1.04082   1.10486    0.018
 5442.00    1.03210   1.10292    0.018
 5443.00    1.03522   1.09184    0.018
 5444.00    1.04350   1.06196    0.018
 5445.00    1.04618   1.01652    0.018
 5446.00    1.04676   0.98166    0.018
 5447.00    1.01800   0.98537    0.018
 5448.00    0.97991   1.01851    0.017
 5449.00    0.94274   1.04760    0.017
 5450.00    0.90583   1.05800    0.017
 5451.00    0.96090   1.05550    0.017
 5452.00    1.03597   1.04443    0.017
 5453.00    1.04407   1.02156    0.017
 5454.00    1.04059   0.99004    0.017
 5455.00    1.06700   0.97386    0.017
 5456.00    1.09733   0.99334    0.017
 5457.00    1.03451   1.03175    0.017
 5458.00    0.96308   1.05707    0.017
 5459.00    0.95654   1.05889    0.017
 5460.00    0.95364   1.04654    0.018
 5461.00    0.95436   1.02923    0.017
 5462.00    0.95518   1.01365    0.017
 5463.00    0.95897   1.01190    0.017
 5464.00    0.96381   1.02535    0.018
 5465.00    0.99352   1.03729    0.018
 5466.00    1.01770   1.04173    0.018
 5467.00    0.97101   1.04652    0.018
 5468.00    0.92552   1.04938    0.018
 5469.00    0.89045   1.04362    0.018
 5470.00    0.85951   1.03538    0.018
 5471.00    0.85504   1.03050    0.018
 5472.00    0.84926   1.02325    0.018
 5473.00    0.83692   1.01359    0.018
 5474.00    0.82962   1.00433    0.018
 5475.00    0.84276   0.98641    0.019
 5476.00    0.85380   0.96749    0.019
 5477.00    0.85772   0.97598    0.019
 5478.00    0.87674   1.00786   -2.000
 5479.00    0.93863   1.02535   -2.000
 5480.00    0.95548   1.01432   -2.000
 5481.00    0.86298   1.00006   -2.000
 5482.00    0.79036   1.00595   -2.000
 5483.00    0.75939   1.02798   -2.000
 5484.00    0.66667   1.04965   -2.000
 5485.00    0.46148   1.05577   -2.000
 5486.00    0.07437   1.04306   -2.000
 5487.00   -0.60231   1.02804   -2.000
 5488.00   -0.73009   1.02641   -2.000
 5489.00   -0.09106   1.03280   -2.000
 5490.00    0.54373   1.03890   -2.000
 5491.00    1.17331   1.04398   -2.000
 5492.00    1.76342   1.04379   -2.000
 5493.00    2.31074   1.04003   -2.000
 5494.00    2.52351   1.04109   -2.000
 5495.00    2.41648   1.04125   -2.000
 5496.00    1.94082   1.03154   -2.000
 5497.00    1.15446   1.02583   -2.000
 5498.00    0.81507   1.03722   -2.000
 5499.00    0.80741   1.04720   -2.000
 5500.00    0.81083   1.03696   -2.000
 5501.00    0.82147   1.02006   -2.000
 5502.00    0.84062   1.01680    0.017
 5503.00    0.86463   1.02417    0.017
 5504.00    0.87670   1.02499    0.017
 5505.00    0.88283   1.01245    0.017
 5506.00    0.92441   1.00281    0.017
 5507.00    0.98123   1.01186    0.017
 5508.00    0.95862   1.02724    0.018
 5509.00    0.90674   1.03097    0.018
 5510.00    0.91645   1.02193    0.018
 5511.00    0.94538   1.00557    0.018
 5512.00    0.95542   0.99164    0.018
 5513.00    0.96054   0.99004    0.018
 5514.00    0.98080   1.00023    0.018
 5515.00    1.00428   1.01523    0.018
 5516.00    1.01552   1.03097    0.018
 5517.00    1.02470   1.04814    0.018
 5518.00    1.00000   1.06321    0.018
 5519.00    0.97101   1.06861    0.018
 5520.00    1.01835   1.06533    0.019
 5521.00    1.07243   1.06110    0.019
 5522.00    1.00631   1.05956    0.018
 5523.00    0.93391   1.05775    0.018
 5524.00    0.89736   1.05006    0.018
 5525.00    0.86243   1.03429    0.019
 5526.00    0.89980   1.01276    0.018
 5527.00    0.93742   0.99400    0.018
 5528.00    0.98053   0.99379    0.018
 5529.00    1.01677   1.01598    0.018
 5530.00    0.96929   1.04038    0.018
 5531.00    0.92409   1.04884    0.018
 5532.00    0.89795   1.04375    0.018
 5533.00    0.88072   1.03402    0.018
 5534.00    0.91901   1.02565    0.018
 5535.00    0.95518   1.02560    0.017
 5536.00    0.98095   1.03376    0.017
 5537.00    0.99596   1.04137    0.017
 5538.00    0.96820   1.04804    0.017
 5539.00    0.96444   1.05862    0.017
 5540.00    1.03988   1.06815    0.017
 5541.00    1.09118   1.06696    0.018
 5542.00    1.07515   1.05478    0.017
 5543.00    1.07300   1.04296    0.017
 5544.00    1.10395   1.03914    0.017
 5545.00    1.11266   1.04016    0.017
 5546.00    1.07553   1.04542    0.017
 5547.00    1.02853   1.05722    0.017
 5548.00    0.96387   1.06958    0.017
 5549.00    0.95223   1.07559    0.017
 5550.00    1.02372   1.07572    0.017
 5551.00    1.06782   1.07104    0.017
 5552.00    1.07418   1.06060    0.017
 5553.00    1.07113   1.04817    0.017
 5554.00    1.05667   1.04209    0.017
 5555.00    1.00473   1.04436    0.017
 5556.00    0.91273   1.04765    0.017
 5557.00    0.86816   1.04835    0.017
 5558.00    0.86829   1.04965    0.018
 5559.00    0.89184   1.05117    0.018
 5560.00    0.93486   1.04916    0.018
 5561.00    0.97548   1.04221    0.018
 5562.00    1.01436   1.03324    0.018
 5563.00    1.03459   1.02795    0.018
 5564.00    1.04284   1.02566    0.018
 5565.00    1.04932   1.02211    0.018
 5566.00    1.05482   1.02016    0.018
 5567.00    1.06134   1.02153    0.018
 5568.00    1.06836   1.02143    0.018
 5569.00    1.04703   1.02215    0.018
 5570.00    1.01371   1.02786    0.018
 5571.00    1.00306   1.02831    0.018
 5572.00    1.00061   1.02087    0.018
 5573.00    0.98606   1.02240    0.018
 5574.00    0.96779   1.03343    0.018
 5575.00    0.94162   1.03907    0.017
 5576.00    0.91344   1.04059    0.017
 5577.00    0.98455   1.04380    0.017
 5578.00    1.07623   1.04675    0.017
 5579.00    1.04736   1.04963    0.017
 5580.00    0.99883   1.04973    0.017
 5581.00    1.00388   1.04449    0.017
 5582.00    1.01547   1.04054    0.017
 5583.00    1.05123   1.03931    0.017
 5584.00    1.08902   1.03092    0.017
 5585.00    1.02750   1.00903    0.017
 5586.00    0.96118   0.97998    0.017
 5587.00    0.90550   0.95869    0.017
 5588.00    0.85171   0.95541    0.017
 5589.00    0.90043   0.96863    0.017
 5590.00    0.94753   0.98821    0.017
 5591.00    0.96250   1.00154    0.017
 5592.00    0.97545   1.00375    0.017
 5593.00    0.96481   1.00165    0.017
 5594.00    0.95797   1.00843    0.017
 5595.00    0.98164   1.02660    0.018
 5596.00    1.00016   1.03589    0.018
 5597.00    0.98754   1.02198    0.018
 5598.00    0.97286   1.00179    0.018
 5599.00    0.94829   0.99290    0.018
 5600.00    0.93392   0.98856    0.018
 5601.00    0.95915   0.98136    0.018
 5602.00    0.96277   0.98050    0.021
 5603.00    0.89650   0.99706    0.049
 5604.00    0.86444   1.02516   -1.000
 5605.00    0.92611   1.04857   -1.000
 5606.00    0.97575   1.06054   -1.000
 5607.00    0.99718   1.06413   -1.000
 5608.00    1.00442   1.06316   -1.000
 5609.00    0.98286   1.06086   -1.000
 5610.00    0.97904   1.06139   -1.000
 5611.00    1.00655   1.06496   -1.000
 5612.00    1.02814   1.06244    0.088
 5613.00    1.04055   1.04014    0.025
 5614.00    1.06455   1.00021    0.018
 5615.00    1.10427   0.97313    0.017
 5616.00    1.11549   0.98149    0.017
 5617.00    1.09266   1.00587    0.018
 5618.00    1.04876   1.01875    0.017
 5619.00    0.98267   1.02115    0.017
 5620.00    0.98249   1.02650    0.017
 5621.00    1.04357   1.03459    0.017
 5622.00    1.05628   1.03129    0.017
 5623.00    1.02935   1.01059    0.017
 5624.00    0.99102   0.99073    0.017
 5625.00    0.94445   0.99236    0.017
 5626.00    0.94657   1.00929    0.017
 5627.00    0.97948   1.02446    0.016
 5628.00    0.99201   1.03528    0.016
 5629.00    0.99325   1.04470    0.016
 5630.00    0.97910   1.05104    0.016
 5631.00    0.95753   1.05260    0.016
 5632.00    0.99429   1.04960    0.016
 5633.00    1.05528   1.04347    0.017
 5634.00    1.07584   1.03563    0.017
 5635.00    1.08203   1.02587    0.016
 5636.00    1.01127   1.01562    0.016
 5637.00    0.91741   1.01013    0.016
 5638.00    0.88671   1.01079    0.016
 5639.00    0.87173   1.01042    0.016
 5640.00    0.90685   1.00516    0.016
 5641.00    0.95210   1.00339    0.017
 5642.00    0.96127   1.01007    0.017
 5643.00    0.96473   1.01799    0.017
 5644.00    0.96275   1.02271    0.017
 5645.00    0.96014   1.02632    0.017
 5646.00    0.92317   1.03008    0.017
 5647.00    0.88346   1.03265    0.017
 5648.00    0.89287   1.03227    0.017
 5649.00    0.90447   1.03135    0.017
 5650.00    1.01246   1.03495    0.017
 5651.00    1.11731   1.04262    0.017
 5652.00    1.01634   1.04676    0.017
 5653.00    0.92296   1.04109    0.017
 5654.00    0.96971   1.03040    0.017
 5655.00    1.01647   1.02252    0.017
 5656.00    1.06339   1.00891    0.017
 5657.00    1.09473   0.98128    0.017
 5658.00    1.00527   0.96245    0.017
 5659.00    0.92673   0.97409    0.017
 5660.00    0.91235   0.99485    0.017
 5661.00    0.90301   0.99784    0.016
 5662.00    0.91711   0.99331    0.016
 5663.00    0.92435   1.00156    0.016
 5664.00    0.90548   1.01795    0.016
 5665.00    0.89588   1.02527    0.016
 5666.00    0.91569   1.01876    0.016
 5667.00    0.93206   1.00852    0.016
 5668.00    0.93917   1.00570    0.016
 5669.00    0.95265   1.01091    0.016
 5670.00    0.98084   1.01951    0.016
 5671.00    1.00667   1.03126    0.016
 5672.00    1.02782   1.04524    0.016
 5673.00    1.02406   1.05386    0.016
 5674.00    0.97699   1.05311    0.016
 5675.00    0.94800   1.05089    0.016
 5676.00    0.94656   1.05313    0.016
 5677.00    0.95723   1.05341    0.016
 5678.00    0.98411   1.04773    0.017
 5679.00    1.00872   1.04189    0.017
 5680.00    1.03068   1.03679    0.017
 5681.00    1.04555   1.02615    0.017
 5682.00    1.05307   1.01389    0.017
 5683.00    1.03931   1.01189    0.017
 5684.00    1.00607   1.01892    0.017
 5685.00    0.99755   1.02137    0.017
 5686.00    1.00901   1.01337    0.017
 5687.00    1.02127   1.00446    0.017
 5688.00    1.03411   1.00666    0.017
 5689.00    1.03917   1.02007    0.017
 5690.00    1.03937   1.03571    0.017
 5691.00    1.00941   1.04779    0.017
 5692.00    0.96303   1.05420    0.017
 5693.00    0.97810   1.05339    0.017
 5694.00    1.02226   1.04884    0.017
 5695.00    1.00223   1.04580    0.017
 5696.00    0.95597   1.04230    0.017
 5697.00    0.98875   1.03337    0.017
 5698.00    1.04909   1.02271    0.017
 5699.00    1.05273   1.01502    0.017
 5700.00    1.03969   1.00678    0.017
 5701.00    1.05044   0.99972    0.017
 5702.00    1.06698   1.00249    0.017
 5703.00    1.07143   1.01331    0.016
 5704.00    1.07350   1.01878    0.016
 5705.00    1.06168   1.01090    0.016
 5706.00    1.04772   0.99518    0.016
 5707.00    1.02132   0.97906    0.016
 5708.00    0.99352   0.96625    0.016
 5709.00    0.97285   0.96230    0.016
 5710.00    0.95272   0.96681    0.016
 5711.00    0.93330   0.97560    0.015
 5712.00    0.91392   0.99310    0.015
 5713.00    0.95217   1.01666    0.015
 5714.00    0.99083   1.03333    0.016
 5715.00    1.02803   1.04025    0.016
 5716.00    1.06286   1.04153    0.016
 5717.00    1.05694   1.04053    0.016
 5718.00    1.05131   1.04248    0.016
 5719.00    1.04895   1.04867    0.016
 5720.00    1.04443   1.05560    0.016
 5721.00    1.02372   1.06187    0.016
 5722.00    1.00849   1.06634    0.016
 5723.00    1.02459   1.06669    0.016
 5724.00    1.02894   1.06192    0.016
 5725.00    0.97992   1.05061    0.016
 5726.00    0.94040   1.03547    0.016
 5727.00    0.93623   1.02875    0.016
 5728.00    0.96211   1.03608    0.016
 5729.00    1.08153   1.04392    0.016
 5730.00    1.15651   1.04025    0.016
 5731.00    1.11402   1.03416    0.016
 5732.00    1.07158   1.03901    0.016
 5733.00    1.02923   1.05083    0.016
 5734.00    1.01402   1.05831    0.016
 5735.00    1.05216   1.05824    0.016
 5736.00    1.07270   1.05410    0.016
 5737.00    1.06310   1.05024    0.016
 5738.00    1.05026   1.04779    0.016
 5739.00    1.03257   1.04598    0.016
 5740.00    1.02354   1.04489    0.000
 5741.00    1.02595   1.04381    0.000
 5742.00    1.04191   1.04275    0.000
 5743.00    1.07363   1.04595    0.000
 5744.00    1.07766   1.05507    0.000
 5745.00    1.05335   1.06179    0.000
 5746.00    1.05630   1.05622    0.000
 5747.00    1.08388   1.04233    0.000
 5748.00    1.10526   1.03692    0.000
 5749.00    1.12169   1.04583    0.000
 5750.00    1.08386   1.05396    0.000
 5751.00    1.00801   1.04624    0.000
 5752.00    0.95193   1.02580    0.000
 5753.00    0.90799   1.00976    0.000
 5754.00    0.93237   1.01289    0.000
 5755.00    0.99340   1.03310    0.000
 5756.00    1.01830   1.05445    0.000
 5757.00    1.02635   1.06457    0.000
 5758.00    1.06147   1.06124    0.000
 5759.00    1.10744   1.04751    0.000
 5760.00    1.11451   1.02880    0.000
 5761.00    1.10827   1.01180    0.000
 5762.00    1.05554   1.00578    0.000
 5763.00    0.98942   1.01790    0.000
 5764.00    1.02332   1.04015    0.000
 5765.00    1.08103   1.05608    0.000
 5766.00    1.06869   1.06097    0.000
 5767.00    1.04292   1.06006    0.000
 5768.00    1.06840   1.05734    0.000
 5769.00    1.10152   1.05429    0.000
 5770.00    1.15427   1.05095    0.000
 5771.00    1.20916   1.04687    0.000
 5772.00    1.14364   1.04349    0.000
 5773.00    1.06948   1.04112    0.000
 5774.00    1.04456   1.03941    0.000
 5775.00    1.02145   1.04096    0.000
 5776.00    1.07686   1.04543    0.000
 5777.00    1.13007   1.04694    0.000
 5778.00    1.09314   1.03943    0.000
 5779.00    1.05749   1.01984    0.000
 5780.00    1.04257   0.99404    0.000
 5781.00    1.02965   0.97771    0.000
 5782.00    1.03715   0.97797    0.000
 5783.00    1.04237   0.98303    0.000
 5784.00    1.03102   0.98322    0.000
 5785.00    1.02023   0.98714    0.000
 5786.00    1.01254   1.00281    0.000
 5787.00    1.00879   1.02145    0.000
 5788.00    1.02252   1.03225    0.000
 5789.00    1.02771   1.03202    0.000
 5790.00    1.00183   1.02508    0.000
 5791.00    0.98202   1.02359   -2.000
 5792.00    0.98076   1.03282   -2.000
 5793.00    0.96698   1.04576   -2.000
 5794.00    0.92070   1.05502   -2.000
 5795.00    0.88186   1.05473   -2.000
 5796.00    0.85964   1.04280   -2.000
 5797.00    0.88376   1.03038   -2.000
 5798.00    0.99753   1.03361   -2.000
 5799.00    1.06463   1.05159   -2.000
 5800.00    1.05303   1.06891   -2.000
 5801.00    1.05391   1.07622   -2.000
 5802.00    1.07326   1.07183   -2.000
 5803.00    1.08073   1.05761   -2.000
 5804.00    1.07277   1.04296   -2.000
 5805.00    1.06265   1.03776   -2.000
 5806.00    1.05006   1.04131   -2.000
 5807.00    1.03456   1.04681   -2.000
 5808.00    1.01613   1.05051   -2.000
 5809.00    0.99885   1.05333   -2.000
 5810.00    0.98260   1.05598   -2.000
 5811.00    1.00267   1.05702    0.000
 5812.00    1.05124   1.05540    0.000
 5813.00    1.04780   1.04985    0.000
 5814.00    1.00847   1.03966    0.000
 5815.00    0.98889   1.02969    0.000
 5816.00    0.98126   1.02891    0.000
 5817.00    1.01008   1.03963    0.000
 5818.00    1.05816   1.05309    0.000
 5819.00    1.09624   1.06114    0.000
 5820.00    1.12975   1.06360    0.000
 5821.00    1.14503   1.06219    0.000
 5822.00    1.15313   1.05853    0.000
 5823.00    1.16943   1.05627    0.000
 5824.00    1.18850   1.05757    0.000
 5825.00    1.16677   1.05998    0.000
 5826.00    1.13352   1.06087    0.000
 5827.00    1.11234   1.06164    0.000
 5828.00    1.09398   1.06407    0.000
 5829.00    1.08887   1.06649    0.000
 5830.00    1.08624   1.06638    0.000
 5831.00    1.09269   1.06449    0.000
 5832.00    1.10045   1.06178    0.000
 5833.00    1.05377   1.05696    0.000
 5834.00    1.00138   1.05224    0.000
 5835.00    1.00567   1.05273    0.000
 5836.00    1.01380   1.05583    0.000
 5837.00    1.02749   1.05466    0.000
 5838.00    1.04136   1.05181    0.000
 5839.00    1.03772   1.05465    0.000
 5840.00    1.03328   1.06223    0.000
 5841.00    1.00406   1.06830    0.000
 5842.00    0.97966   1.07007    0.000
 5843.00    1.02814   1.06788    0.000
 5844.00    1.07157   1.06223    0.000
 5845.00    1.06609   1.05356    0.000
 5846.00    1.05869   1.04364    0.000
 5847.00    1.03782   1.03684    0.000
 5848.00    1.02327   1.03577    0.000
 5849.00    1.04282   1.03676    0.000
 5850.00    1.06694   1.03333    0.000
 5851.00    1.11088   1.02176    0.000
 5852.00    1.13265   1.00630    0.000
 5853.00    1.07532   0.99887    0.000
 5854.00    1.03240   1.00337    0.000
 5855.00    1.03268   1.00571    0.000
 5856.00    1.03618   0.99502    0.000
 5857.00    1.04793   0.98311    0.000
 5858.00    1.04820   0.98656    0.000
 5859.00    1.02328   1.00238    0.000
 5860.00    1.00904   1.01564    0.000
 5861.00    1.01514   1.01872    0.000
 5862.00    1.02279   1.01682    0.000
 5863.00    1.03301   1.01852    0.000
 5864.00    1.04499   1.02181    0.000
 5865.00    1.05954   1.01899    0.000
 5866.00    1.06568   1.01312    0.000
 5867.00    1.06106   1.01509    0.000
 5868.00    1.02946   1.02599    0.000
 5869.00    0.96740   1.03679    0.000
 5870.00    0.95878   1.04104    0.000
 5871.00    1.00336   1.03813    0.000
 5872.00    1.02381   1.03083    0.000
 5873.00    1.02307   1.02196    0.000
 5874.00    1.01495   1.01247    0.000
 5875.00    1.00112   1.00470    0.000
 5876.00    0.99620   1.00295    0.000
 5877.00    0.99734   1.00696    0.000
 5878.00    1.02056   1.00856    0.000
 5879.00    1.05694   1.00422    0.000
 5880.00    1.05315   1.00199    0.000
 5881.00    1.02847   1.00613    0.000
 5882.00    1.01286   1.00930    0.000
 5883.00    1.00133   1.00697    0.000
 5884.00    0.99060   1.00521    0.000
 5885.00    0.98019   1.00586    0.000
 5886.00    1.00751   0.99683    0.000
 5887.00    1.04728   0.95863    0.000
 5888.00    1.03333   0.88465    0.000
 5889.00    1.00452   0.81051    0.000
 5890.00    0.97267   0.79490    0.000
 5891.00    0.94012   0.84298    0.000
 5892.00    0.90029   0.89871    0.000
 5893.00    0.85913   0.91617    0.000
 5894.00    0.84079   0.88777    0.000
 5895.00    0.82564   0.84481    0.000
 5896.00    0.85228   0.84127    0.000
 5897.00    0.88312   0.88641    0.000
 5898.00    0.88622   0.93635    0.000
 5899.00    0.88755   0.96572    0.000
 5900.00    0.89827   0.98315    0.000
 5901.00    0.90917   0.99533    0.015
 5902.00    0.88559   1.00183    0.015
 5903.00    0.86356   1.00407    0.015
 5904.00    0.88500   1.00273    0.015
 5905.00    0.90875   0.99951    0.015
 5906.00    0.96541   0.99972    0.015
 5907.00    1.01456   1.00470    0.015
 5908.00    0.99385   1.00901    0.015
 5909.00    0.97957   1.01032    0.015
 5910.00    1.00897   1.01201    0.015
 5911.00    1.03484   1.01265    0.015
 5912.00    1.04220   1.00500    0.015
 5913.00    1.04269   0.98985    0.015
 5914.00    1.01413   0.97867    0.015
 5915.00    0.99760   0.97851    0.014
 5916.00    1.02313   0.98624    0.014
 5917.00    1.04828   0.99567    0.014
 5918.00    1.07236   1.00284    0.014
 5919.00    1.08222   1.00766    0.014
 5920.00    1.05647   1.00904    0.014
 5921.00    1.03317   1.00607    0.014
 5922.00    1.01516   1.00388    0.014
 5923.00    1.00659   1.00666    0.014
 5924.00    1.01570   1.01169    0.014
 5925.00    1.02344   1.01508    0.014
 5926.00    1.02891   1.01444    0.014
 5927.00    1.02872   1.00827    0.014
 5928.00    1.02042   0.99836    0.014
 5929.00    1.03614   0.99101    0.014
 5930.00    1.08218   0.99380    0.014
 5931.00    1.10059   1.00504    0.015
 5932.00    1.08825   1.01180    0.015
 5933.00    1.08945   1.00684    0.015
 5934.00    1.10393   0.99897    0.015
 5935.00    1.11069   1.00010    0.015
 5936.00    1.11076   1.00881    0.015
 5937.00    1.11147   1.01656    0.015
 5938.00    1.11266   1.01973    0.015
 5939.00    1.08457   1.01606    0.015
 5940.00    1.03684   1.00574    0.015
 5941.00    1.02487   0.99766    0.015
 5942.00    1.03388   0.99916    0.015
 5943.00    1.04075   1.00705    0.015
 5944.00    1.04652   1.01572    0.015
 5945.00    1.03714   1.02165    0.015
 5946.00    1.02105   1.02009    0.014
 5947.00    1.01085   1.00898    0.014
 5948.00    1.00289   0.99644    0.014
 5949.00    0.97986   0.99396    0.014
 5950.00    0.95196   0.99958    0.014
 5951.00    0.96459   1.00043    0.014
 5952.00    0.98820   0.99496    0.014
 5953.00    1.01201   0.99449    0.014
 5954.00    1.03587   0.99951    0.014
 5955.00    1.07060   0.99849    0.014
 5956.00    1.10726   0.99099    0.014
 5957.00    1.08930   0.98874    0.014
 5958.00    1.06396   0.99675    0.014
 5959.00    1.02788   1.00952    0.014
 5960.00    0.99078   1.02014    0.014
 5961.00    1.01526   1.02560    0.014
 5962.00    1.04341   1.02626    0.014
 5963.00    1.06776   1.02336    0.014
 5964.00    1.09168   1.01764    0.014
 5965.00    1.06419   1.01215    0.014
 5966.00    1.03786   1.01252    0.014
 5967.00    1.04101   1.01869    0.014
 5968.00    1.04769   1.02529    0.014
 5969.00    1.10190   1.03000    0.014
 5970.00    1.15039   1.03288    0.014
 5971.00    1.14762   1.03325    0.014
 5972.00    1.14141   1.03107    0.015
 5973.00    1.11254   1.02600    0.015
 5974.00    1.08831   1.01654    0.015
 5975.00    1.08786   1.00429    0.014
 5976.00    1.08274   0.99466    0.014
 5977.00    1.05829   0.99144    0.014
 5978.00    1.03905   0.99559    0.014
 5979.00    1.03765   1.00549    0.014
 5980.00    1.03474   1.01485    0.014
 5981.00    1.02744   1.01571    0.014
 5982.00    1.02896   1.00476    0.014
 5983.00    1.05223   0.98836    0.014
 5984.00    1.06194   0.98080    0.014
 5985.00    1.04282   0.98802    0.014
 5986.00    1.03415   0.99967    0.014
 5987.00    1.04477   1.00675    0.014
 5988.00    1.06175   1.01079    0.014
 5989.00    1.08899   1.01282    0.014
 5990.00    1.10782   1.01122    0.014
 5991.00    1.11473   1.01025    0.014
 5992.00    1.10460   1.01652    0.014
 5993.00    1.07325   1.02686    0.014
 5994.00    1.05373   1.03172    0.014
 5995.00    1.04718   1.02710    0.014
 5996.00    1.05098   1.01677    0.014
 5997.00    1.06478   1.00815    0.014
 5998.00    1.06664   1.00648    0.014
 5999.00    1.05831   1.01014    0.014
 6000.00    1.03906   1.01276    0.014
 6001.00    1.01161   1.00914    0.014
 6002.00    1.01061   1.00254    0.014
 6003.00    1.02708   1.00178    0.014
 6004.00    1.05245   1.00608    0.014
 6005.00    1.08296   1.00495    0.014
 6006.00    1.07898   0.99397    0.014
 6007.00    1.05762   0.98114    0.014
 6008.00    1.05423   0.98067    0.014
 6009.00    1.05869   0.99568    0.014
 6010.00    1.04855   1.01061    0.014
 6011.00    1.03294   1.01106    0.014
 6012.00    1.02039   1.00141    0.014
 6013.00    1.00881   0.99602    0.014
 6014.00    1.01326   0.99877    0.014
 6015.00    1.02195   1.00051    0.014
 6016.00    1.02656   0.99795    0.014
 6017.00    1.03029   0.99727    0.014
 6018.00    1.00809   0.99747    0.014
 6019.00    0.98143   0.99301    0.014
 6020.00    0.96143   0.98791    0.014
 6021.00    0.94229   0.98875    0.014
 6022.00    0.96868   0.99365    0.014
 6023.00    0.99925   0.99848    0.014
 6024.00    1.02114   1.00417    0.014
 6025.00    1.04255   1.01036    0.014
 6026.00    1.01575   1.01353    0.014
 6027.00    0.98837   1.01625    0.014
 6028.00    1.00865   1.02212    0.014
 6029.00    1.02824   1.02687    0.014
 6030.00    1.03195   1.02730    0.014
 6031.00    1.03759   1.02753    0.014
 6032.00    1.06793   1.03076    0.014
 6033.00    1.09276   1.03422    0.014
 6034.00    1.07014   1.03518    0.014
 6035.00    1.05216   1.03465    0.014
 6036.00    1.06390   1.03422    0.014
 6037.00    1.07580   1.03342    0.014
 6038.00    1.08853   1.03081    0.014
 6039.00    1.10242   1.02704    0.014
 6040.00    1.12100   1.02460    0.014
 6041.00    1.13589   1.02481    0.014
 6042.00    1.13834   1.02837    0.014
 6043.00    1.14698   1.03467    0.014
 6044.00    1.17317   1.04034    0.014
 6045.00    1.19648   1.04327    0.014
 6046.00    1.21276   1.04422    0.014
 6047.00    1.21114   1.04375    0.014
 6048.00    1.17210   1.04252    0.014
 6049.00    1.13829   1.04232    0.014
 6050.00    1.11399   1.04268    0.014
 6051.00    1.10400   1.04048    0.014
 6052.00    1.11675   1.03523    0.014
 6053.00    1.11961   1.02969    0.014
 6054.00    1.10867   1.02487    0.014
 6055.00    1.11756   1.01996    0.014
 6056.00    1.15079   1.01709    0.014
 6057.00    1.15731   1.01936    0.019
 6058.00    1.13494   1.02627    0.058
 6059.00    1.10084   1.03374   -1.000
 6060.00    1.05557   1.03687   -1.000
 6061.00    1.01399   1.03332   -1.000
 6062.00    0.97553   1.02377   -1.000
 6063.00    0.93990   1.00947   -1.000
 6064.00    0.90635   0.99449   -1.000
 6065.00    0.88987   0.99104   -1.000
 6066.00    0.88449   1.00678   -1.000
 6067.00    0.92119   1.02964    0.042
 6068.00    0.98186   1.04418    0.017
 6069.00    1.03404   1.04915    0.014
 6070.00    1.08201   1.05030    0.014
 6071.00    1.09269   1.05084    0.014
 6072.00    1.08737   1.05097    0.014
 6073.00    1.07136   1.05041    0.014
 6074.00    1.05142   1.04891    0.013
 6075.00    1.03665   1.04518    0.013
 6076.00    1.02349   1.03721    0.014
 6077.00    1.00420   1.02525    0.013
 6078.00    0.98332   1.01529    0.013
 6079.00    1.02659   1.01264    0.013
 6080.00    1.08344   1.01193    0.013
 6081.00    1.09621   1.00712    0.013
 6082.00    1.10161   1.00340    0.013
 6083.00    1.07556   1.00522    0.013
 6084.00    1.04553   1.00792    0.014
 6085.00    1.04046   1.00963    0.014
 6086.00    1.03758   1.01417    0.014
 6087.00    1.05492   1.01965    0.014
 6088.00    1.07330   1.01817    0.014
 6089.00    1.09266   1.00861    0.014
 6090.00    1.11120   1.00074    0.014
 6091.00    1.06923   1.00112    0.014
 6092.00    1.02959   1.00626    0.014
 6093.00    1.03979   1.01375    0.014
 6094.00    1.05184   1.02347    0.014
 6095.00    1.08624   1.02970    0.014
 6096.00    1.11433   1.02863    0.014
 6097.00    1.09014   1.02659    0.014
 6098.00    1.06894   1.02947    0.014
 6099.00    1.06620   1.03173    0.014
 6100.00    1.06160   1.02047    0.014
 6101.00    1.04790   0.99121    0.014
 6102.00    1.04164   0.96423    0.014
 6103.00    1.06487   0.96689    0.014
 6104.00    1.08380   0.99388    0.014
 6105.00    1.08856   1.01638    0.014
 6106.00    1.08821   1.02145    0.014
 6107.00    1.07361   1.01781    0.013
 6108.00    1.06888   1.01806    0.013
 6109.00    1.08764   1.02253    0.013
 6110.00    1.10919   1.02257    0.013
 6111.00    1.13648   1.01946    0.013
 6112.00    1.14705   1.02231    0.013
 6113.00    1.12768   1.03025    0.013
 6114.00    1.11065   1.03374    0.013
 6115.00    1.09729   1.02925    0.013
 6116.00    1.08249   1.02426    0.014
 6117.00    1.06573   1.02416    0.014
 6118.00    1.05818   1.02132    0.014
 6119.00    1.06177   1.00745    0.014
 6120.00    1.07067   0.98535    0.014
 6121.00    1.08522   0.96657    0.014
 6122.00    1.09521   0.96724    0.014
 6123.00    1.10090   0.98917    0.014
 6124.00    1.10342   1.01040    0.014
 6125.00    1.10331   1.01488    0.014
 6126.00    1.10531   1.00858    0.014
 6127.00    1.10884   1.00228    0.014
 6128.00    1.11115   1.00235    0.014
 6129.00    1.11268   1.01093    0.013
 6130.00    1.10392   1.02281    0.013
 6131.00    1.08939   1.03000    0.014
 6132.00    1.07563   1.02974    0.014
 6133.00    1.06226   1.02038    0.013
 6134.00    1.04350   0.99682    0.013
 6135.00    1.02247   0.95898    0.013
 6136.00    1.00471   0.92420    0.014
 6137.00    0.98815   0.92118    0.014
 6138.00    0.96672   0.95425    0.014
 6139.00    0.94380   0.98905    0.014
 6140.00    0.93149   0.99612    0.014
 6141.00    0.92187   0.98727    0.013
 6142.00    0.97467   0.99090    0.014
 6143.00    1.04036   1.01026    0.014
 6144.00    1.06145   1.02697    0.014
 6145.00    1.07529   1.03058    0.013
 6146.00    1.06766   1.02390    0.014
 6147.00    1.05743   1.01146    0.014
 6148.00    1.05114   0.99751    0.014
 6149.00    1.04518   0.98860    0.014
 6150.00    1.04811   0.98991    0.014
 6151.00    1.05147   0.99980    0.014
 6152.00    1.05200   1.00949    0.014
 6153.00    1.05292   1.01004    0.014
 6154.00    1.07920   1.00290    0.014
 6155.00    1.10248   0.99755    0.014
 6156.00    1.06698   0.99600    0.014
 6157.00    1.03464   0.99289    0.014
 6158.00    1.03870   0.98441    0.014
 6159.00    1.04238   0.96477    0.014
 6160.00    1.04297   0.92959    0.014
 6161.00    1.03585   0.89236    0.014
 6162.00    0.98237   0.87810    0.014
 6163.00    0.93330   0.89338    0.014
 6164.00    0.90526   0.92045    0.013
 6165.00    0.88553   0.94134    0.013
 6166.00    0.89799   0.95185    0.013
 6167.00    0.91135   0.95023    0.013
 6168.00    0.92763   0.93404    0.013
 6169.00    0.95162   0.91816    0.013
 6170.00    0.99665   0.92401    0.013
 6171.00    1.03270   0.94588    0.013
 6172.00    1.04771   0.96078    0.013
 6173.00    1.05100   0.96338    0.014
 6174.00    1.03053   0.96290    0.014
 6175.00    1.00630   0.96289    0.014
 6176.00    0.97545   0.96391    0.014
 6177.00    0.96331   0.96882    0.014
 6178.00    0.98002   0.97531    0.014
 6179.00    0.99924   0.97817    0.014
 6180.00    1.02186   0.98009    0.014
 6181.00    1.04051   0.98508    0.014
 6182.00    1.05442   0.98932    0.014
 6183.00    1.04020   0.98906    0.014
 6184.00    0.99640   0.98453    0.014
 6185.00    0.97690   0.97515    0.014
 6186.00    0.97996   0.96290    0.014
 6187.00    0.97432   0.95359    0.014
 6188.00    0.96156   0.94788    0.014
 6189.00    0.95443   0.93796    0.014
 6190.00    0.95135   0.92067    0.014
 6191.00    0.93392   0.91127    0.014
 6192.00    0.90742   0.92470    0.013
 6193.00    0.81512   0.94972    0.014
 6194.00    0.68646   0.96740    0.014
 6195.00    0.39702   0.97575    0.015
 6196.00    0.03035   0.97948   -2.000
 6197.00   -0.43234   0.97655   -2.000
 6198.00   -0.93485   0.96443   -2.000
 6199.00   -0.93062   0.95142   -2.000
 6200.00   -0.74679   0.95059   -2.000
 6201.00   -0.15959   0.96257   -2.000
 6202.00    0.54832   0.97558   -2.000
 6203.00    1.08686   0.98147   -2.000
 6204.00    1.58334   0.98250   -2.000
 6205.00    1.63383   0.98411   -2.000
 6206.00    1.59451   0.98728   -2.000
 6207.00    1.40915   0.98942   -2.000
 6208.00    1.20076   0.98858    0.015
 6209.00    1.13257   0.98410    0.014
 6210.00    1.08080   0.97670    0.014
 6211.00    1.05219   0.96615    0.014
 6212.00    1.02542   0.94979    0.014
 6213.00    0.96506   0.93068    0.014
 6214.00    0.90322   0.91842    0.013
 6215.00    0.93911   0.91838    0.013
 6216.00    0.97552   0.92804    0.013
 6217.00    0.98620   0.93747    0.013
 6218.00    0.99546   0.93664    0.013
 6219.00    0.97888   0.92957    0.013
 6220.00    0.96184   0.92840    0.013
 6221.00    0.93968   0.93550    0.013
 6222.00    0.92175   0.94314    0.013
 6223.00    0.93654   0.94565    0.013
 6224.00    0.93685   0.94603    0.013
 6225.00    0.85249   0.94849    0.013
 6226.00    0.70374   0.95081    0.013
 6227.00    0.25631   0.94802    0.012
 6228.00   -0.08948   0.93536    0.000
 6229.00   -0.04990   0.91316    0.000
 6230.00    0.07616   0.89486    0.013
 6231.00    0.47597   0.89522    0.014
 6232.00    0.81278   0.91255    0.014
 6233.00    0.98051   0.93611    0.014
 6234.00    1.08737   0.95661    0.014
 6235.00    1.05411   0.96544    0.014
 6236.00    1.01925   0.95996    0.014
 6237.00    0.98122   0.94590    0.014
 6238.00    0.96338   0.93077    0.014
 6239.00    0.98056   0.92076    0.014
 6240.00    0.98678   0.91946    0.013
 6241.00    0.97634   0.92089    0.013
 6242.00    0.96729   0.91576    0.013
 6243.00    0.96011   0.90814    0.013
 6244.00    0.95948   0.90597    0.013
 6245.00    0.96658   0.90840    0.013
 6246.00    0.96804   0.91679    0.013
 6247.00    0.96366   0.93327    0.013
 6248.00    0.96735   0.94996    0.013
 6249.00    0.97842   0.95661    0.013
 6250.00    0.98678   0.94911    0.013
 6251.00    0.99297   0.93046    0.013
 6252.00    1.00075   0.91255    0.013
 6253.00    1.00965   0.90644    0.013
 6254.00    0.99679   0.90916    0.013
 6255.00    0.97039   0.90914    0.014
 6256.00    0.95390   0.90097    0.014
 6257.00    0.94282   0.89101    0.014
 6258.00    0.92081   0.89115    0.014
 6259.00    0.89365   0.90526    0.014
 6260.00    0.78990   0.92372    0.015
 6261.00    0.65493   0.93929    0.016
 6262.00    0.62801   0.95250    0.017
 6263.00    0.63869   0.95817    0.017
 6264.00    0.82139   0.95285    0.017
 6265.00    1.05455   0.94728    0.017
 6266.00    1.21003   0.95006    0.016
 6267.00    1.34664   0.95394    0.015
 6268.00    1.28443   0.95149    0.015
 6269.00    1.18320   0.94733    0.014
 6270.00    1.11641   0.94869    0.014
 6271.00    1.05489   0.95561    0.013
 6272.00    1.04152   0.96228    0.013
 6273.00    1.03359   0.96419    0.013
 6274.00    1.03893   0.96304    0.013
 6275.00    1.04528   0.96243    0.013
 6276.00    1.09825   0.96214    0.013
 6277.00    1.15309   0.95940    0.013
 6278.00    1.19898   0.95172    0.013
 6279.00    1.24284   0.94037    0.013
 6280.00    1.20724   0.93320    0.000
 6281.00    1.17121   0.93624    0.000
 6282.00    1.12788   0.94561    0.000
 6283.00    1.08609   0.95395    0.000
 6284.00    1.06056   0.95832    0.000
 6285.00    1.03776   0.96256    0.000
 6286.00    1.03534   0.97119    0.000
 6287.00    1.03575   0.98157    0.000
 6288.00    1.05217   0.98722    0.000
 6289.00    1.06438   0.98448    0.000
 6290.00    1.05753   0.97587    0.000
 6291.00    1.05634   0.96797    0.000
 6292.00    1.07615   0.96509    0.000
 6293.00    1.09017   0.96651    0.000
 6294.00    1.08620   0.96596    0.000
 6295.00    1.08067   0.95711    0.000
 6296.00    1.07103   0.94463    0.000
 6297.00    1.05233   0.94002    0.000
 6298.00    1.01316   0.94472    0.000
 6299.00    0.98761   0.94769    0.000
 6300.00    0.98878   0.94187    0.000
 6301.00    1.00323   0.93492    0.000
 6302.00    1.04040   0.93793    0.000
 6303.00    1.07430   0.94927    0.000
 6304.00    1.10330   0.95908    0.000
 6305.00    1.11779   0.96553    0.000
 6306.00    1.11315   0.97397    0.000
 6307.00    1.09847   0.98313    0.000
 6308.00    1.07213   0.98573    0.000
 6309.00    1.06867   0.98013    0.000
 6310.00    1.08859   0.97185    0.000
 6311.00    1.09876   0.96699    0.000
 6312.00    1.10012   0.96588    0.000
 6313.00    1.07480   0.96195    0.000
 6314.00    1.02827   0.95275    0.000
 6315.00    0.99102   0.94610    0.000
 6316.00    0.96024   0.94398    0.000
 6317.00    0.96524   0.93986    0.000
 6318.00    0.99217   0.93749    0.000
 6319.00    1.01621   0.94480    0.000
 6320.00    1.03872   0.95625    0.000
 6321.00    1.05689   0.96315    0.013
 6322.00    1.07304   0.96779    0.013
 6323.00    1.08898   0.97526    0.013
 6324.00    1.10483   0.98274    0.013
 6325.00    1.10694   0.98555    0.013
 6326.00    1.10434   0.98479    0.013
 6327.00    1.08649   0.98463    0.013
 6328.00    1.06424   0.98556    0.013
 6329.00    1.05845   0.98437    0.013
 6330.00    1.05657   0.98349    0.013
 6331.00    1.08322   0.98819    0.013
 6332.00    1.11531   0.99384    0.013
 6333.00    1.13129   0.98859    0.013
 6334.00    1.14487   0.96891    0.013
 6335.00    1.13477   0.94832    0.013
 6336.00    1.12211   0.94379    0.013
 6337.00    1.11459   0.95491    0.013
 6338.00    1.10744   0.96903    0.013
 6339.00    1.10420   0.98047    0.013
 6340.00    1.10109   0.98883    0.013
 6341.00    1.10021   0.98945    0.013
 6342.00    1.09868   0.97963    0.013
 6343.00    1.07378   0.96582    0.013
 6344.00    1.04993   0.95825    0.013
 6345.00    1.04277   0.95974    0.013
 6346.00    1.03677   0.96606    0.013
 6347.00    1.04261   0.97479    0.013
 6348.00    1.05118   0.98469    0.013
 6349.00    1.07952   0.99213    0.013
 6350.00    1.10472   0.99463    0.013
 6351.00    1.11262   0.99276    0.013
 6352.00    1.11965   0.98625    0.013
 6353.00    1.12288   0.97490    0.013
 6354.00    1.12217   0.96416    0.013
 6355.00    1.10715   0.96070    0.013
 6356.00    1.09395   0.96024    0.013
 6357.00    1.08630   0.95285    0.013
 6358.00    1.07716   0.94115    0.013
 6359.00    1.06416   0.93547    0.013
 6360.00    1.05445   0.93538    0.013
 6361.00    1.05208   0.93426    0.013
 6362.00    1.05189   0.93341    0.013
 6363.00    1.05587   0.93793    0.014
 6364.00    1.05953   0.94731    0.014
 6365.00    1.06265   0.95782    0.014
 6366.00    1.07567   0.96808    0.014
 6367.00    1.10330   0.97712    0.014
 6368.00    1.11314   0.98133    0.014
 6369.00    1.09990   0.97955    0.014
 6370.00    1.08251   0.97810    0.014
 6371.00    1.06036   0.98338    0.014
 6372.00    1.05767   0.99309    0.013
 6373.00    1.07461   1.00000    0.013
 6374.00    1.09333   1.00145    0.013
 6375.00    1.11363   1.00014    0.013
 6376.00    1.10095   0.99686    0.013
 6377.00    1.06244   0.98941    0.013
 6378.00    1.04357   0.97968    0.013
 6379.00    1.03824   0.97338    0.013
 6380.00    1.06011   0.97316    0.013
 6381.00    1.09841   0.97778    0.013
 6382.00    1.11040   0.98312    0.013
 6383.00    1.10852   0.98447    0.013
 6384.00    1.11230   0.98309    0.013
 6385.00    1.11868   0.98410    0.013
 6386.00    1.12285   0.98768    0.013
 6387.00    1.12615   0.98985    0.013
 6388.00    1.13092   0.98962    0.013
 6389.00    1.13618   0.98841    0.013
 6390.00    1.13699   0.98430    0.013
 6391.00    1.13655   0.97217    0.013
 6392.00    1.11107   0.95386    0.013
 6393.00    1.07979   0.94448    0.014
 6394.00    1.05383   0.95552    0.014
 6395.00    1.02886   0.97776    0.014
 6396.00    1.04645   0.99354    0.014
 6397.00    1.07017   0.99273    0.014
 6398.00    1.08338   0.97397    0.014
 6399.00    1.09551   0.95000    0.014
 6400.00    1.09611   0.94510    0.014
 6401.00    1.09595   0.96570    0.014
 6402.00    1.05572   0.99172    0.014
 6403.00    1.01418   1.00617    0.014
 6404.00    1.02293   1.00801    0.013
 6405.00    1.03219   1.00069    0.013
 6406.00    1.05687   0.98771    0.013
 6407.00    1.08198   0.97696    0.013
 6408.00    1.11359   0.97690    0.013
 6409.00    1.14364   0.98216    0.013
 6410.00    1.15865   0.97930    0.013
 6411.00    1.16900   0.97072    0.013
 6412.00    1.14690   0.96888    0.013
 6413.00    1.12448   0.97439    0.013
 6414.00    1.10034   0.98042    0.013
 6415.00    1.08428   0.98467    0.014
 6416.00    1.10318   0.98668    0.014
 6417.00    1.12119   0.98457    0.014
 6418.00    1.13604   0.97584    0.014
 6419.00    1.14117   0.96113    0.014
 6420.00    1.11720   0.95021    0.014
 6421.00    1.10738   0.95579    0.014
 6422.00    1.13356   0.97606    0.014
 6423.00    1.14988   0.99441    0.014
 6424.00    1.14462   1.00131    0.014
 6425.00    1.12450   1.00268    0.014
 6426.00    1.07613   1.00478    0.013
 6427.00    1.04682   1.00455    0.013
 6428.00    1.04912   0.99490    0.013
 6429.00    1.06055   0.97454    0.013
 6430.00    1.08526   0.95495    0.013
 6431.00    1.09531   0.95170    0.013
 6432.00    1.08663   0.96541    0.013
 6433.00    1.08818   0.98317    0.013
 6434.00    1.10126   0.99541    0.013
 6435.00    1.10141   0.99995    0.013
 6436.00    1.08872   0.99475    0.013
 6437.00    1.08039   0.97848    0.013
 6438.00    1.07589   0.96179    0.013
 6439.00    1.09346   0.96324    0.014
 6440.00    1.12808   0.98395    0.014
 6441.00    1.13618   1.00552    0.014
 6442.00    1.12629   1.01613    0.014
 6443.00    1.10839   1.01859    0.014
 6444.00    1.08572   1.01865    0.014
 6445.00    1.06600   1.01814    0.014
 6446.00    1.04781   1.01363    0.014
 6447.00    1.04317   0.99724    0.014
 6448.00    1.04462   0.96639    0.014
 6449.00    1.03719   0.93713    0.014
 6450.00    1.02631   0.93327    0.014
 6451.00    1.05124   0.95558    0.014
 6452.00    1.08794   0.98138    0.014
 6453.00    1.11423   0.99173    0.013
 6454.00    1.13764   0.98422    0.013
 6455.00    1.12640   0.97249    0.013
 6456.00    1.10731   0.97405    0.013
 6457.00    1.08333   0.99022    0.013
 6458.00    1.05846   1.00701    0.013
 6459.00    1.05322   1.01177    0.013
 6460.00    1.05071   0.99839    0.013
 6461.00    1.09340   0.97030    0.013
 6462.00    1.14061   0.94799    0.013
 6463.00    1.13549   0.95172    0.013
 6464.00    1.12707   0.97461    0.013
 6465.00    1.11340   0.99578    0.013
 6466.00    1.09963   1.00642    0.013
 6467.00    1.10497   1.00816    0.014
 6468.00    1.10936   1.00357    0.014
 6469.00    1.08743   0.99544    0.014
 6470.00    1.06741   0.98717    0.014
 6471.00    1.07446   0.98306    0.014
 6472.00    1.07860   0.98464    0.014
 6473.00    1.05575   0.98566    0.014
 6474.00    1.03341   0.98180    0.014
 6475.00    1.01459   0.98000    0.014
 6476.00    1.00853   0.98590    0.014
 6477.00    1.06947   0.99378    0.013
 6478.00    1.12083   0.99625    0.013
 6479.00    1.13170   0.99070    0.013
 6480.00    1.14123   0.97608    0.013
 6481.00    1.14608   0.95721    0.013
 6482.00    1.14799   0.94694    0.013
 6483.00    1.14128   0.95235    0.013
 6484.00    1.13477   0.96631    0.013
 6485.00    1.12875   0.97829    0.013
 6486.00    1.13122   0.98478    0.013
 6487.00    1.15201   0.98656    0.013
 6488.00    1.16654   0.98330    0.013
 6489.00    1.16938   0.97467    0.013
 6490.00    1.16287   0.96323    0.013
 6491.00    1.14108   0.94989    0.014
 6492.00    1.11634   0.92834    0.014
 6493.00    1.08738   0.89558    0.014
 6494.00    1.06835   0.86498    0.014
 6495.00    1.06181   0.85324    0.014
 6496.00    1.04742   0.86217    0.014
 6497.00    1.02429   0.88169    0.014
 6498.00    1.01318   0.90128    0.014
 6499.00    1.01385   0.91916    0.014
 6500.00    1.02561   0.93814    0.013
 6501.00    1.04695   0.95555    0.013
 6502.00    1.05962   0.96731    0.013
 6503.00    1.06569   0.97388    0.013
 6504.00    1.06388   0.97829    0.013
 6505.00    1.05679   0.98164    0.013
 6506.00    1.06807   0.98154    0.013
 6507.00    1.09013   0.97722    0.013
 6508.00    1.13082   0.97361    0.013
 6509.00    1.18103   0.97550    0.013
 6510.00    1.20399   0.98076    0.013
 6511.00    1.21489   0.98389    0.013
 6512.00    1.20685   0.98280    0.013
 6513.00    1.19162   0.97771    0.013
 6514.00    1.16907   0.96895    0.013
 6515.00    1.14416   0.95938    0.014
 6516.00    1.12782   0.95294    0.014
 6517.00    1.11379   0.95049    0.014
 6518.00    1.12241   0.95307    0.014
 6519.00    1.13604   0.96242    0.014
 6520.00    1.12619   0.97433    0.014
 6521.00    1.11221   0.98184    0.014
 6522.00    1.13417   0.98400    0.014
 6523.00    1.16096   0.98421    0.014
 6524.00    1.13312   0.98282    0.014
 6525.00    1.10007   0.97727    0.013
 6526.00    1.09585   0.97007    0.013
 6527.00    1.09333   0.96874    0.014
 6528.00    1.11977   0.97469    0.000
 6529.00    1.14692   0.98047    0.000
 6530.00    1.17277   0.97952    0.000
 6531.00    1.19841   0.97299    0.000
 6532.00    1.21903   0.96766    0.000
 6533.00    1.23657   0.96924    0.000
 6534.00    1.21293   0.97670    0.000
 6535.00    1.19057   0.98337    0.000
 6536.00    1.17966   0.98482    0.000
 6537.00    1.17066   0.98400    0.000
 6538.00    1.17424   0.98610    0.000
 6539.00    1.17268   0.99025    0.000
 6540.00    1.14485   0.99077    0.000
 6541.00    1.12162   0.98504    0.000
 6542.00    1.11734   0.97559    0.000
 6543.00    1.12187   0.96505    0.000
 6544.00    1.15649   0.95275    0.000
 6545.00    1.18855   0.94010    0.000
 6546.00    1.21323   0.93532    0.000
 6547.00    1.22457   0.94210    0.000
 6548.00    1.20316   0.95141    0.000
 6549.00    1.19110   0.95364    0.000
 6550.00    1.19891   0.94897    0.000
 6551.00    1.20208   0.94252    0.000
 6552.00    1.19673   0.93581    0.000
 6553.00    1.17853   0.92614    0.000
 6554.00    1.13967   0.91393    0.000
 6555.00    1.10225   0.90519    0.000
 6556.00    1.06689   0.90348    0.000
 6557.00    1.05010   0.90391    0.000
 6558.00    1.05637   0.89771    0.000
 6559.00    1.05862   0.87535    0.000
 6560.00    1.05649   0.82231    0.000
 6561.00    1.06891   0.73726    0.000
 6562.00    1.09539   0.66716    0.000
 6563.00    1.11220   0.67476    0.000
 6564.00    1.12077   0.75413    0.000
 6565.00    1.12805   0.83978    0.000
 6566.00    1.13436   0.89051    0.000
 6567.00    1.12090   0.90972    0.000
 6568.00    1.09442   0.91340    0.000
 6569.00    1.07571   0.91492    0.000
 6570.00    1.06147   0.91874    0.000
 6571.00    1.06034   0.91893    0.000
 6572.00    1.06580   0.91231    0.000
 6573.00    1.05768   0.90597    0.000
 6574.00    1.04365   0.90876    0.000
 6575.00    1.04181   0.92262    0.000
 6576.00    1.04452   0.94074    0.000
 6577.00    1.08330   0.95340    0.000
 6578.00    1.13350   0.95635    0.000
 6579.00    1.16374   0.95190    0.000
 6580.00    1.18870   0.94618    0.000
 6581.00    1.16862   0.94599    0.000
 6582.00    1.13880   0.95224    0.000
 6583.00    1.19095   0.95859    0.000
 6584.00    1.25715   0.95999    0.000
 6585.00    1.27311   0.95825    0.000
 6586.00    1.28254   0.95942    0.000
 6587.00    1.24240   0.96595    0.000
 6588.00    1.19774   0.97295    0.000
 6589.00    1.20292   0.97397    0.000
 6590.00    1.21085   0.96406    0.000
 6591.00    1.16651   0.94146    0.000
 6592.00    1.12108   0.91621    0.000
 6593.00    1.07907   0.90764    0.000
 6594.00    1.03876   0.92178    0.000
 6595.00    1.03713   0.94271    0.000
 6596.00    1.03973   0.95317    0.000
 6597.00    1.09588   0.95205    0.000
 6598.00    1.14528   0.94997    0.000
 6599.00    1.13678   0.95540    0.000
 6600.00    1.12966   0.96596    0.000
 6601.00    1.13128   0.97292    0.000
 6602.00    1.13480   0.97141    0.000
 6603.00    1.14783   0.96330    0.000
 6604.00    1.14974   0.95415    0.000
 6605.00    1.10679   0.94825    0.000
 6606.00    1.06525   0.94440    0.000
 6607.00    1.02841   0.93879    0.000
 6608.00    1.00844   0.93360    0.000
 6609.00    1.03614   0.93729    0.014
 6610.00    1.06732   0.95103    0.014
 6611.00    1.10691   0.96288    0.014
 6612.00    1.13009   0.96387    0.014
 6613.00    1.11904   0.96032    0.014
 6614.00    1.10660   0.96239    0.014
 6615.00    1.09163   0.96921    0.014
 6616.00    1.09048   0.97360    0.015
 6617.00    1.11122   0.97402    0.015
 6618.00    1.12341   0.97410    0.015
 6619.00    1.12370   0.97572    0.014
 6620.00    1.13265   0.97710    0.014
 6621.00    1.15221   0.97506    0.014
 6622.00    1.14684   0.96755    0.014
 6623.00    1.11453   0.95597    0.014
 6624.00    1.11046   0.94658    0.014
 6625.00    1.13329   0.94554    0.014
 6626.00    1.15848   0.95109    0.014
 6627.00    1.18564   0.95642    0.014
 6628.00    1.19773   0.95811    0.014
 6629.00    1.19868   0.95688    0.014
 6630.00    1.18487   0.95374    0.014
 6631.00    1.16147   0.94767    0.014
 6632.00    1.12972   0.93830    0.014
 6633.00    1.09321   0.93098    0.014
 6634.00    1.08053   0.93287    0.014
 6635.00    1.07964   0.94315    0.014
 6636.00    1.07103   0.95393    0.014
 6637.00    1.05913   0.95930    0.014
 6638.00    1.07623   0.95927    0.014
 6639.00    1.10397   0.95815    0.014
 6640.00    1.14023   0.95863    0.014
 6641.00    1.17913   0.95621    0.015
 6642.00    1.17291   0.94645    0.015
 6643.00    1.15501   0.93675    0.014
 6644.00    1.12938   0.93760    0.014
 6645.00    1.10212   0.94613    0.014
 6646.00    1.11631   0.95249    0.014
 6647.00    1.13741   0.95462    0.014
 6648.00    1.14673   0.95570    0.014
 6649.00    1.15457   0.95547    0.014
 6650.00    1.12820   0.95221    0.014
 6651.00    1.09884   0.94785    0.014
 6652.00    1.08937   0.94577    0.014
 6653.00    1.08093   0.94660    0.014
 6654.00    1.10302   0.94831    0.014
 6655.00    1.12555   0.94903    0.014
 6656.00    1.14063   0.94897    0.014
 6657.00    1.15408   0.94929    0.014
 6658.00    1.13311   0.94936    0.014
 6659.00    1.11146   0.94736    0.014
 6660.00    1.08173   0.94240    0.014
 6661.00    1.05783   0.93379    0.015
 6662.00    1.08201   0.92331    0.015
 6663.00    1.10235   0.91826    0.015
 6664.00    1.09893   0.92276    0.015
 6665.00    1.09286   0.93024    0.015
 6666.00    1.07393   0.93420    0.015
 6667.00    1.07026   0.93701    0.015
 6668.00    1.12684   0.94288    0.015
 6669.00    1.16200   0.95063    0.015
 6670.00    1.12681   0.95618    0.015
 6671.00    1.10039   0.95791    0.015
 6672.00    1.09835   0.95745    0.014
 6673.00    1.09752   0.95661    0.014
 6674.00    1.09961   0.95409    0.014
 6675.00    1.10535   0.94408    0.014
 6676.00    1.11857   0.92266    0.015
 6677.00    1.12644   0.89976    0.015
 6678.00    1.12475   0.89334    0.015
 6679.00    1.10428   0.90575    0.014
 6680.00    1.05449   0.92167    0.014
 6681.00    1.02138   0.93082    0.014
 6682.00    1.01115   0.93577    0.014
 6683.00    1.00788   0.94016    0.015
 6684.00    1.01300   0.94319    0.015
 6685.00    1.04219   0.94360    0.015
 6686.00    1.09700   0.94201    0.015
 6687.00    1.12412   0.94043    0.015
 6688.00    1.12526   0.94073    0.015
 6689.00    1.10883   0.94259    0.015
 6690.00    1.07786   0.94405    0.015
 6691.00    1.06232   0.94427    0.015
 6692.00    1.05804   0.94372    0.015
 6693.00    1.07999   0.94177    0.015
 6694.00    1.11871   0.93654    0.015
 6695.00    1.14104   0.92906    0.015
 6696.00    1.15418   0.92448    0.000
 6697.00    1.13704   0.92598    0.000
 6698.00    1.10516   0.93196    0.000
 6699.00    1.09432   0.93931    0.000
 6700.00    1.09233   0.94461    0.000
 6701.00    1.11610   0.94460    0.000
 6702.00    1.14916   0.93921    0.000
 6703.00    1.13456   0.93271    0.000
 6704.00    1.10546   0.93054    0.000
 6705.00    1.04508   0.93401    0.000
 6706.00    0.97679   0.93934    0.000
 6707.00    0.99457   0.94233    0.000
 6708.00    1.03008   0.94172    0.000
 6709.00    1.00779   0.93879    0.000
 6710.00    0.97615   0.93629    0.000
 6711.00    1.01640   0.93493    0.000
 6712.00    1.06534   0.93189    0.000
 6713.00    1.14214   0.92532    0.000
 6714.00    1.22124   0.91576    0.000
 6715.00    1.20234   0.90385    0.000
 6716.00    1.17879   0.89216    0.000
 6717.00    1.27239   0.88798    0.000
 6718.00    1.36352   0.89613    0.000
 6719.00    1.22272   0.91001    0.000
 6720.00    1.08724   0.91916    0.000
 6721.00    1.05537   0.92223    0.000
 6722.00    1.03110   0.92418    0.000
 6723.00    1.09398   0.92625    0.000
 6724.00    1.14284   0.92575    0.000
 6725.00    1.08004   0.92292    0.000
 6726.00    1.03068   0.92185    0.000
 6727.00    1.06186   0.92477    0.000
 6728.00    1.08892   0.92961    0.000
 6729.00    1.09648   0.93336    0.000
 6730.00    1.10850   0.93438    0.000
 6731.00    1.13783   0.93258    0.000
 6732.00    1.16561   0.92977    0.000
 6733.00    1.18841   0.92863    0.000
 6734.00    1.19032   0.93009    0.000
 6735.00    1.13526   0.93204    0.000
 6736.00    1.08677   0.93090    0.000
 6737.00    1.05363   0.92539    0.000
 6738.00    1.03113   0.91910    0.000
 6739.00    1.03016   0.91702    0.000
 6740.00    1.02550   0.91903    0.000
 6741.00    1.01435   0.91989    0.000
 6742.00    1.00671   0.91801    0.000
 6743.00    1.00449   0.91791    0.000
 6744.00    0.98791   0.92113    0.000
 6745.00    0.95193   0.92329    0.000
 6746.00    0.95573   0.92137    0.000
 6747.00    1.00691   0.91636    0.000
 6748.00    1.05033   0.91031    0.000
 6749.00    1.08561   0.90604    0.000
 6750.00    1.09277   0.90605    0.000
 6751.00    1.07390   0.90846    0.000
 6752.00    1.01081   0.91023    0.000
 6753.00    0.91160   0.91301    0.017
 6754.00    0.88553   0.91843    0.017
 6755.00    0.91200   0.92470    0.018
 6756.00    0.92002   0.93062    0.018
 6757.00    0.91642   0.93584    0.018
 6758.00    0.95903   0.93944    0.018
 6759.00    1.02712   0.94105    0.018
 6760.00    1.06646   0.94104    0.019
 6761.00    1.09202   0.94006    0.019
 6762.00    1.20338   0.93924    0.019
 6763.00    1.35021   0.93860    0.020
 6764.00    1.35807   0.93589    0.020
 6765.00    1.31677   0.92885    0.019
 6766.00    1.26047   0.91947    0.019
 6767.00    1.19969   0.91438    0.019
 6768.00    1.14925   0.91667    0.019
 6769.00    1.10138   0.92063    0.018
 6770.00    1.18401   0.92113    0.018
 6771.00    1.29283   0.92145    0.018
 6772.00    1.24319   0.92623    0.018
 6773.00    1.16865   0.93432    0.018
 6774.00    1.19792   0.94203    0.017
 6775.00    1.23929   0.94701    0.017
 6776.00    1.22011   0.94883    0.018
 6777.00    1.19616   0.94909    0.018
 6778.00    1.17167   0.94948    0.018
 6779.00    1.14716   0.94872    0.018
 6780.00    1.13951   0.94378    0.018
 6781.00    1.13279   0.93341    0.018
 6782.00    1.16145   0.92019    0.018
 6783.00    1.19035   0.90935    0.018
 6784.00    1.22328   0.90482    0.018
 6785.00    1.25215   0.90663    0.018
 6786.00    1.23654   0.91258    0.018
 6787.00    1.21154   0.91956    0.018
 6788.00    1.11423   0.92400    0.018
 6789.00    1.03879   0.92514    0.017
 6790.00    1.09078   0.92534    0.018
 6791.00    1.15102   0.92487    0.018
 6792.00    1.24937   0.92197    0.018
 6793.00    1.29983   0.91801    0.018
 6794.00    1.16924   0.91682    0.018
 6795.00    1.08504   0.91945    0.018
 6796.00    1.14731   0.92381    0.018
 6797.00    1.17562   0.92758    0.018
 6798.00    1.11299   0.93024    0.018
 6799.00    1.07629   0.93282    0.018
 6800.00    1.09921   0.93552    0.018
 6801.00    1.11414   0.93700    0.018
 6802.00    1.11319   0.93610    0.018
 6803.00    1.12895   0.93364    0.018
 6804.00    1.17364   0.93175    0.018
 6805.00    1.19518   0.93055    0.018
 6806.00    1.18158   0.92953    0.018
 6807.00    1.15207   0.92984    0.018
 6808.00    1.10136   0.93079    0.017
 6809.00    1.05395   0.93053    0.017
 6810.00    1.01042   0.93042    0.017
 6811.00    1.02048   0.93178    0.017
 6812.00    1.08601   0.93229    0.018
 6813.00    1.13872   0.92932    0.018
 6814.00    1.17971   0.92483    0.018
 6815.00    1.19816   0.92438    0.018
 6816.00    1.19847   0.92929    0.018
 6817.00    1.17889   0.93393    0.018
 6818.00    1.14522   0.93347    0.018
 6819.00    1.11767   0.93001    0.018
 6820.00    1.09392   0.92924    0.018
 6821.00    1.09838   0.93321    0.018
 6822.00    1.11817   0.93877    0.018
 6823.00    1.09618   0.94259    0.018
 6824.00    1.05450   0.94401    0.018
 6825.00    1.03541   0.94238    0.018
 6826.00    1.02549   0.93649    0.018
 6827.00    1.03780   0.92854    0.018
 6828.00    1.05783   0.92482    0.018
 6829.00    1.06113   0.92836    0.018
 6830.00    1.05954   0.93468    0.018
 6831.00    1.05982   0.93776    0.018
 6832.00    1.06056   0.93765    0.018
 6833.00    1.10443   0.93855    0.018
 6834.00    1.15673   0.94131    0.018
 6835.00    1.20173   0.94253    0.018
 6836.00    1.24561   0.94003    0.019
 6837.00    1.18824   0.93425    0.019
 6838.00    1.11951   0.92603    0.019
 6839.00    1.10700   0.91637    0.019
 6840.00    1.09870   0.90734    0.019
 6841.00    1.04492   0.90263    0.019
 6842.00    0.98933   0.90570    0.019
 6843.00    0.98455   0.91580    0.019
 6844.00    0.98217   0.92756    0.018
 6845.00    1.06106   0.93538    0.018
 6846.00    1.13223   0.93818    0.018
 6847.00    1.07291   0.93843    0.018
 6848.00    1.02400   0.93738    0.018
 6849.00    1.08389   0.93507    0.018
 6850.00    1.13518   0.93292    0.018
 6851.00    1.12257   0.93205    0.018
 6852.00    1.11132   0.93026    0.018
 6853.00    1.10773   0.92387    0.018
 6854.00    1.10273   0.91427    0.018
 6855.00    1.09134   0.90848    0.018
 6856.00    1.09268   0.90980    0.018
 6857.00    1.14112   0.91450    0.018
 6858.00    1.15501   0.91806    0.018
 6859.00    1.06187   0.91730    0.018
 6860.00    0.97152   0.91218    0.018
 6861.00    0.88849   0.90939    0.018
 6862.00    0.88881   0.91589    0.018
 6863.00    1.07749   0.92838    0.019
 6864.00    1.16218   0.93665    0.019
 6865.00    1.04332   0.93545    0.019
 6866.00    0.99609   0.92760    0.019
 6867.00    1.07108   0.91938    0.019
 6868.00    1.09529   0.91636    0.020
 6869.00    1.04357   0.91886    0.019
 6870.00    1.00333   0.92115    0.019
 6871.00    0.97818   0.91986    0.019
 6872.00    0.98269   0.91892    0.018
 6873.00    1.02153   0.92169    0.018
 6874.00    1.03908   0.92603    0.018
 6875.00    1.03489   0.93008    0.018
 6876.00    1.02557   0.93490    0.018
 6877.00    1.01163   0.94018    0.018
 6878.00    1.04543   0.94324    0.018
 6879.00    1.11709   0.94167    0.018
 6880.00    1.11830   0.93497    0.018
 6881.00    1.07036   0.92607    0.018
 6882.00    1.06019   0.92061    0.018
 6883.00    1.07315   0.92164    0.018
 6884.00    1.06430   0.92588    0.018
 6885.00    1.04380   0.92927    0.018
 6886.00    1.01375   0.93305    0.018
 6887.00    0.97929   0.93877    0.018
 6888.00    1.01498   0.94406    0.018
 6889.00    1.07871   0.94726    0.018
 6890.00    1.08553   0.94919    0.018
 6891.00    1.07297   0.94973    0.018
 6892.00    1.06274   0.94839    0.019
 6893.00    1.05318   0.94623    0.019
 6894.00    1.06494   0.94399    0.018
 6895.00    1.08175   0.94184    0.018
 6896.00    1.05970   0.94118    0.018
 6897.00    1.03025   0.94241    0.018
 6898.00    1.09159   0.94280    0.018
 6899.00    1.16635   0.94065    0.019
 6900.00    1.11899   0.93949    0.018
 6901.00    1.05846   0.94305    0.018
 6902.00    1.09698   0.94855    0.018
 6903.00    1.14250   0.95088    0.019
 6904.00    1.18640   0.95030    0.019
 6905.00    1.23025   0.95135    0.018
 6906.00    1.17109   0.95565    0.018
 6907.00    1.11444   0.95989    0.018
 6908.00    1.15637   0.96092    0.019
 6909.00    1.18829   0.95874    0.019
 6910.00    1.06175   0.95455    0.018
 6911.00    0.95471   0.94915    0.018
 6912.00    1.04301   0.94237    0.018
 6913.00    1.11197   0.93511    0.018
 6914.00    1.04198   0.93131    0.019
 6915.00    0.98843   0.93270    0.019
 6916.00    1.02556   0.93615    0.018
 6917.00    1.05760   0.93930    0.018
 6918.00    1.06723   0.94234    0.018
 6919.00    1.07227   0.94612    0.018
 6920.00    1.06071   0.95043    0.018
 6921.00    1.05543   0.95253    0.018
 6922.00    1.06924   0.94865    0.018
 6923.00    1.06970   0.93874    0.018
 6924.00    1.03564   0.92902    0.018
 6925.00    1.02739   0.92679    0.018
 6926.00    1.07651   0.93317    0.018
 6927.00    1.11966   0.94247    0.019
 6928.00    1.15128   0.94874    0.019
 6929.00    1.13451   0.95043    0.019
 6930.00    1.03642   0.94876    0.019
 6931.00    0.98506   0.94455    0.019
 6932.00    1.00255   0.93951    0.019
 6933.00    1.01524   0.93791    0.020
 6934.00    1.02169   0.94143    0.020
 6935.00    1.02979   0.94598    0.019
 6936.00    1.03978   0.94788    0.019
 6937.00    1.03835   0.94821    0.019
 6938.00    1.02542   0.94954    0.019
 6939.00    1.01630   0.95251    0.019
 6940.00    1.01056   0.95539    0.018
 6941.00    1.05475   0.95510    0.018
 6942.00    1.13798   0.94951    0.018
 6943.00    1.15123   0.93948    0.019
 6944.00    1.11637   0.93043    0.019
 6945.00    1.06368   0.92976    0.019
 6946.00    1.00026   0.93825    0.020
 6947.00    0.94727   0.94849    0.021
 6948.00    0.89978   0.95401    0.022
 6949.00    0.90010   0.95321    0.022
 6950.00    0.92224   0.94744    0.022
 6951.00    0.90122   0.94072    0.022
 6952.00    0.86323   0.93659    0.022
 6953.00    0.95675   0.93580    0.021
 6954.00    1.09426   0.93865    0.020
 6955.00    1.15874   0.94469    0.019
 6956.00    1.20272   0.95090    0.020
 6957.00    1.10366   0.95447    0.019
 6958.00    0.97151   0.95578    0.019
 6959.00    0.94805   0.95672    0.019
 6960.00    0.94477   0.95841    0.019
 6961.00    0.98716   0.96076    0.019
 6962.00    1.03609   0.96302    0.019
 6963.00    0.99792   0.96385    0.018
 6964.00    0.95073   0.96211    0.018
 6965.00    1.03479   0.95960    0.018
 6966.00    1.12761   0.96043    0.019
 6967.00    1.12570   0.96491    0.019
 6968.00    1.12073   0.96813    0.019
 6969.00    1.10121   0.96641    0.019
 6970.00    1.08173   0.96199    0.019
 6971.00    1.06332   0.95996    0.019
 6972.00    1.05043   0.96139    0.019
 6973.00    1.11948   0.96165    0.019
 6974.00    1.17206   0.95665    0.019
 6975.00    1.06655   0.94617    0.019
 6976.00    0.96865   0.93060    0.019
 6977.00    0.92380   0.91249    0.019
 6978.00    0.90226   0.90199    0.019
 6979.00    1.00584   0.90906    0.019
 6980.00    1.08363   0.92940    0.019
 6981.00    1.05032   0.94974    0.019
 6982.00    1.03505   0.96248    0.019
 6983.00    1.08386   0.96801    0.019
 6984.00    1.09952   0.96950    0.018
 6985.00    1.01633   0.96904    0.018
 6986.00    0.96914   0.96633    0.018
 6987.00    1.01339   0.96049    0.018
 6988.00    1.03360   0.95373    0.018
 6989.00    1.00127   0.95072    0.019
 6990.00    0.99644   0.95335    0.019
 6991.00    1.04374   0.95855    0.019
 6992.00    1.05419   0.96170    0.019
 6993.00    1.00364   0.96146    0.019
 6994.00    0.95884   0.96039    0.019
 6995.00    0.92240   0.96042    0.019
 6996.00    0.95073   0.95980    0.019
 6997.00    1.06173   0.95529    0.020
 6998.00    1.11566   0.94684    0.020
 6999.00    1.10539   0.94008    0.020
 7000.00    1.07359   0.94097    0.020
 7001.00    1.02042   0.94749    0.020
 7002.00    0.95143   0.95117    0.020
 7003.00    0.86860   0.94769    0.020
 7004.00    0.87106   0.94186    0.020
 7005.00    0.93926   0.94042    0.020
 7006.00    0.74011   0.94445    0.020
 7007.00    0.35980   0.95085    0.018
 7008.00    0.44784   0.95643    0.026
 7009.00    0.81398   0.95886    0.104
 7010.00    0.96808   0.95808   -1.000
 7011.00    1.01237   0.95743   -1.000
 7012.00    1.01891   0.95840   -1.000
 7013.00    1.00851   0.95539   -1.000
 7014.00    0.92053   0.94198   -1.000
 7015.00    0.80262   0.92343   -1.000
 7016.00    0.81887   0.91635   -1.000
 7017.00    0.87916   0.92905   -1.000
 7018.00    0.90375   0.95050   -1.000
 7019.00    0.91852   0.96563   -1.000
 7020.00    1.03182   0.96968   -1.000
 7021.00    1.16739   0.96403   -1.000
 7022.00    1.07491   0.95186   -1.000
 7023.00    0.94122   0.94060   -1.000
 7024.00    1.01812   0.93818   -1.000
 7025.00    1.12418   0.94449   -1.000
 7026.00    1.11324   0.95225   -1.000
 7027.00    1.09069   0.95686   -1.000
 7028.00    1.02819   0.95964   -1.000
 7029.00    0.96319   0.96254   -1.000
 7030.00    1.03969   0.96478   -1.000
 7031.00    1.11943   0.96470   -1.000
 7032.00    0.99602   0.96259   -1.000
 7033.00    0.87821   0.96079   -1.000
 7034.00    0.91455   0.96125   -1.000
 7035.00    0.94942   0.96195   -1.000
 7036.00    0.96357   0.95702   -1.000
 7037.00    0.98106   0.94641   -1.000
 7038.00    1.02918   0.94193   -1.000
 7039.00    1.05823   0.95304   -1.000
 7040.00    0.95866   0.97310   -1.000
 7041.00    0.89608   0.98883   -1.000
 7042.00    1.02682   0.99427   -1.000
 7043.00    1.12109   0.99113   -1.000
 7044.00    1.06185   0.98509   -1.000
 7045.00    1.01447   0.98283   -1.000
 7046.00    1.00832   0.98672   -1.000
 7047.00    1.00958   0.99310   -1.000
 7048.00    1.03248   0.99663   -1.000
 7049.00    1.04160   0.99423   -1.000
 7050.00    1.01631   0.98483   -2.000
 7051.00    1.02056   0.96823   -2.000
 7052.00    1.08834   0.94697   -2.000
 7053.00    1.12827   0.92718   -2.000
 7054.00    1.11617   0.91543   -2.000
 7055.00    1.10411   0.91501   -2.000
 7056.00    1.09214   0.92229   -2.000
 7057.00    1.10368   0.92782   -2.000
 7058.00    1.14884   0.92470   -2.000
 7059.00    1.16469   0.91551   -2.000
 7060.00    1.14366   0.90858   -2.000
 7061.00    1.07807   0.90832   -2.000
 7062.00    0.96305   0.91259   -2.000
 7063.00    0.94706   0.91715   -2.000
 7064.00    1.02791   0.91797   -2.000
 7065.00    1.03047   0.91304   -2.000
 7066.00    0.96549   0.90505   -2.000
 7067.00    0.96109   0.89902   -2.000
 7068.00    1.00273   0.89983   -2.000
 7069.00    1.07105   0.90905   -2.000
 7070.00    1.15718   0.92178   -2.000
 7071.00    1.11991   0.93142   -2.000
 7072.00    1.01046   0.93624   -2.000
 7073.00    1.02149   0.93787   -2.000
 7074.00    1.09393   0.93753   -2.000
 7075.00    1.11758   0.93638   -2.000
 7076.00    1.11970   0.93600   -2.000
 7077.00    1.11275   0.93727   -2.000
 7078.00    1.10238   0.93979   -2.000
 7079.00    1.18495   0.94258   -2.000
 7080.00    1.29745   0.94349   -2.000
 7081.00    1.31902   0.93869   -2.000
 7082.00    1.31610   0.92590   -2.000
 7083.00    1.17756   0.90853   -2.000
 7084.00    1.00908   0.89489   -2.000
 7085.00    0.98854   0.88953   -2.000
 7086.00    0.99401   0.88676   -2.000
 7087.00    1.12139   0.88005   -2.000
 7088.00    1.26511   0.87172   -2.000
 7089.00    1.05914   0.86728   -2.000
 7090.00    0.81994   0.86844   -2.000
 7091.00    0.82243   0.87252   -2.000
 7092.00    0.83910   0.87525   -2.000
 7093.00    0.92545   0.87534   -2.000
 7094.00    1.01325   0.87417   -2.000
 7095.00    1.06299   0.87358   -2.000
 7096.00    1.10774   0.87531   -2.000
 7097.00    1.02873   0.88050   -2.000
 7098.00    0.96062   0.88829   -2.000
 7099.00    1.03736   0.89455   -2.000
 7100.00    1.09752   0.89577   -2.000
 7101.00    1.01066   0.89259   -2.000
 7102.00    0.93790   0.88946   -2.000
 7103.00    0.95726   0.89073   -2.000
 7104.00    0.98084   0.89582   -2.000
 7105.00    1.02591   0.89983   -2.000
 7106.00    1.05012   0.90043   -2.000
 7107.00    0.98844   0.89997   -2.000
 7108.00    0.95139   0.89921   -2.000
 7109.00    0.99831   0.89529   -2.000
 7110.00    1.02917   0.88839   -2.000
 7111.00    1.01390   0.88457   -2.000
 7112.00    1.01273   0.88783   -2.000
 7113.00    1.04617   0.89486   -2.000
 7114.00    1.04848   0.90082   -2.000
 7115.00    0.98492   0.90512   -2.000
 7116.00    0.96308   0.90861   -2.000
 7117.00    1.01797   0.91062   -2.000
 7118.00    1.05404   0.91058   -2.000
 7119.00    1.05989   0.90861   -2.000
 7120.00    1.08667   0.90494   -2.000
 7121.00    1.14296   0.90117   -2.000
 7122.00    1.17147   0.90045   -2.000
 7123.00    1.16555   0.90086   -2.000
 7124.00    1.06895   0.89516   -2.000
 7125.00    0.87321   0.88288   -2.000
 7126.00    0.82331   0.87288   -2.000
 7127.00    0.91405   0.87005   -2.000
 7128.00    0.92716   0.86891   -2.000
 7129.00    0.87426   0.86336   -2.000
 7130.00    0.89531   0.85651   -2.000
 7131.00    0.97174   0.85608   -2.000
 7132.00    0.82055   0.86357   -2.000
 7133.00    0.51960   0.87387   -2.000
 7134.00    0.62536   0.88192   -2.000
 7135.00    0.96538   0.88626   -2.000
 7136.00    1.10541   0.88775   -2.000
 7137.00    1.14510   0.88649   -2.000
 7138.00    1.08715   0.88361   -2.000
 7139.00    0.98681   0.88312   -2.000
 7140.00    0.98196   0.88675   -2.000
 7141.00    1.01269   0.89113   -2.000
 7142.00    0.97235   0.89322   -2.000
 7143.00    0.90955   0.89332   -2.000
 7144.00    0.96404   0.89210   -2.000
 7145.00    1.04946   0.88862   -2.000
 7146.00    1.11157   0.88072   -2.000
 7147.00    1.16866   0.87072   -2.000
 7148.00    1.03540   0.86747   -2.000
 7149.00    0.86961   0.87454   -2.000
 7150.00    0.86804   0.88576   -2.000
 7151.00    0.88774   0.89584   -2.000
 7152.00    0.93407   0.90351   -2.000
 7153.00    0.98281   0.90689   -2.000
 7154.00    1.04264   0.90640   -2.000
 7155.00    1.10308   0.90731   -2.000
 7156.00    1.02778   0.91154   -2.000
 7157.00    0.95166   0.91325   -2.000
 7158.00    1.06002   0.90861   -2.000
 7159.00    1.15735   0.90237   -2.000
 7160.00    1.00459   0.90055   -2.000
 7161.00    0.60883   0.90120   -2.000
 7162.00   -2.84743   0.89599   -2.000
 7163.00   -5.57991   0.88235   -2.000
 7164.00   -2.13759   0.87013   -2.000
 7165.00    0.87315   0.87090   -2.000
 7166.00    1.14862   0.88330   -2.000
 7167.00    1.32204   0.89608   -2.000
 7168.00    0.98876   0.90211   -2.000
 7169.00    0.69516   0.90362   -2.000
 7170.00    0.56133   0.90592   -2.000
 7171.00    0.51128   0.91027   -2.000
 7172.00    0.74114   0.91364   -2.000
 7173.00    0.89527   0.91306   -2.000
 7174.00    0.83575   0.90845   -2.000
 7175.00    0.79001   0.90289   -2.000
 7176.00    0.77750   0.90082   -2.000
 7177.00    0.78780   0.90241   -2.000
 7178.00    0.84559   0.90139   -2.000
 7179.00    0.85815   0.89315   -2.000
 7180.00    0.78883   0.88325   -2.000
 7181.00    0.77778   0.88280   -2.000
 7182.00    0.85898   0.89468   -2.000
 7183.00    0.91542   0.90888   -2.000
 7184.00    0.93745   0.91340   -2.000
 7185.00    0.90370   0.90448   -2.000
 7186.00    0.80174   0.88743   -2.000
 7187.00    0.76725   0.87336   -2.000
 7188.00    0.80549   0.87065   -2.000
 7189.00    0.76558   0.87848   -2.000
 7190.00    0.65137   0.88955   -2.000
 7191.00    0.66335   0.89639   -2.000
 7192.00    0.78111   0.89801   -2.000
 7193.00    0.79090   0.89938   -2.000
 7194.00    0.72098   0.90254   -2.000
 7195.00    0.64425   0.90308   -2.000
 7196.00    0.56312   0.89883   -2.000
 7197.00    0.59222   0.89560   -2.000
 7198.00    0.68386   0.89802   -2.000
 7199.00    0.64248   0.90169   -2.000
 7200.00    0.53541   0.90020   -2.000
 7201.00    0.44955   0.89575   -2.000
 7202.00    0.37275   0.89702   -2.000
 7203.00    0.49522   0.90510   -2.000
 7204.00    0.69060   0.90969   -2.000
 7205.00    0.92065   0.90129   -2.000
 7206.00    1.16143   0.88333   -2.000
 7207.00    1.01733   0.87048   -2.000
 7208.00    0.77390   0.87233   -2.000
 7209.00    0.78767   0.88576   -2.000
 7210.00    0.85555   0.90158   -2.000
 7211.00   -0.54012   0.91067   -2.000
 7212.00   -2.17886   0.90955   -2.000
 7213.00   -0.49162   0.90295   -2.000
 7214.00    1.61120   0.89807   -2.000
 7215.00    1.85991   0.89852   -2.000
 7216.00    1.94802   0.90417   -2.000
 7217.00    1.89144   0.91209   -2.000
 7218.00    1.82751   0.91727   -2.000
