###################################################################
## OUTPUT of StarlightChains_v04.for    [Cid@UFSC - 01/Apr/2007] ##
###################################################################

## Some input info
KUG0210-078._46_52.txt                   [arq_obs]
Base.CB07.vall.4m                        [arq_base]
Masks.EmLines.NEW.gm                     [arq_masks]
StCv04.C11.config                        [arq_config]
   66                                    [N_base]
    0                                    [N_YAV_components = # of components with extra extinction!]
    0                                    [i_FitPowerLaw (1/0 = Yes/No)]
-9.99                                    [alpha_PowerLaw]
CCM                                      [red_law_option]
 1.458241                                [q_norm = A(l_norm)/A(V)]

## (Re)Sampling Parameters
 3741.00                                 [l_ini (A)]
 7218.00                                 [l_fin (A)]
    1.00                                 [dl    (A)]     (OBS: dl_cushion =    50.00 A)

## Normalization info
 4020.00                                 [l_norm (A) - for base]
 4010.00                                 [llow_norm (A) - window for f_obs]
 4060.00                                 [lupp_norm (A) - window for f_obs]
2.914664E-18                             [fobs_norm (in input units)]

## S/N
 3691.00                                 [llow_SN (A) - window for S/N]
 7268.00                                 [lupp_SN (A) - window for S/N]
   1.874                                 [S/N in S/N window]
   1.013                                 [S/N in norm. window]
   0.007                                 [S/N_err in S/N window]
   0.004                                 [S/N_err in norm. window]
  1.0000                                 [fscale_chi2]

## etc...
    -2007902                             [idum_orig]
  2353                                   [NOl_eff]
  2111                                   [Nl_eff]
   242    NSIGMA                         [Ntot_cliped & clip_method]
  5197710                                [Nglobal_steps]
   7                                     [N_chains]
   7                                     [NEX0s_base = N_base in EX0s-fits]
 0   0   1      242   2.0   2.038E+03    [Clip-Bug, RC-Crash & Burn-In warning-flags, n_censored_weights, wei_nsig_threshold & wei_limit]
    48     45.975     44.885      1.090  [idt_all, wdt_TotTime, wdt_UsrTime & wdt_SysTime (sec)]

## Synthesis Results - Best model ##

 5.01469E-05                             [chi2/Nl_eff]
    51.01285                             [adev (%)]

   130.00000                             [sum-of-x (%)]
 5.37741E-16                             [Flux_tot (units of input spectrum!)]
 4.91536E-14                             [Mini_tot (???)]
 4.91536E-14                             [Mcor_tot (???)]

 -71.59                                  [v0_min  (km/s)]
   0.00                                  [vd_min  (km/s)]
 3.6894                                  [AV_min  (mag)]
 0.0000                                  [YAV_min (mag)]

# j     x_j(%)      Mini_j(%)     Mcor_j(%)     age_j(yr)     Z_j      (L/M)_j    YAV?  Mstars   component_j        a/Fe...       SSP_chi2r SSP_adev(%)   SSP_AV   SSP_x(%)
  1    130.0000     1.0000E+02    1.0000E+02    1.000000E+06  0.00400  1.094E-02    0   1.0000   age020_m42            0.0000     2.4489E-05    41.4034   1.5685   319.0352
  2      0.0000     0.0000E+00    0.0000E+00    3.160000E+06  0.00400  4.007E-02    0   0.9999   age045_m42            0.0000     2.3978E-05    41.9619   0.9158   331.2286
  3      0.0000     0.0000E+00    0.0000E+00    5.010000E+06  0.00400  2.539E-02    0   0.9488   age055_m42            0.0000     2.4184E-05    41.6109   1.1995   327.6758
  4      0.0000     0.0000E+00    0.0000E+00    6.610000E+06  0.00400  2.620E-02    0   0.9220   age061_m42            0.0000     2.4058E-05    42.0497   0.8528   330.8751
  5      0.0000     0.0000E+00    0.0000E+00    1.000000E+07  0.00400  1.322E-02    0   0.8862   age070_m42            0.0000     2.4324E-05    43.1342   0.6061   336.4522
  6      0.0000     0.0000E+00    0.0000E+00    1.445000E+07  0.00400  7.883E-03    0   0.8571   age078_m42            0.0000     2.4355E-05    42.7090   0.9030   331.0247
  7      0.0000     0.0000E+00    0.0000E+00    2.512000E+07  0.00400  5.251E-03    0   0.8174   age090_m42            0.0000     2.4314E-05    43.3765   0.4855   337.4072
  8      0.0000     0.0000E+00    0.0000E+00    4.000000E+07  0.00400  3.649E-03    0   0.7851   age104_m42            0.0000     2.4220E-05    43.4603   0.2732   338.3070
  9      0.0000     0.0000E+00    0.0000E+00    5.500000E+07  0.00400  3.098E-03    0   0.7629   age110_m42            0.0000     2.3965E-05    42.9929   0.4169   338.0637
 10      0.0000     0.0000E+00    0.0000E+00    1.015200E+08  0.00400  2.228E-03    0   0.7207   age116_m42            0.0000     2.3884E-05    42.7762   0.4361   337.8967
 11      0.0000     0.0000E+00    0.0000E+00    2.861200E+08  0.00400  1.093E-03    0   0.6648   age125_m42            0.0000     2.4059E-05    43.4454  -0.0964   343.5291
 12      0.0000     0.0000E+00    0.0000E+00    5.088000E+08  0.00400  6.597E-04    0   0.6365   age130_m42            0.0000     2.3797E-05    43.0040  -0.1101   345.6387
 13      0.0000     0.0000E+00    0.0000E+00    1.434000E+09  0.00400  2.132E-04    0   0.5798   age139_m42            0.0000     2.3936E-05    43.4517  -1.0000   343.6003
 14      0.0000     0.0000E+00    0.0000E+00    4.250000E+09  0.00400  5.895E-05    0   0.5377   age158_m42            0.0000     2.5225E-05    52.6044  -1.0000   303.4818
 15      0.0000     0.0000E+00    0.0000E+00    7.500000E+09  0.00400  3.510E-05    0   0.5212   age171_m42            0.0000     2.6164E-05    56.9912  -1.0000   288.7028
 16      0.0000     0.0000E+00    0.0000E+00    1.300000E+10  0.00400  2.005E-05    0   0.5034   age193_m42            0.0000     2.7272E-05    61.0681  -1.0000   275.8405
 17      0.0000     0.0000E+00    0.0000E+00    1.800000E+10  0.00400  1.525E-05    0   0.4967   age213_m42            0.0000     2.7376E-05    61.8002  -1.0000   273.3652
 18      0.0000     0.0000E+00    0.0000E+00    1.000000E+06  0.00800  1.238E-02    0   1.0000   age020_m52            0.0000     2.4460E-05    41.3528   1.5617   319.8553
 19      0.0000     0.0000E+00    0.0000E+00    3.160000E+06  0.00800  3.074E-02    0   0.9966   age045_m52            0.0000     2.4379E-05    41.2762   1.4886   322.1960
 20      0.0000     0.0000E+00    0.0000E+00    5.010000E+06  0.00800  2.668E-02    0   0.9443   age055_m52            0.0000     2.4272E-05    41.5129   1.2762   325.4872
 21      0.0000     0.0000E+00    0.0000E+00    6.610000E+06  0.00800  2.136E-02    0   0.9177   age061_m52            0.0000     2.4513E-05    42.6190   0.1036   340.0670
 22      0.0000     0.0000E+00    0.0000E+00    1.000000E+07  0.00800  1.215E-02    0   0.8827   age070_m52            0.0000     2.4373E-05    43.2651   0.7783   336.8635
 23      0.0000     0.0000E+00    0.0000E+00    1.445000E+07  0.00800  8.717E-03    0   0.8552   age078_m52            0.0000     2.4251E-05    42.8099   0.8788   334.6395
 24      0.0000     0.0000E+00    0.0000E+00    2.512000E+07  0.00800  5.592E-03    0   0.8162   age090_m52            0.0000     2.4147E-05    43.4694   0.5555   340.7430
 25      0.0000     0.0000E+00    0.0000E+00    4.000000E+07  0.00800  3.896E-03    0   0.7841   age104_m52            0.0000     2.4037E-05    43.3524   0.4773   341.3535
 26      0.0000     0.0000E+00    0.0000E+00    1.015200E+08  0.00800  2.148E-03    0   0.7226   age116_m52            0.0000     2.4072E-05    42.9430   0.4217   338.6764
 27      0.0000     0.0000E+00    0.0000E+00    2.861200E+08  0.00800  9.925E-04    0   0.6683   age125_m52            0.0000     2.3816E-05    42.9290  -0.0395   348.2073
 28      0.0000     0.0000E+00    0.0000E+00    9.047900E+08  0.00800  3.141E-04    0   0.6138   age135_m52            0.0000     2.3373E-05    42.1375  -0.8123   356.5836
 29      0.0000     0.0000E+00    0.0000E+00    1.434000E+09  0.00800  1.719E-04    0   0.5853   age139_m52            0.0000     2.4365E-05    50.3922  -1.0000   324.9390
 30      0.0000     0.0000E+00    0.0000E+00    2.500000E+09  0.00800  7.872E-05    0   0.5600   age150_m52            0.0000     2.5716E-05    56.2538  -1.0000   298.0458
 31      0.0000     0.0000E+00    0.0000E+00    4.250000E+09  0.00800  4.336E-05    0   0.5426   age158_m52            0.0000     2.5885E-05    56.5069  -1.0000   294.1075
 32      0.0000     0.0000E+00    0.0000E+00    6.250000E+09  0.00800  3.159E-05    0   0.5319   age166_m52            0.0000     2.7256E-05    61.0855  -1.0000   279.3742
 33      0.0000     0.0000E+00    0.0000E+00    1.300000E+10  0.00800  1.361E-05    0   0.5073   age193_m52            0.0000     3.1473E-05    72.1263  -1.0000   243.9187
 34      0.0000     0.0000E+00    0.0000E+00    1.800000E+10  0.00800  9.886E-06    0   0.4990   age213_m52            0.0000     3.2746E-05    73.9669  -1.0000   234.4794
 35      0.0000     0.0000E+00    0.0000E+00    1.000000E+06  0.02000  1.544E-02    0   1.0000   age020_m62            0.0000     2.4449E-05    41.2779   1.5512   321.1777
 36      0.0000     0.0000E+00    0.0000E+00    3.160000E+06  0.02000  3.762E-02    0   0.9858   age045_m62            0.0000     2.4280E-05    41.1344   1.4826   324.8677
 37      0.0000     0.0000E+00    0.0000E+00    5.010000E+06  0.02000  3.296E-02    0   0.9342   age055_m62            0.0000     2.4046E-05    41.5826   1.1707   330.1936
 38      0.0000     0.0000E+00    0.0000E+00    8.710000E+06  0.02000  1.154E-02    0   0.8861   age067_m62            0.0000     2.4846E-05    45.6178   0.2520   348.7341
 39      0.0000     0.0000E+00    0.0000E+00    1.445000E+07  0.02000  7.663E-03    0   0.8472   age078_m62            0.0000     2.4362E-05    43.9540   0.4375   344.2290
 40      0.0000     0.0000E+00    0.0000E+00    2.512000E+07  0.02000  4.532E-03    0   0.8099   age090_m62            0.0000     2.4488E-05    44.2806   0.4438   341.6805
 41      0.0000     0.0000E+00    0.0000E+00    5.500000E+07  0.02000  2.733E-03    0   0.7595   age110_m62            0.0000     2.4183E-05    43.2569   0.4544   339.6840
 42      0.0000     0.0000E+00    0.0000E+00    1.609000E+08  0.02000  1.369E-03    0   0.6985   age120_m62            0.0000     2.3877E-05    42.9132   0.3060   345.7871
 43      0.0000     0.0000E+00    0.0000E+00    2.861200E+08  0.02000  9.013E-04    0   0.6714   age125_m62            0.0000     2.3554E-05    42.7393   0.0620   353.8436
 44      0.0000     0.0000E+00    0.0000E+00    5.088000E+08  0.02000  5.028E-04    0   0.6449   age130_m62            0.0000     2.3061E-05    42.0290  -0.3114   360.5462
 45      0.0000     0.0000E+00    0.0000E+00    9.047900E+08  0.02000  2.428E-04    0   0.6179   age135_m62            0.0000     2.3384E-05    41.3867  -0.8785   353.9700
 46      0.0000     0.0000E+00    0.0000E+00    1.434000E+09  0.02000  1.263E-04    0   0.5908   age139_m62            0.0000     2.4049E-05    47.4291  -1.0000   328.5226
 47      0.0000     0.0000E+00    0.0000E+00    2.500000E+09  0.02000  5.985E-05    0   0.5673   age150_m62            0.0000     2.5751E-05    55.8731  -1.0000   299.7867
 48      0.0000     0.0000E+00    0.0000E+00    4.250000E+09  0.02000  3.271E-05    0   0.5468   age158_m62            0.0000     2.7959E-05    62.8085  -1.0000   275.0070
 49      0.0000     0.0000E+00    0.0000E+00    1.000000E+10  0.02000  1.360E-05    0   0.5167   age181_m62            0.0000     3.1245E-05    70.2489  -1.0000   247.8369
 50      0.0000     0.0000E+00    0.0000E+00    1.800000E+10  0.02000  7.124E-06    0   0.5013   age213_m62            0.0000     3.3756E-05    74.2516  -1.0000   230.2589
 51      0.0000     0.0000E+00    0.0000E+00    1.000000E+06  0.05000  2.592E-02    0   0.9998   age020_m72            0.0000     2.4530E-05    41.2811   1.5425   321.5947
 52      0.0000     0.0000E+00    0.0000E+00    3.160000E+06  0.05000  4.845E-02    0   0.9577   age045_m72            0.0000     2.4192E-05    41.1625   1.3867   326.1770
 53      0.0000     0.0000E+00    0.0000E+00    5.010000E+06  0.05000  3.072E-02    0   0.9147   age055_m72            0.0000     2.4308E-05    42.7426   0.9700   335.3594
 54      0.0000     0.0000E+00    0.0000E+00    6.610000E+06  0.05000  1.455E-02    0   0.8877   age061_m72            0.0000     2.5278E-05    46.9393   0.2986   352.1874
 55      0.0000     0.0000E+00    0.0000E+00    1.000000E+07  0.05000  9.074E-03    0   0.8524   age070_m72            0.0000     2.4303E-05    42.8996   1.1382   334.8356
 56      0.0000     0.0000E+00    0.0000E+00    2.512000E+07  0.05000  4.250E-03    0   0.7902   age090_m72            0.0000     2.4296E-05    43.3469   0.8906   335.5235
 57      0.0000     0.0000E+00    0.0000E+00    4.000000E+07  0.05000  3.087E-03    0   0.7618   age104_m72            0.0000     2.4313E-05    43.8512   0.6888   338.5813
 58      0.0000     0.0000E+00    0.0000E+00    1.015200E+08  0.05000  1.700E-03    0   0.7096   age116_m72            0.0000     2.4046E-05    43.3277   0.4558   344.0046
 59      0.0000     0.0000E+00    0.0000E+00    2.861200E+08  0.05000  7.384E-04    0   0.6633   age125_m72            0.0000     2.3150E-05    42.2410  -0.0672   357.1106
 60      0.0000     0.0000E+00    0.0000E+00    5.088000E+08  0.05000  3.819E-04    0   0.6372   age130_m72            0.0000     2.2938E-05    41.2534  -0.5577   360.4735
 61      0.0000     0.0000E+00    0.0000E+00    9.047900E+08  0.05000  1.676E-04    0   0.6110   age135_m72            0.0000     2.3660E-05    44.6751  -1.0000   336.5708
 62      0.0000     0.0000E+00    0.0000E+00    1.434000E+09  0.05000  8.837E-05    0   0.5874   age139_m72            0.0000     2.5560E-05    55.4693  -1.0000   303.5553
 63      0.0000     0.0000E+00    0.0000E+00    2.500000E+09  0.05000  4.233E-05    0   0.5598   age150_m72            0.0000     2.7911E-05    62.4504  -1.0000   277.3019
 64      0.0000     0.0000E+00    0.0000E+00    6.250000E+09  0.05000  1.435E-05    0   0.5249   age166_m72            0.0000     3.2317E-05    72.2486  -1.0000   239.8180
 65      0.0000     0.0000E+00    0.0000E+00    1.300000E+10  0.05000  6.513E-06    0   0.5036   age193_m72            0.0000     3.6108E-05    77.3077  -1.0000   220.8930
 66      0.0000     0.0000E+00    0.0000E+00    1.800000E+10  0.05000  4.527E-06    0   0.4945   age213_m72            0.0000     3.8505E-05    79.8492  -1.0000   208.3165


## Synthesis Results - Average & Chains ##

# j      x_j: min, <> & last-chain-values for 1 ...  7 chains
  1    130.0000      0.4896      0.4989      0.5506      0.4356      0.5171      0.4937      0.4853      0.0000
  2      0.0000      0.1881      0.0000      0.0163      0.6035      0.4518      0.0102      0.9430      1.3039
  3      0.0000      0.1791      0.1089      0.8367      0.2451      0.6149      0.0319      0.8771      0.7025
  4      0.0000      0.1769      0.0647      0.0000      0.0383      0.2240      0.0253      1.1597      0.0297
  5      0.0000      0.1291      0.0842      0.6042      0.0000      0.4864      0.0000      0.4687      0.5457
  6      0.0000      0.1241      0.0000      0.6296      1.4023      0.0000      0.0000      0.0000      0.0000
  7      0.0000      0.1861      0.1491      0.4363      0.5685      0.7545      0.0000      0.0000      0.0000
  8      0.0000      0.1643      0.0756      1.6139      0.4697      0.1372      0.0289      0.9281      0.3541
  9      0.0000      0.2112      0.1527      0.9683      1.4202      0.5299      0.0000      0.5499      1.5073
 10      0.0000      0.1881      0.0000      0.1931      0.0000      0.1906      0.0350      0.0000      0.0000
 11      0.0000      0.1493      0.0348      0.3164      0.1399      0.2169      0.0000      0.0000      0.9450
 12      0.0000      0.2092      0.0000      0.0000      0.5641      0.0357      0.0209      0.2533      1.9578
 13      0.0000      0.1775      0.0143      0.2807      0.5922      0.1336      0.0020      0.8318      0.2484
 14      0.0000      0.1762      0.0567      1.2907      0.1484      0.4641      0.0310      0.7057      0.3128
 15      0.0000      0.1807      0.0758      0.1065      0.0000      0.2064      0.0491      0.3727      0.4486
 16      0.0000      0.1550      0.1171      0.0000      0.1363      0.5667      0.0407      0.7557      0.0645
 17      0.0000      0.1426      0.0201      0.0000      0.0151      0.5250      0.0089      0.0000      0.1175
 18      0.0000      0.1807      0.0000      0.7003      0.1022      0.3325      0.0252      0.2484      0.5974
 19      0.0000      0.1831      0.1091      0.9848      0.9563      0.0000      0.0000      0.0000      0.0000
 20      0.0000      0.1967      0.0131      1.1393      0.1857      0.4998      0.0130      0.0000      0.1957
 21      0.0000      0.1849      0.0000      1.2148      0.5327      0.1733      0.0429      0.2223      0.0095
 22      0.0000      0.1111      0.0386      0.2036      0.0000      0.1953      0.0000      0.2211      0.6859
 23      0.0000      0.1510      0.1114      0.3332      0.0000      0.3675      0.0002      0.0558      0.0000
 24      0.0000      0.1434      0.0116      1.0098      0.2609      0.0304      0.0000      0.0000      0.4757
 25      0.0000      0.1413      0.0658      0.2474      0.0000      0.1000      0.0220      0.3436      0.3309
 26      0.0000      0.1893      0.0559      1.5771      1.2335      0.2960      0.0000      1.5233      0.1107
 27      0.0000      0.1643      0.1268      1.1602      0.2014      0.0000      0.0000      0.3480      0.4482
 28      0.0000      0.1124      0.0030      0.0000      0.0000      0.1161      0.0065      0.3791      0.0000
 29      0.0000      0.1634      0.0034      0.0000      0.1738      0.2879      0.0021      0.0000      1.4022
 30      0.0000      0.1586      0.0407      0.0478      0.2965      0.1757      0.0626      0.7675      1.1956
 31      0.0000      0.1616      0.0000      0.3297      0.1540      0.0101      0.0286      0.1843      0.0000
 32      0.0000      0.1681      0.0112      0.0979      0.2147      0.1362      0.0142      0.7001      0.4383
 33      0.0000      0.1750      0.0000      0.5939      0.6062      0.0850      0.0021      1.0452      1.6321
 34      0.0000      0.1734      0.0179      0.5725      0.3859      0.0788      0.0365      0.7481      0.0111
 35      0.0000      0.1406      0.0000      0.1504      0.0000      0.0832      0.0023      0.0000      0.0000
 36      0.0000      0.1463      0.1100      0.8972      0.2656      0.2956      0.0626      0.6656      0.0000
 37      0.0000      0.1784      0.0985      0.6337      0.9640      0.5460      0.0000      0.4596      0.0000
 38      0.0000      0.2024      0.0000      0.1098      0.7393      0.2026      0.0131      1.7850      0.9235
 39      0.0000      0.1369      0.0000      0.8019      0.0570      0.3351      0.0241      0.0529      0.4403
 40      0.0000      0.1244      0.0831      0.0000      0.0542      0.1520      0.0000      0.0095      0.0829
 41      0.0000      0.1745      0.0225      0.3311      0.0000      0.1410      0.0108      0.0000      0.2164
 42      0.0000      0.2145      0.0000      1.3044      1.0859      0.4716      0.0259      0.0723      0.0000
 43      0.0000      0.1946      0.0583      0.0000      0.4303      0.6886      0.0238      1.0991      0.4657
 44      0.0000      0.1498      0.0857      0.0061      0.1674      0.8242      0.0164      0.4317      0.0000
 45      0.0000      0.1834      0.0903      0.3494      0.0448      0.4745      0.0622      0.0000      1.1560
 46      0.0000      0.1446      0.0905      0.4191      0.1121      0.6912      0.0086      0.0000      0.3774
 47      0.0000      0.1459      0.0258      0.0000      1.6285      0.3625      0.0576      0.0000      1.2192
 48      0.0000      0.1672      0.0000      1.2084      0.2163      0.3034      0.0400      1.1579      0.1277
 49      0.0000      0.2404      0.0349      0.6196      0.5297      0.1141      0.0000      2.2746      0.0000
 50      0.0000      0.1715      0.0399      0.0000      0.5728      0.6331      0.0014      0.7599      0.0000
 51      0.0000    118.8781    126.4732     98.6396    104.3941    107.4660    128.2814    103.0136    102.3934
 52      0.0000      0.1403      0.0139      1.1603      0.0658      0.1119      0.0035      0.0000      0.3565
 53      0.0000      0.1603      0.0163      0.8927      1.3346      0.3550      0.0177      0.0000      0.3663
 54      0.0000      0.1795      0.0000      0.3670      0.3167      0.6210      0.0064      0.0000      0.7061
 55      0.0000      0.1665      0.0290      0.2607      0.5965      0.0000      0.1600      0.4368      0.1890
 56      0.0000      0.1465      0.0871      0.0000      0.6362      0.1764      0.0046      0.1642      0.1382
 57      0.0000      0.1744      0.0000      1.2096      1.2188      0.5903      0.0000      0.0000      0.1492
 58      0.0000      0.1569      0.1947      0.5294      0.0073      0.3473      0.0000      0.2927      0.1351
 59      0.0000      0.1705      0.0435      0.0000      0.9391      0.1249      0.0375      0.0000      0.6079
 60      0.0000      0.1451      0.0768      0.3233      0.1473      0.4855      0.0310      0.1841      0.8370
 61      0.0000      0.1567      0.1650      0.0000      0.3859      0.5188      0.0131      0.0315      0.1598
 62      0.0000      0.1682      0.0000      0.1881      0.2035      0.0000      0.0372      0.6110      0.5772
 63      0.0000      0.1304      0.0405      0.4662      0.3439      1.2256      0.0000      0.5099      1.3563
 64      0.0000      0.1347      0.0276      0.3819      0.0000      0.5096      0.0128      0.0000      0.0379
 65      0.0000      0.1435      0.0000      0.5569      0.0000      0.6281      0.0000      0.3744      0.2374
 66      0.0000      0.1735      0.0310      0.0000      0.3259      1.4271      0.0132      0.3813      0.6232

# j      m_j: min, <> & last-chain-values for 1 ...  7 chains
  1  1.0000E+02  4.1903E-02  1.9942E-01  2.6350E-02  2.1056E-02  1.3047E-02  3.1724E-01  1.1716E-02  0.0000E+00
  2  0.0000E+00  4.3942E-03  0.0000E+00  2.1343E-04  7.9635E-03  3.1122E-03  1.7850E-03  6.2146E-03  1.3760E-02
  3  0.0000E+00  6.2677E-03  1.7795E-02  1.6368E-02  4.8427E-03  6.3429E-03  8.3697E-03  8.6554E-03  1.1101E-02
  4  0.0000E+00  5.8293E-03  9.9518E-03  0.0000E+00  7.1324E-04  2.1761E-03  6.2667E-03  1.0777E-02  4.4211E-04
  5  0.0000E+00  8.1020E-03  2.4693E-02  2.1205E-02  0.0000E+00  8.9991E-03  0.0000E+00  8.2967E-03  1.5470E-02
  6  0.0000E+00  1.2631E-02  0.0000E+00  3.5840E-02  8.0620E-02  0.0000E+00  0.0000E+00  0.0000E+00  0.0000E+00
  7  0.0000E+00  2.7118E-02  1.0150E-01  3.5554E-02  4.6798E-02  3.2417E-02  0.0000E+00  0.0000E+00  0.0000E+00
  8  0.0000E+00  3.3104E-02  7.1165E-02  1.8178E-01  5.3436E-02  8.1504E-03  4.3701E-02  5.2731E-02  3.2213E-02
  9  0.0000E+00  4.8699E-02  1.6444E-01  1.2484E-01  1.8493E-01  3.6017E-02  0.0000E+00  3.5761E-02  1.5696E-01
 10  0.0000E+00  5.6969E-02  0.0000E+00  3.2701E-02  0.0000E+00  1.7021E-02  7.9582E-02  0.0000E+00  0.0000E+00
 11  0.0000E+00  8.5036E-02  9.2456E-02  1.0076E-01  4.4987E-02  3.6408E-02  0.0000E+00  0.0000E+00  2.4305E-01
 12  0.0000E+00  1.8894E-01  0.0000E+00  0.0000E+00  2.8781E-01  9.4983E-03  1.4188E-01  6.4550E-02  7.9879E-01
 13  0.0000E+00  4.5188E-01  1.6950E-01  3.9957E-01  8.5157E-01  1.0031E-01  3.7420E-02  5.9736E-01  2.8572E-01
 14  0.0000E+00  1.5046E+00  2.2607E+00  6.1634E+00  7.1580E-01  1.1684E+00  1.9864E+00  1.6999E+00  1.2067E+00
 15  0.0000E+00  2.5126E+00  4.9251E+00  8.2790E-01  0.0000E+00  8.4580E-01  5.1234E+00  1.4616E+00  2.8171E+00
 16  0.0000E+00  3.6432E+00  1.2859E+01  0.0000E+00  1.8090E+00  3.9276E+00  7.1796E+00  5.0105E+00  6.8523E-01
 17  0.0000E+00  4.3486E+00  2.8570E+00  0.0000E+00  2.5987E-01  4.7199E+00  2.0310E+00  0.0000E+00  1.6177E+00
 18  0.0000E+00  1.3669E-02  0.0000E+00  2.9613E-02  4.3666E-03  7.4137E-03  1.4312E-02  5.2994E-03  2.0407E-02
 19  0.0000E+00  5.5589E-03  1.5464E-02  1.6715E-02  1.6393E-02  0.0000E+00  0.0000E+00  0.0000E+00  0.0000E+00
 20  0.0000E+00  6.5170E-03  2.0243E-03  2.1110E-02  3.4749E-03  4.8827E-03  3.2454E-03  0.0000E+00  2.9297E-03
 21  0.0000E+00  7.4366E-03  0.0000E+00  2.7324E-02  1.2103E-02  2.0547E-03  1.2946E-02  2.5219E-03  1.7206E-04
 22  0.0000E+00  7.5587E-03  1.2278E-02  7.7453E-03  0.0000E+00  3.9173E-03  0.0000E+00  4.2426E-03  2.1071E-02
 23  0.0000E+00  1.3867E-02  4.7811E-02  1.7113E-02  0.0000E+00  9.9515E-03  1.1841E-04  1.4459E-03  0.0000E+00
 24  0.0000E+00  1.9592E-02  7.4116E-03  7.7159E-02  2.0135E-02  1.2241E-03  0.0000E+00  0.0000E+00  2.9360E-02
 25  0.0000E+00  2.6634E-02  5.7912E-02  2.6067E-02  0.0000E+00  5.5528E-03  3.1135E-02  1.8262E-02  2.8165E-02
 26  0.0000E+00  5.9636E-02  8.2305E-02  2.7775E-01  2.1942E-01  2.7481E-02  0.0000E+00  1.3533E-01  1.5750E-02
 27  0.0000E+00  1.0358E-01  3.7342E-01  4.0900E-01  7.1699E-02  0.0000E+00  0.0000E+00  6.1876E-02  1.2763E-01
 28  0.0000E+00  2.0569E-01  2.6024E-02  0.0000E+00  0.0000E+00  6.2648E-02  8.8940E-02  1.9564E-01  0.0000E+00
 29  0.0000E+00  5.2092E-01  5.0195E-02  0.0000E+00  3.1299E-01  2.7054E-01  4.9275E-02  0.0000E+00  2.0190E+00
 30  0.0000E+00  1.0560E+00  1.2660E+00  1.7788E-01  1.1153E+00  3.4492E-01  3.1299E+00  1.4419E+00  3.5968E+00
 31  0.0000E+00  1.8928E+00  0.0000E+00  2.1601E+00  1.0194E+00  3.4919E-02  2.5132E+00  6.0911E-01  0.0000E+00
 32  0.0000E+00  2.6492E+00  8.2807E-01  8.6254E-01  1.9111E+00  6.3292E-01  1.6802E+00  3.1129E+00  3.1204E+00
 33  0.0000E+00  6.1078E+00  0.0000E+00  1.1589E+01  1.1949E+01  8.7433E-01  5.4770E-01  1.0289E+01  2.5725E+01
 34  0.0000E+00  8.1950E+00  3.9599E+00  1.5128E+01  1.0299E+01  1.0977E+00  1.2944E+01  9.9726E+00  2.3784E-01
 35  0.0000E+00  8.5279E-03  0.0000E+00  5.0982E-03  0.0000E+00  1.4869E-03  1.0295E-03  0.0000E+00  0.0000E+00
 36  0.0000E+00  3.5883E-03  1.2605E-02  1.2309E-02  3.6808E-03  2.1378E-03  1.1534E-02  4.6064E-03  0.0000E+00
 37  0.0000E+00  4.7346E-03  1.2204E-02  9.4038E-03  1.4447E-02  4.2718E-03  0.0000E+00  3.4398E-03  0.0000E+00
 38  0.0000E+00  1.4552E-02  0.0000E+00  4.4151E-03  3.0017E-02  4.2931E-03  7.0868E-03  3.6196E-02  2.9987E-02
 39  0.0000E+00  1.4170E-02  0.0000E+00  4.6413E-02  3.3315E-03  1.0225E-02  1.8697E-02  1.5441E-03  2.0585E-02
 40  0.0000E+00  2.0816E-02  6.4910E-02  0.0000E+00  5.1192E-03  7.4990E-03  0.0000E+00  4.5054E-04  6.2676E-03
 41  0.0000E+00  4.5398E-02  2.7370E-02  4.8167E-02  0.0000E+00  1.0814E-02  2.1153E-02  0.0000E+00  2.5432E-02
 42  0.0000E+00  1.0246E-01  0.0000E+00  3.4843E-01  2.9296E-01  6.6417E-02  9.2975E-02  9.7471E-03  0.0000E+00
 43  0.0000E+00  1.3573E-01  1.8987E-01  0.0000E+00  1.6948E-01  1.4158E-01  1.2447E-01  2.1621E-01  1.4671E-01
 44  0.0000E+00  1.7989E-01  4.8049E-01  4.1179E-03  1.1357E-01  2.9180E-01  1.4811E-01  1.4622E-01  0.0000E+00
 45  0.0000E+00  4.3706E-01  1.0048E+00  4.6546E-01  6.0256E-02  3.3333E-01  1.1131E+00  0.0000E+00  1.2441E+00
 46  0.0000E+00  6.3339E-01  1.8519E+00  1.0263E+00  2.7728E-01  8.9246E-01  2.8166E-01  0.0000E+00  7.4644E-01
 47  0.0000E+00  1.2947E+00  1.0700E+00  0.0000E+00  8.1624E+00  9.4840E-01  3.8357E+00  0.0000E+00  4.8869E+00
 48  0.0000E+00  2.6175E+00  0.0000E+00  1.0575E+01  1.9119E+00  1.4000E+00  4.7021E+00  5.1119E+00  9.0276E-01
 49  0.0000E+00  8.5517E+00  5.7946E+00  1.2324E+01  1.0642E+01  1.1961E+00  0.0000E+00  2.2822E+01  0.0000E+00
 50  0.0000E+00  1.1297E+01  1.2278E+01  0.0000E+00  2.1311E+01  1.2296E+01  6.7192E-01  1.4121E+01  0.0000E+00
 51  0.0000E+00  4.2931E+00  2.1335E+01  1.9919E+00  2.1293E+00  1.1442E+00  3.4787E+01  1.0493E+00  1.6702E+00
 52  0.0000E+00  2.5963E-03  1.2045E-03  1.2007E-02  6.8789E-04  6.1075E-04  4.8687E-04  0.0000E+00  2.9800E-03
 53  0.0000E+00  4.4685E-03  2.1234E-03  1.3916E-02  2.1013E-02  2.9176E-03  3.6976E-03  0.0000E+00  4.6128E-03
 54  0.0000E+00  1.0253E-02  0.0000E+00  1.1723E-02  1.0216E-02  1.0457E-02  2.7242E-03  0.0000E+00  1.8216E-02
 55  0.0000E+00  1.4648E-02  1.1907E-02  1.2822E-02  2.9631E-02  0.0000E+00  1.0565E-01  1.0836E-02  7.5076E-03
 56  0.0000E+00  2.5510E-02  7.0833E-02  0.0000E+00  6.2547E-02  9.0526E-03  5.9843E-03  8.0600E-03  1.0865E-02
 57  0.0000E+00  4.0283E-02  0.0000E+00  1.5627E-01  1.5904E-01  4.0211E-02  0.0000E+00  0.0000E+00  1.5573E-02
 58  0.0000E+00  6.1330E-02  3.5548E-01  1.1568E-01  1.6140E-03  4.0013E-02  0.0000E+00  3.2262E-02  2.3847E-02
 59  0.0000E+00  1.4339E-01  1.7087E-01  0.0000E+00  4.4609E-01  3.0961E-02  2.3659E-01  0.0000E+00  2.3093E-01
 60  0.0000E+00  2.2665E-01  5.6028E-01  2.8244E-01  1.2993E-01  2.2359E-01  3.6362E-01  8.1133E-02  5.9055E-01
 61  0.0000E+00  5.3494E-01  2.6301E+00  0.0000E+00  7.4382E-01  5.2208E-01  3.3623E-01  3.0311E-02  2.4628E-01
 62  0.0000E+00  1.0470E+00  0.0000E+00  6.5457E-01  7.1511E-01  0.0000E+00  1.7401E+00  1.0725E+00  1.6225E+00
 63  0.0000E+00  1.6150E+00  2.3408E+00  3.2276E+00  2.4046E+00  4.4736E+00  0.0000E+00  1.7808E+00  7.5851E+00
 64  0.0000E+00  4.6142E+00  4.4224E+00  7.3130E+00  0.0000E+00  5.1454E+00  3.2847E+00  0.0000E+00  5.8607E-01
 65  0.0000E+00  1.0385E+01  0.0000E+00  2.2545E+01  0.0000E+00  1.3406E+01  0.0000E+00  7.6448E+00  7.7616E+00
 66  0.0000E+00  1.7749E+01  1.4831E+01  0.0000E+00  1.8826E+01  4.3028E+01  1.0132E+01  1.0999E+01  2.8785E+01

# AV, chi2 & Mass for <> & i_chain = 1 ...  7 solutions
AV       3.6894      2.4381      3.4250      2.7783      2.7681      2.7992      3.6415      2.7813      2.8242
chi2 5.0147E-05  5.6411E-05  5.1017E-05  5.3172E-05  5.3297E-05  5.3224E-05  5.0627E-05  5.3431E-05  5.3132E-05
Mass 4.9154E-14  8.2287E-14  6.6311E-14  2.3239E-13  2.2695E-13  4.5334E-13  5.5164E-14  4.6254E-13  3.0599E-13
 -71.59                                  [v0_min (km/s) before EX0s...]
   0.00                                  [vd_min (km/s) before EX0s...]


## Synthetic spectrum (Best Model) ##l_obs f_obs f_syn wei
 3478    [Nl_obs]
 3741.00    4.52153   1.17918    0.000
 3742.00    3.93335   1.17706    0.000
 3743.00    0.40218   1.17027    0.000
 3744.00    0.09700   1.15725    0.000
 3745.00    1.67141   1.13942   -1.000
 3746.00    2.01733   1.11617   -1.000
 3747.00    1.73942   1.08654   -1.000
 3748.00    0.55025   1.05208   -1.000
 3749.00   -1.03962   1.03188    0.000
 3750.00   -0.92804   1.04144    0.000
 3751.00   -0.17411   1.07243    0.000
 3752.00    0.75000   1.10475   -1.000
 3753.00    1.72866   1.12711   -1.000
 3754.00    0.46126   1.14587   -1.000
 3755.00   -1.40803   1.16438    0.000
 3756.00   -1.78960   1.17877    0.000
 3757.00   -1.84462   1.18938    0.000
 3758.00   -1.62626   1.18965    0.000
 3759.00   -1.36018   1.18878    0.000
 3760.00   -1.46154   1.19707    0.000
 3761.00   -1.61170   1.20393    0.000
 3762.00   -0.80106   1.19965    0.000
 3763.00    0.09988   1.18827   -1.000
 3764.00    0.21964   1.17205   -1.000
 3765.00    0.29433   1.15029   -1.000
 3766.00    3.00232   1.12122   -1.000
 3767.00    5.73669   1.08211   -1.000
 3768.00    4.09150   1.03517   -1.000
 3769.00    2.44486   0.99498   -1.000
 3770.00    0.76292   0.98676   -1.000
 3771.00   -0.70929   1.01740    0.000
 3772.00    0.56686   1.06299   -1.000
 3773.00    1.85070   1.10478   -1.000
 3774.00    3.20196   1.13932   -1.000
 3775.00    4.11129   1.16724   -1.000
 3776.00    2.15526   1.18692   -1.000
 3777.00    0.19748   1.20242   -1.000
 3778.00   -1.76918   1.21331    0.000
 3779.00   -2.67298   1.22292    0.000
 3780.00    0.77367   1.22904   -1.000
 3781.00    3.14464   1.23310   -1.000
 3782.00    1.86725   1.23527   -1.000
 3783.00    0.92775   1.23555   -1.000
 3784.00    0.95465   1.23395   -1.000
 3785.00    0.97977   1.23387   -1.000
 3786.00    1.00055   1.23225   -1.000
 3787.00    0.86761   1.22702   -1.000
 3788.00    0.41066   1.21970   -1.000
 3789.00    0.28462   1.20787   -1.000
 3790.00    0.76472   1.19041   -1.000
 3791.00    1.23874   1.17151   -1.000
 3792.00    1.70303   1.14818   -1.000
 3793.00    1.66863   1.11571   -1.000
 3794.00    0.93374   1.07188   -1.000
 3795.00    0.71962   1.01567   -1.000
 3796.00    1.14918   0.95782   -1.000
 3797.00    1.44733   0.93216   -1.000
 3798.00    1.60231   0.96089   -1.000
 3799.00    1.87295   1.01875   -1.000
 3800.00    2.25476   1.07481   -1.000
 3801.00    1.65583   1.11830   -1.000
 3802.00    0.22585   1.15276   -1.000
 3803.00   -0.08347   1.17776    0.000
 3804.00    0.44346   1.19489   -1.000
 3805.00    0.57144   1.20873   -1.000
 3806.00    0.43790   1.22146   -1.000
 3807.00   -0.52099   1.23323    0.000
 3808.00   -1.95349   1.23967    0.000
 3809.00   -0.98284   1.24471    0.000
 3810.00    1.18894   1.24879   -1.000
 3811.00    0.85843   1.25103   -1.000
 3812.00   -0.55417   1.25133    0.000
 3813.00   -0.34280   1.25234    0.000
 3814.00    0.47084   1.25167   -1.000
 3815.00    0.95587   1.24905   -1.000
 3816.00    1.33760   1.24004   -1.000
 3817.00    0.52655   1.21087   -1.000
 3818.00   -0.59739   1.16553    0.000
 3819.00   -0.04831   1.15345    0.000
 3820.00    0.85922   1.19017   -1.000
 3821.00    0.81896   1.22597   -1.000
 3822.00    0.61785   1.23985   -1.000
 3823.00    1.12566   1.24099   -1.000
 3824.00    1.72443   1.23574   -1.000
 3825.00    1.83153   1.22907   -1.000
 3826.00    1.89450   1.21872   -1.000
 3827.00    1.19442   1.20441   -1.000
 3828.00    0.45333   1.18434   -1.000
 3829.00    0.89338   1.15923   -1.000
 3830.00    1.34983   1.12642   -1.000
 3831.00    1.19282   1.08206   -1.000
 3832.00    1.05093   1.02126   -1.000
 3833.00    1.24522   0.94849   -1.000
 3834.00    1.42997   0.89189   -1.000
 3835.00    1.49621   0.89597   -1.000
 3836.00    1.66320   0.95700   -1.000
 3837.00    2.68179   1.02939   -1.000
 3838.00    3.34802   1.08728   -1.000
 3839.00    1.79759   1.13115   -1.000
 3840.00    1.05735   1.16392   -1.000
 3841.00    4.31476   1.18943   -1.000
 3842.00    6.39258   1.20895   -1.000
 3843.00    3.74842   1.22433   -1.000
 3844.00    1.59986   1.23575   -1.000
 3845.00    1.09902   1.24411   -1.000
 3846.00    0.80422   1.25225   -1.000
 3847.00    1.08805   1.25764    0.000
 3848.00    1.26981   1.26187    0.000
 3849.00    1.20640   1.26603    0.000
 3850.00    1.23338   1.26835    0.000
 3851.00    1.44780   1.27052    0.000
 3852.00    1.08419   1.27176    0.000
 3853.00   -0.32199   1.27293    0.000
 3854.00   -0.42509   1.27039    0.000
 3855.00    1.52682   1.26752    0.000
 3856.00    2.88822   1.26651    0.000
 3857.00    3.43212   1.26845    0.000
 3858.00    3.04057   1.27063    0.000
 3859.00    1.50918   1.27281    0.000
 3860.00    0.76212   1.27500    0.000
 3861.00    0.85756   1.27626    0.000
 3862.00    1.28506   1.27744    0.000
 3863.00    2.02716   1.27863    0.000
 3864.00    2.12129   1.27794    0.000
 3865.00    1.67410   1.27145    0.000
 3866.00    0.92739   1.25602    0.000
 3867.00   -0.03959   1.25492    0.000
 3868.00   -0.13637   1.26733    0.000
 3869.00    0.32894   1.27039    0.000
 3870.00    0.97018   1.25937    0.000
 3871.00    1.71085   1.25102    0.000
 3872.00    1.31799   1.25719    0.000
 3873.00    0.36754   1.26357    0.000
 3874.00    0.40733   1.26324    0.000
 3875.00    0.86818   1.25762    0.000
 3876.00    0.90721   1.25256    0.000
 3877.00    0.79259   1.24565    0.000
 3878.00    0.95992   1.23763    0.000
 3879.00    1.21418   1.22856    0.000
 3880.00    1.61687   1.21462    0.000
 3881.00    2.05766   1.19740   -1.000
 3882.00    2.15815   1.17416   -1.000
 3883.00    2.18750   1.14564   -1.000
 3884.00    2.49348   1.10611   -1.000
 3885.00    2.84508   1.05125   -1.000
 3886.00    2.92859   0.97861   -1.000
 3887.00    2.97890   0.89313   -1.000
 3888.00    1.50568   0.84506   -1.000
 3889.00   -0.09793   0.87941    0.000
 3890.00    1.16136   0.96246   -1.000
 3891.00    2.56333   1.04050   -1.000
 3892.00    1.49494   1.09830   -1.000
 3893.00    0.39340   1.14111   -1.000
 3894.00   -0.23539   1.17328    0.000
 3895.00   -0.82261   1.19698    0.000
 3896.00   -0.55938   1.21429    0.000
 3897.00   -0.29830   1.22924    0.000
 3898.00   -0.06257   1.23919    0.000
 3899.00    0.06381   1.24879   -1.000
 3900.00   -0.70060   1.25645    0.000
 3901.00   -1.26420   1.26300    0.000
 3902.00   -0.60126   1.26752    0.000
 3903.00   -0.12598   1.27192    0.000
 3904.00   -0.55380   1.27534    0.000
 3905.00   -0.78459   1.27770    0.000
 3906.00   -0.24378   1.28000    0.000
 3907.00   -0.19007   1.28231    0.000
 3908.00   -1.72403   1.28461    0.000
 3909.00   -3.19809   1.28495    0.000
 3910.00   -4.50700   1.28514    0.000
 3911.00   -4.33955   1.28533    0.000
 3912.00   -0.68578   1.28652    0.000
 3913.00    1.35912   1.28778   -1.000
 3914.00    0.12050   1.28804   -1.000
 3915.00   -0.52356   1.28824    0.000
 3916.00   -0.11159   1.28643    0.000
 3917.00    0.48068   1.28349   -1.000
 3918.00    1.35309   1.27746   -1.000
 3919.00    1.85994   1.27122   -1.000
 3920.00    1.86800   1.26496   -1.000
 3921.00    1.66039   1.25869   -1.000
 3922.00    1.19373   1.25141   -1.000
 3923.00    0.53369   1.24908   -1.000
 3924.00   -0.33117   1.24809    0.000
 3925.00   -0.25620   1.24313    0.000
 3926.00    0.69674   1.24902   -1.000
 3927.00    0.52696   1.26884   -1.000
 3928.00   -0.56747   1.28246    0.000
 3929.00   -1.04090   1.28853    0.000
 3930.00   -1.06416   1.29008    0.000
 3931.00   -0.38782   1.28933    0.000
 3932.00    0.73375   1.28641   -1.000
 3933.00    1.15345   1.28437   -1.000
 3934.00    1.18254   1.28545   -1.000
 3935.00    1.26511   1.28879   -1.000
 3936.00    1.37355   1.29226   -1.000
 3937.00    1.84121   1.29471   -1.000
 3938.00    2.45904   1.29608   -1.000
 3939.00    2.14104   1.29635   -1.000
 3940.00    1.48828   1.29656   -1.000
 3941.00    1.31824   1.29677   -1.000
 3942.00    1.29410   1.29595   -1.000
 3943.00    1.02081   1.29403   -1.000
 3944.00    0.68495   1.29308   -1.000
 3945.00    0.54322   1.29426   -1.000
 3946.00    0.44108   1.29349   -1.000
 3947.00    1.10310   1.29156   -1.000
 3948.00    1.88748   1.29060   -1.000
 3949.00    2.36520   1.28970   -1.000
 3950.00    2.80631   1.28880   -1.000
 3951.00    2.43290   1.28581   -1.000
 3952.00    1.99316   1.28374   -1.000
 3953.00    3.19267   1.27962   -1.000
 3954.00    4.46753   1.27643   -1.000
 3955.00    2.85386   1.27434   -1.000
 3956.00    1.21883   1.26915   -1.000
 3957.00    0.38999   1.26482   -1.000
 3958.00   -0.40385   1.25633    0.000
 3959.00   -0.53456   1.24652    0.000
 3960.00   -0.63134   1.23135    0.000
 3961.00   -0.34565   1.21585    0.000
 3962.00   -0.03987   1.19607    0.000
 3963.00    0.42385   1.16223    0.000
 3964.00    0.93080   1.12648    0.000
 3965.00    1.69425   1.09570    0.000
 3966.00    2.17424   1.04715    0.000
 3967.00    1.32325   0.97095    0.000
 3968.00    0.53688   0.87976    0.000
 3969.00   -0.00183   0.82736    0.000
 3970.00   -0.50463   0.86473    0.000
 3971.00   -0.89265   0.95679    0.000
 3972.00   -0.87211   1.04175    0.000
 3973.00    0.25498   1.10362    0.000
 3974.00    1.02811   1.14877    0.000
 3975.00    0.97935   1.18124    0.000
 3976.00    1.00012   1.20557    0.000
 3977.00    1.16057   1.22416    0.000
 3978.00    1.34960   1.23926    0.000
 3979.00    1.58865   1.25206    0.000
 3980.00    1.48047   1.26044    0.000
 3981.00    0.84070   1.26752   -1.000
 3982.00    0.78222   1.27347   -1.000
 3983.00    1.50548   1.27830   -1.000
 3984.00    1.50850   1.28416   -1.000
 3985.00    0.65859   1.28791   -1.000
 3986.00    0.10173   1.29047   -1.000
 3987.00   -0.14912   1.29298    0.000
 3988.00   -0.34882   1.29549    0.000
 3989.00   -0.50140   1.29801    0.000
 3990.00   -0.10205   1.29943    0.000
 3991.00    0.74542   1.30080   -1.000
 3992.00    1.31911   1.30218   -1.000
 3993.00    1.69718   1.30246   -1.000
 3994.00    1.52572   1.30268   -1.000
 3995.00    1.00970   1.30401   -1.000
 3996.00    0.68440   1.30539   -1.000
 3997.00    0.46361   1.30567   -1.000
 3998.00    1.00717   1.30590   -1.000
 3999.00    1.91482   1.30723   -1.000
 4000.00    1.69493   1.30640   -1.000
 4001.00    1.01160   1.30657   -1.000
 4002.00    0.76830   1.30457   -1.000
 4003.00    0.67955   1.30469   -1.000
 4004.00    0.57874   1.30380   -1.000
 4005.00    0.47435   1.30173   -1.000
 4006.00    1.08844   1.29624   -1.000
 4007.00    1.87903   1.28610   -1.000
 4008.00    1.88937   1.27798   -1.000
 4009.00    1.74458   1.28121   -1.000
 4010.00    1.07734   1.29170   -1.000
 4011.00    0.32891   1.30139   -1.000
 4012.00    0.71028   1.30539   -1.000
 4013.00    1.22157   1.30803   -1.000
 4014.00    0.84648   1.30836   -1.000
 4015.00    0.40287   1.30858   -1.000
 4016.00    1.05506   1.30768   -1.000
 4017.00    1.75339   1.30672   -1.000
 4018.00    1.28238   1.30348   -1.000
 4019.00    0.82396   1.30013   -1.000
 4020.00    1.38475   1.29335   -1.000
 4021.00    1.92694   1.27955   -1.000
 4022.00    2.14114   1.25513   -1.000
 4023.00    2.28476   1.21188   -1.000
 4024.00    1.66902   1.14642   -1.000
 4025.00    1.12604   1.10332   -1.000
 4026.00    1.13554   1.13843   -1.000
 4027.00    1.00000   1.21255   -1.000
 4028.00    0.02789   1.26289   -1.000
 4029.00   -0.62989   1.28691    0.000
 4030.00    0.15285   1.29839   -1.000
 4031.00    0.71951   1.30596   -1.000
 4032.00    0.47559   1.30994   -1.000
 4033.00    0.35239   1.31495   -1.000
 4034.00    0.60762   1.31652   -1.000
 4035.00    0.94306   1.31913   -1.000
 4036.00    1.49189   1.32062   -1.000
 4037.00    2.15375   1.32090   -1.000
 4038.00    3.07371   1.32231   -1.000
 4039.00    3.73984   1.32259   -1.000
 4040.00    3.90420   1.32283   -1.000
 4041.00    3.63421   1.32307   -1.000
 4042.00    2.61599   1.32331   -1.000
 4043.00    1.76052   1.32473   -1.000
 4044.00    1.15056   1.32383   -1.000
 4045.00    0.67320   1.32403   -1.000
 4046.00    0.37160   1.32545   -1.000
 4047.00    0.67494   1.32574   -1.000
 4048.00    1.68454   1.32598   -1.000
 4049.00    1.46107   1.32741   -1.000
 4050.00   -0.03190   1.32769    0.000
 4051.00   -0.54458   1.32793    0.000
 4052.00   -0.16705   1.32818    0.000
 4053.00    0.35718   1.32722   -1.000
 4054.00    0.99883   1.32743   -1.000
 4055.00    0.94057   1.32887   -1.000
 4056.00    0.38947   1.33274   -1.000
 4057.00    0.60616   1.33431   -1.000
 4058.00    1.29712   1.33099   -1.000
 4059.00    1.24769   1.32751   -1.000
 4060.00    0.79877   1.32763   -1.000
 4061.00    0.40180   1.32667   -1.000
 4062.00    0.02917   1.32808   -1.000
 4063.00   -0.11700   1.32835    0.000
 4064.00   -0.17168   1.32859    0.000
 4065.00    0.46191   1.32883   -1.000
 4066.00    1.33283   1.32542   -1.000
 4067.00    1.80249   1.31825   -1.000
 4068.00    2.15562   1.31095   -1.000
 4069.00    1.46887   1.30851   -1.000
 4070.00    0.53234   1.31355   -1.000
 4071.00    0.80177   1.31880   -1.000
 4072.00    1.30486   1.32285   -1.000
 4073.00    1.55349   1.32563   -1.000
 4074.00    1.76377   1.31979   -1.000
 4075.00    1.15203   1.31616   -1.000
 4076.00    0.44937   1.31997   -1.000
 4077.00    0.59663   1.32400   -1.000
 4078.00    0.80613   1.32433   -1.000
 4079.00    0.99908   1.32456   -1.000
 4080.00    1.19140   1.32355   -1.000
 4081.00    1.36086   1.32127   -1.000
 4082.00    1.53128   1.32018   -1.000
 4083.00    1.74301   1.31540   -1.000
 4084.00    1.90720   1.31300   -1.000
 4085.00    1.28814   1.31065   -1.000
 4086.00    0.66521   1.30580   -1.000
 4087.00    0.00262   1.29463   -1.000
 4088.00   -0.29541   1.28452    0.000
 4089.00    2.08188   1.28421   -1.000
 4090.00    4.02026   1.28325   -1.000
 4091.00    3.49644   1.27409   -1.000
 4092.00    2.85535   1.26106    0.000
 4093.00    1.68950   1.24541    0.000
 4094.00    0.89394   1.22509    0.000
 4095.00    1.45834   1.19730    0.000
 4096.00    1.81196   1.16002    0.000
 4097.00    1.51735   1.11079    0.000
 4098.00    1.37396   1.04428    0.000
 4099.00    1.62579   0.95410    0.000
 4100.00    2.03513   0.86102    0.000
 4101.00    2.79820   0.83650    0.000
 4102.00    3.15826   0.90967    0.000
 4103.00    2.73411   1.01440    0.000
 4104.00    2.44644   1.09634    0.000
 4105.00    2.39038   1.15326    0.000
 4106.00    1.84230   1.19411    0.000
 4107.00    0.56285   1.22400    0.000
 4108.00   -0.01159   1.24657    0.000
 4109.00    0.33516   1.26388    0.000
 4110.00    0.96112   1.27752    0.000
 4111.00    1.90843   1.28904    0.000
 4112.00    2.05842   1.29849    0.000
 4113.00    1.39904   1.30545    0.037
 4114.00    1.37584   1.30758   -1.000
 4115.00    1.92225   1.30897   -1.000
 4116.00    2.26396   1.31583   -1.000
 4117.00    2.44417   1.32201   -1.000
 4118.00    2.53626   1.31748   -1.000
 4119.00    2.56720   1.30020   -1.000
 4120.00    1.60169   1.29434    0.029
 4121.00    0.02984   1.31488    0.011
 4122.00    0.31791   1.33524    0.009
 4123.00    1.59410   1.33971    0.009
 4124.00    2.87703   1.34263    0.009
 4125.00    4.16306   1.34290    0.009
 4126.00    4.10465   1.34312    0.009
 4127.00    3.51237   1.34335    0.009
 4128.00    2.64856   1.34490    0.009
 4129.00    1.69285   1.34514    0.009
 4130.00    1.30170   1.34484    0.009
 4131.00    1.07117   1.34665    0.009
 4132.00    1.65955   1.34916    0.009
 4133.00    2.44020   1.35115    0.009
 4134.00    2.94543   1.35248    0.009
 4135.00    3.39868   1.35325    0.009
 4136.00    4.78884   1.35336    0.009
 4137.00    6.31582   1.35332    0.009
 4138.00    5.44577   1.35287    0.009
 4139.00    4.32100   1.35094    0.009
 4140.00    1.32927   1.34548    0.009
 4141.00   -1.79160   1.32849    0.000
 4142.00   -2.39421   1.29945    0.000
 4143.00   -2.90996   1.28943    0.000
 4144.00   -2.36591   1.31413    0.000
 4145.00   -1.79583   1.34076    0.000
 4146.00   -0.43530   1.35237    0.000
 4147.00    0.72818   1.35692    0.009
 4148.00   -1.15543   1.35895    0.000
 4149.00   -2.59533   1.36029    0.000
 4150.00    0.33846   1.36148    0.008
 4151.00    3.10087   1.36172    0.008
 4152.00    4.64653   1.36126    0.009
 4153.00    5.52783   1.36244    0.009
 4154.00    2.78232   1.36447    0.008
 4155.00    0.71726   1.36540    0.008
 4156.00    1.62647   1.36605    0.008
 4157.00    2.42423   1.36711    0.008
 4158.00    2.82113   1.36803    0.008
 4159.00    3.52165   1.36841    0.008
 4160.00    5.13843   1.36877    0.008
 4161.00    5.91520   1.36859    0.008
 4162.00    4.53479   1.36881    0.008
 4163.00    3.37144   1.36974    0.008
 4164.00    2.68756   1.37066    0.008
 4165.00    2.67810   1.37090    0.008
 4166.00    3.96056   1.36958    0.008
 4167.00    3.87710   1.36420    0.008
 4168.00    1.51078   1.36088    0.008
 4169.00    0.65059   1.36530    0.008
 4170.00    1.99663   1.37101    0.008
 4171.00    2.50907   1.37252    0.008
 4172.00    1.94789   1.37303    0.008
 4173.00    2.14764   1.37396    0.008
 4174.00    3.21092   1.37461    0.009
 4175.00    4.24239   1.37498    0.009
 4176.00    5.24202   1.37548    0.009
 4177.00    3.73693   1.37599    0.009
 4178.00    0.02090   1.37650    0.008
 4179.00   -0.21844   1.37715    0.000
 4180.00    2.24621   1.37780    0.009
 4181.00    3.06309   1.37802    0.009
 4182.00    2.75312   1.37838    0.009
 4183.00    3.83396   1.37831    0.009
 4184.00    5.74847   1.37753    0.009
 4185.00    4.18889   1.37717    0.009
 4186.00    0.81229   1.37767    0.009
 4187.00    0.96901   1.37817    0.009
 4188.00    2.72841   1.37694    0.009
 4189.00    3.60874   1.37600    0.009
 4190.00    4.14604   1.37679    0.009
 4191.00    4.08997   1.37700    0.009
 4192.00    3.83683   1.37517    0.009
 4193.00    2.57094   1.37189    0.008
 4194.00    1.02279   1.36612    0.008
 4195.00    3.04945   1.35582    0.008
 4196.00    5.89623   1.33805    0.009
 4197.00    3.22129   1.30960    0.009
 4198.00   -0.46842   1.27635    0.000
 4199.00   -0.35954   1.26630    0.000
 4200.00    0.28647   1.29085    0.008
 4201.00    2.02383   1.32535    0.008
 4202.00    3.87248   1.34966    0.008
 4203.00    3.71374   1.36435    0.008
 4204.00    3.42422   1.37378    0.008
 4205.00    3.34902   1.37956    0.008
 4206.00    3.28036   1.38343    0.008
 4207.00    3.18118   1.38614    0.008
 4208.00    3.06083   1.38796    0.008
 4209.00    2.31875   1.38934    0.008
 4210.00    1.74481   1.38954    0.008
 4211.00    3.61870   1.38871    0.008
 4212.00    5.22701   1.38996    0.008
 4213.00    4.32395   1.39268    0.008
 4214.00    3.51409   1.39392    0.008
 4215.00    3.34485   1.39443    0.008
 4216.00    3.34461   1.39537    0.008
 4217.00    4.24254   1.39602    0.008
 4218.00    4.64020   1.39697    0.007
 4219.00    2.90120   1.39777    0.007
 4220.00    1.59535   1.39797    0.007
 4221.00    1.81565   1.39817    0.007
 4222.00    2.13447   1.39867    0.008
 4223.00    2.74503   1.39917    0.008
 4224.00    2.71901   1.39952    0.008
 4225.00    1.08649   1.39956    0.007
 4226.00   -0.06162   1.39977    0.000
 4227.00   -0.15712   1.40072    0.000
 4228.00    0.07830   1.40197    0.007
 4229.00    0.93780   1.40277    0.007
 4230.00    1.64424   1.40326    0.007
 4231.00    2.09865   1.40315    0.007
 4232.00    2.20469   1.40304    0.007
 4233.00    1.80780   1.40369    0.007
 4234.00    1.02744   1.40464    0.007
 4235.00   -0.23981   1.40498    0.000
 4236.00   -0.48004   1.40533    0.000
 4237.00    0.42875   1.40613    0.007
 4238.00    0.68682   1.40708    0.007
 4239.00    0.30276   1.40757    0.007
 4240.00    0.65893   1.40745    0.007
 4241.00    1.65932   1.40780    0.007
 4242.00    2.18362   1.40891    0.007
 4243.00    2.34292   1.40970    0.007
 4244.00    1.93510   1.41004    0.007
 4245.00    1.14510   1.41007    0.007
 4246.00    1.19796   1.41057    0.008
 4247.00    1.74845   1.41137    0.008
 4248.00    2.20089   1.41232    0.008
 4249.00    2.60286   1.41281    0.008
 4250.00    1.17009   1.41329    0.008
 4251.00   -1.08126   1.41298    0.000
 4252.00   -0.20124   1.41163    0.000
 4253.00    1.87942   1.41214    0.008
 4254.00    4.70015   1.41449    0.008
 4255.00    7.76207   1.41590    0.008
 4256.00    7.42817   1.41639    0.008
 4257.00    6.16732   1.41687    0.008
 4258.00    5.84339   1.41720    0.008
 4259.00    5.72941   1.41754    0.008
 4260.00    4.75833   1.41818    0.008
 4261.00    3.63396   1.41882    0.008
 4262.00    3.78417   1.41962    0.008
 4263.00    4.10877   1.42008    0.008
 4264.00    3.08315   1.41919    0.008
 4265.00    1.92563   1.41270    0.008
 4266.00    1.79546   1.40641    0.008
 4267.00    1.72813   1.41124    0.007
 4268.00    0.90759   1.41971    0.007
 4269.00    0.08212   1.42268    0.007
 4270.00    2.26343   1.42300    0.007
 4271.00    4.36444   1.42333    0.007
 4272.00    4.34222   1.42411    0.007
 4273.00    4.28948   1.42408    0.007
 4274.00    3.81719   1.42280    0.007
 4275.00    3.48717   1.42172    0.008
 4276.00    4.44942   1.42286    0.008
 4277.00    5.40766   1.42541    0.008
 4278.00    6.33919   1.42731    0.008
 4279.00    6.82813   1.42825    0.008
 4280.00    5.02571   1.42823    0.008
 4281.00    3.83317   1.42774    0.008
 4282.00    5.18662   1.42741   -2.000
 4283.00    6.91795   1.42725   -2.000
 4284.00    9.95376   1.42790   -2.000
 4285.00   11.44446   1.42951   -2.000
 4286.00    8.44400   1.43124   -2.000
 4287.00    5.47442   1.43138   -2.000
 4288.00    2.58143   1.43120   -2.000
 4289.00    0.72235   1.43136   -2.000
 4290.00    1.07356   1.43232   -2.000
 4291.00    1.75176   1.43343   -2.000
 4292.00    3.03708   1.43387   -2.000
 4293.00    3.84257   1.43336   -2.000
 4294.00    3.86987   1.43336   -2.000
 4295.00    3.30154   1.43448   -2.000
 4296.00    1.88587   1.43558   -2.000
 4297.00    1.92304   1.43587   -2.000
 4298.00    3.77852   1.43583    0.007
 4299.00    4.53763   1.43565    0.007
 4300.00    4.08736   1.43609    0.007
 4301.00    3.26048   1.43569    0.007
 4302.00    2.06717   1.43436    0.007
 4303.00    1.94934   1.43436    0.007
 4304.00    2.75426   1.43596    0.007
 4305.00    3.04254   1.43720    0.007
 4306.00    2.94040   1.43682    0.007
 4307.00    2.53717   1.43645    0.007
 4308.00    1.93399   1.43675    0.007
 4309.00    1.10797   1.43735    0.007
 4310.00    0.15236   1.43760    0.007
 4311.00    1.30993   1.43703    0.007
 4312.00    3.53845   1.43598    0.007
 4313.00    3.84517   1.43559    0.007
 4314.00    3.30859   1.43548    0.007
 4315.00    2.33303   1.43406    0.007
 4316.00    1.19212   1.43233    0.007
 4317.00    1.56368   1.43174    0.007
 4318.00    2.41881   1.43081    0.007
 4319.00    2.26669   1.42991    0.007
 4320.00    1.84537   1.42980    0.007
 4321.00    3.31711   1.42883    0.007
 4322.00    5.20310   1.42683    0.007
 4323.00    4.17906   1.42380    0.007
 4324.00    2.64880   1.41961    0.007
 4325.00    1.79618   1.41541    0.007
 4326.00    1.03319   1.41150    0.007
 4327.00    2.80751   1.40669    0.007
 4328.00    4.81892   1.39964    0.007
 4329.00    5.26670   1.39066    0.007
 4330.00    5.62504   1.37904    0.000
 4331.00    4.44446   1.36413    0.000
 4332.00    3.24713   1.34551    0.000
 4333.00    4.24159   1.32153    0.000
 4334.00    5.20024   1.28911    0.000
 4335.00    5.29906   1.24393    0.000
 4336.00    5.35637   1.18161    0.000
 4337.00    4.87332   1.09854    0.000
 4338.00    4.25035   0.99506    0.000
 4339.00    2.40497   0.91050    0.000
 4340.00    0.86884   0.92160    0.000
 4341.00    1.33009   1.02554    0.000
 4342.00    2.03716   1.13892    0.000
 4343.00    3.98436   1.21860    0.000
 4344.00    5.18707   1.27251    0.000
 4345.00    3.35097   1.31115    0.000
 4346.00    2.23154   1.33968    0.000
 4347.00    3.53672   1.36133    0.000
 4348.00    4.50700   1.37765    0.000
 4349.00    4.52167   1.39073    0.000
 4350.00    4.05664   1.40195    0.000
 4351.00    2.42208   1.41250    0.021
 4352.00    1.39018   1.42247   -1.000
 4353.00    1.62592   1.43019   -1.000
 4354.00    1.98235   1.43635   -1.000
 4355.00    2.55940   1.44114   -1.000
 4356.00    2.99015   1.44540   -1.000
 4357.00    3.18715   1.44914   -1.000
 4358.00    2.85784   1.45253    0.034
 4359.00    1.79062   1.45539    0.010
 4360.00    2.09313   1.45758    0.007
 4361.00    4.08562   1.46012    0.007
 4362.00    5.30329   1.46281    0.007
 4363.00    5.67831   1.46478    0.007
 4364.00    5.38238   1.46585    0.007
 4365.00    4.44282   1.46608    0.007
 4366.00    3.79105   1.46674    0.007
 4367.00    3.38271   1.46930    0.007
 4368.00    2.59407   1.47182    0.007
 4369.00    1.52214   1.47363    0.007
 4370.00    1.15849   1.47474    0.007
 4371.00    1.25829   1.47570    0.007
 4372.00    1.43868   1.47698    0.007
 4373.00    1.66522   1.47792    0.007
 4374.00    2.93638   1.47869    0.007
 4375.00    4.72862   1.47982    0.007
 4376.00    5.38853   1.48109    0.007
 4377.00    5.55980   1.48163    0.007
 4378.00    5.02713   1.48133    0.007
 4379.00    4.23399   1.48194    0.007
 4380.00    3.67711   1.48315    0.007
 4381.00    3.19431   1.48239    0.007
 4382.00    2.92172   1.48056    0.007
 4383.00    2.70412   1.47823    0.006
 4384.00    3.39735   1.47227    0.006
 4385.00    4.28514   1.45251    0.007
 4386.00    3.93025   1.41367    0.006
 4387.00    3.36522   1.39274    0.006
 4388.00    2.86099   1.41994    0.006
 4389.00    2.36453   1.46011    0.006
 4390.00    2.68031   1.48038    0.006
 4391.00    3.06857   1.48830    0.006
 4392.00    3.45831   1.49154    0.006
 4393.00    3.84813   1.49282    0.006
 4394.00    5.10470   1.49341    0.006
 4395.00    6.36873   1.49457    0.006
 4396.00    6.85864   1.49662    0.006
 4397.00    7.27025   1.49844    0.006
 4398.00    5.96055   1.49918    0.006
 4399.00    4.70007   1.49976    0.006
 4400.00    4.04764   1.50070    0.006
 4401.00    3.54723   1.50162    0.006
 4402.00    4.32579   1.50235    0.006
 4403.00    4.99166   1.50274    0.006
 4404.00    4.95130   1.50332    0.006
 4405.00    4.62914   1.50426    0.006
 4406.00    2.92095   1.50538    0.006
 4407.00    1.81020   1.50629    0.006
 4408.00    3.08441   1.50683    0.006
 4409.00    4.21087   1.50700    0.006
 4410.00    4.84734   1.50704    0.006
 4411.00    4.88150   1.50813    0.006
 4412.00    3.22813   1.50851    0.006
 4413.00    1.93687   1.50586    0.006
 4414.00    1.51349   1.50408    0.006
 4415.00    1.18244   1.50488    0.006
 4416.00    1.04247   1.50699    0.006
 4417.00    1.05419   1.50964    0.006
 4418.00    1.33896   1.51240    0.006
 4419.00    1.85750   1.51371    0.006
 4420.00    2.74402   1.51482    0.006
 4421.00    3.66284   1.51572    0.006
 4422.00    4.62631   1.51628    0.006
 4423.00    4.62290   1.51700    0.006
 4424.00    3.44349   1.51755    0.006
 4425.00    3.05610   1.51808    0.006
 4426.00    3.51795   1.51843    0.006
 4427.00    4.03814   1.51899    0.006
 4428.00    4.61351   1.51989    0.006
 4429.00    4.40490   1.52023    0.006
 4430.00    3.54250   1.52058    0.006
 4431.00    3.82963   1.52111    0.007
 4432.00    4.96070   1.52165    0.007
 4433.00    5.77085   1.52212    0.007
 4434.00    6.37410   1.52139    0.006
 4435.00    6.16287   1.51597    0.006
 4436.00    5.49225   1.50688    0.006
 4437.00    4.19917   1.50762    0.006
 4438.00    2.60053   1.51782    0.006
 4439.00    2.66873   1.52253    0.006
 4440.00    3.44422   1.52217    0.007
 4441.00    3.58666   1.52359    0.007
 4442.00    3.49905   1.52679    0.007
 4443.00    3.47885   1.52866    0.007
 4444.00    3.47937   1.52992    0.007
 4445.00    4.30229   1.53043    0.006
 4446.00    5.33574   1.53076    0.006
 4447.00    4.22577   1.53131    0.006
 4448.00    2.66907   1.53241    0.006
 4449.00    3.57586   1.53329    0.006
 4450.00    4.88738   1.53359    0.006
 4451.00    4.29543   1.53374    0.006
 4452.00    3.46881   1.53449    0.006
 4453.00    4.06005   1.53575    0.006
 4454.00    4.77189   1.53627    0.006
 4455.00    4.30513   1.53700    0.006
 4456.00    3.78021   1.53807    0.006
 4457.00    3.52762   1.53857    0.006
 4458.00    3.29676   1.53888    0.006
 4459.00    4.15690   1.53937    0.006
 4460.00    4.91941   1.53962    0.006
 4461.00    3.70439   1.53909    0.000
 4462.00    2.74921   1.53837    0.000
 4463.00    4.84807   1.53762    0.000
 4464.00    6.60768   1.53640    0.000
 4465.00    5.61597   1.53363    0.000
 4466.00    4.88084   1.52754    0.000
 4467.00    5.70711   1.51414    0.000
 4468.00    6.02416   1.48688    0.000
 4469.00    3.89829   1.42810    0.000
 4470.00    2.40277   1.35799    0.000
 4471.00    3.36909   1.36533    0.000
 4472.00    4.20911   1.44894    0.000
 4473.00    4.63844   1.51090    0.000
 4474.00    4.50790   1.53069    0.000
 4475.00    2.83703   1.53929    0.000
 4476.00    2.37014   1.54375    0.000
 4477.00    4.74039   1.54633    0.000
 4478.00    5.82434   1.54636    0.000
 4479.00    4.28834   1.54048    0.000
 4480.00    3.36676   1.53610    0.000
 4481.00    3.53436   1.54208    0.000
 4482.00    3.21319   1.55205    0.006
 4483.00    2.13397   1.55585    0.006
 4484.00    1.81515   1.55691    0.006
 4485.00    2.53198   1.55759    0.006
 4486.00    2.95358   1.55826    0.006
 4487.00    3.02116   1.55872    0.006
 4488.00    3.21083   1.55919    0.006
 4489.00    3.52956   1.55969    0.006
 4490.00    3.83212   1.56057    0.006
 4491.00    4.11960   1.56146    0.006
 4492.00    4.60026   1.56232    0.006
 4493.00    5.23973   1.56299    0.006
 4494.00    4.88687   1.56365    0.006
 4495.00    3.81596   1.56414    0.006
 4496.00    3.61784   1.56502    0.006
 4497.00    3.97414   1.56588    0.006
 4498.00    4.26979   1.56652    0.006
 4499.00    4.53176   1.56676    0.006
 4500.00    4.31372   1.56701    0.006
 4501.00    3.86378   1.56753    0.006
 4502.00    4.13758   1.56883    0.006
 4503.00    4.71331   1.57009    0.006
 4504.00    4.07030   1.57093    0.006
 4505.00    2.99233   1.57139    0.006
 4506.00    2.53516   1.57202    0.006
 4507.00    2.26516   1.57228    0.006
 4508.00    3.21272   1.57295    0.006
 4509.00    4.46524   1.57375    0.006
 4510.00    4.97101   1.57376    0.006
 4511.00    5.32498   1.57383    0.006
 4512.00    4.14136   1.57470    0.006
 4513.00    2.71246   1.57553    0.006
 4514.00    2.56580   1.57601    0.006
 4515.00    2.57152   1.57709    0.006
 4516.00    3.16585   1.57813    0.006
 4517.00    3.80780   1.57878    0.006
 4518.00    4.09627   1.57940    0.006
 4519.00    4.36867   1.57983    0.006
 4520.00    3.38944   1.58021    0.006
 4521.00    2.41214   1.58023    0.006
 4522.00    2.31729   1.58067    0.006
 4523.00    2.22809   1.58132    0.006
 4524.00    2.24477   1.58216    0.006
 4525.00    2.34683   1.58279    0.006
 4526.00    3.40538   1.58331    0.006
 4527.00    4.26545   1.58259    0.006
 4528.00    3.57234   1.58159    0.006
 4529.00    3.06192   1.58204    0.006
 4530.00    3.63168   1.58305    0.006
 4531.00    3.73237   1.58331    0.006
 4532.00    1.63733   1.58192    0.006
 4533.00    0.28054   1.58027    0.006
 4534.00    1.74530   1.57782    0.006
 4535.00    2.86816   1.57298    0.006
 4536.00    2.90086   1.56370    0.006
 4537.00    2.72601   1.54718    0.006
 4538.00    1.99031   1.51671    0.006
 4539.00    1.76734   1.46521    0.005
 4540.00    2.73241   1.41692    0.006
 4541.00    3.41900   1.41988    0.006
 4542.00    3.54735   1.47203    0.006
 4543.00    3.53251   1.52388    0.006
 4544.00    3.26769   1.55436    0.006
 4545.00    3.31420   1.57156    0.006
 4546.00    3.83646   1.58160    0.005
 4547.00    4.13730   1.58692    0.005
 4548.00    4.14089   1.58995    0.006
 4549.00    3.86074   1.59247    0.006
 4550.00    3.24517   1.59362    0.000
 4551.00    3.00127   1.59128    0.000
 4552.00    3.14480   1.59189    0.000
 4553.00    3.36224   1.59736    0.000
 4554.00    3.64763   1.60149    0.000
 4555.00    3.78297   1.60233    0.000
 4556.00    3.79670   1.60338    0.000
 4557.00    3.35321   1.60442    0.000
 4558.00    2.58366   1.60549    0.000
 4559.00    2.94389   1.60672    0.000
 4560.00    4.01118   1.60754    0.000
 4561.00    4.49656   1.60831    0.000
 4562.00    4.66366   1.60867    0.000
 4563.00    4.04210   1.60909    0.000
 4564.00    3.04561   1.61007    0.000
 4565.00    2.59523   1.61015    0.000
 4566.00    2.36882   1.60757    0.000
 4567.00    2.47980   1.60600    0.000
 4568.00    2.70900   1.60857    0.000
 4569.00    3.38432   1.61239    0.000
 4570.00    4.19149   1.61402    0.000
 4571.00    4.35575   1.61461    0.000
 4572.00    4.36253   1.61531    0.000
 4573.00    3.83679   1.61499    0.000
 4574.00    3.20552   1.61526    0.000
 4575.00    2.52843   1.61721    0.000
 4576.00    1.84425   1.61885    0.000
 4577.00    1.66457   1.61965    0.000
 4578.00    1.54263   1.62042    0.000
 4579.00    2.25428   1.62099    0.000
 4580.00    3.02996   1.62152    0.000
 4581.00    3.15613   1.62181    0.000
 4582.00    3.25526   1.62172    0.000
 4583.00    3.08796   1.62237    0.000
 4584.00    2.93074   1.62384    0.000
 4585.00    3.30509   1.62501    0.000
 4586.00    3.64134   1.62533    0.000
 4587.00    3.31155   1.62566    0.000
 4588.00    3.03172   1.62589    0.000
 4589.00    3.28645   1.62319    0.000
 4590.00    3.54770   1.62165    0.000
 4591.00    3.85818   1.62513    0.000
 4592.00    4.03229   1.62919    0.000
 4593.00    3.42258   1.63036    0.000
 4594.00    2.91779   1.62852    0.000
 4595.00    2.89245   1.62704    0.000
 4596.00    2.87882   1.62919    0.000
 4597.00    2.90904   1.63284    0.000
 4598.00    2.90422   1.63421    0.000
 4599.00    2.78977   1.63448    0.000
 4600.00    2.74890   1.63451    0.000
 4601.00    2.90331   1.63427    0.000
 4602.00    3.01962   1.63373    0.000
 4603.00    3.04910   1.63464    0.000
 4604.00    2.79042   1.63680    0.000
 4605.00    1.96325   1.63843    0.000
 4606.00    1.42358   1.63915    0.000
 4607.00    1.37827   1.63943    0.000
 4608.00    1.90282   1.63963    0.000
 4609.00    3.28544   1.63929    0.000
 4610.00    3.86835   1.64020    0.000
 4611.00    3.39311   1.64229    0.000
 4612.00    2.84824   1.64324    0.000
 4613.00    2.22224   1.64377    0.000
 4614.00    2.31839   1.64455    0.000
 4615.00    3.15673   1.64547    0.000
 4616.00    3.38033   1.64558    0.000
 4617.00    3.04667   1.64437    0.000
 4618.00    3.28892   1.64338    0.000
 4619.00    3.99128   1.64452    0.000
 4620.00    4.30208   1.64695    0.000
 4621.00    4.33767   1.64907    0.000
 4622.00    3.52214   1.65028    0.000
 4623.00    2.18186   1.65119    0.000
 4624.00    1.86073   1.65151    0.000
 4625.00    2.08847   1.65244    0.000
 4626.00    2.16980   1.65293    0.000
 4627.00    2.18265   1.65334    0.000
 4628.00    2.41107   1.65303    0.000
 4629.00    2.72639   1.65211    0.000
 4630.00    2.76343   1.65009    0.000
 4631.00    2.70475   1.65050    0.000
 4632.00    2.94706   1.65446    0.000
 4633.00    3.27654   1.65805    0.000
 4634.00    3.47217   1.65853    0.000
 4635.00    3.63573   1.65895    0.000
 4636.00    3.18887   1.65876    0.000
 4637.00    2.62412   1.65744    0.000
 4638.00    2.95757   1.65812    0.000
 4639.00    3.42583   1.66013    0.000
 4640.00    3.04481   1.65830    0.000
 4641.00    2.57032   1.65682    0.000
 4642.00    2.90969   1.66013    0.000
 4643.00    3.30825   1.66371    0.000
 4644.00    3.40126   1.66333    0.000
 4645.00    3.48271   1.65833    0.000
 4646.00    3.23388   1.65457    0.000
 4647.00    2.98276   1.65372    0.000
 4648.00    2.70929   1.65277    0.000
 4649.00    2.48309   1.65345    0.000
 4650.00    3.02951   1.65844    0.000
 4651.00    3.53733   1.66531    0.000
 4652.00    3.65011   1.67232    0.000
 4653.00    3.68466   1.67628    0.000
 4654.00    3.14747   1.67548    0.000
 4655.00    2.65956   1.67308    0.000
 4656.00    2.44714   1.67263    0.000
 4657.00    2.40623   1.67335    0.000
 4658.00    3.13055   1.67416    0.000
 4659.00    3.73807   1.67367    0.000
 4660.00    3.91776   1.67221    0.000
 4661.00    3.90724   1.67235    0.000
 4662.00    3.31315   1.67421    0.000
 4663.00    3.02119   1.67506    0.000
 4664.00    3.51713   1.67534    0.000
 4665.00    3.65204   1.67656    0.000
 4666.00    2.97783   1.67793    0.000
 4667.00    2.59483   1.67860    0.000
 4668.00    2.77741   1.67940    0.000
 4669.00    2.86756   1.68102    0.000
 4670.00    2.80120   1.68180    0.000
 4671.00    2.54495   1.68134    0.000
 4672.00    2.00696   1.68027    0.000
 4673.00    1.76303   1.67991    0.000
 4674.00    1.90263   1.67970    0.000
 4675.00    2.27002   1.67887    0.000
 4676.00    2.89912   1.67886    0.000
 4677.00    3.11090   1.67953    0.000
 4678.00    2.89980   1.67816    0.000
 4679.00    2.75799   1.67495    0.000
 4680.00    2.67810   1.66765    0.000
 4681.00    2.68402   1.65263    0.000
 4682.00    2.75753   1.61929    0.000
 4683.00    2.46312   1.53662    0.000
 4684.00    1.91386   1.42671    0.000
 4685.00    1.80913   1.41168    0.000
 4686.00    1.97440   1.51501    0.000
 4687.00    2.48686   1.61411    0.000
 4688.00    3.18342   1.65390    0.000
 4689.00    3.26160   1.67170    0.000
 4690.00    3.05523   1.68050    0.000
 4691.00    3.16001   1.68647    0.000
 4692.00    3.38808   1.69038    0.000
 4693.00    3.56870   1.69279    0.000
 4694.00    3.73329   1.69446    0.000
 4695.00    3.13870   1.69586    0.000
 4696.00    2.32866   1.69689    0.000
 4697.00    2.69995   1.69701    0.000
 4698.00    3.34780   1.69743    0.000
 4699.00    3.70263   1.69839    0.000
 4700.00    4.00232   1.69972    0.000
 4701.00    3.63754   1.70038    0.000
 4702.00    3.17612   1.70127    0.000
 4703.00    3.12710   1.70209    0.000
 4704.00    3.12168   1.70253    0.000
 4705.00    3.85604   1.70372    0.000
 4706.00    4.64120   1.70505    0.000
 4707.00    3.82740   1.70563    0.000
 4708.00    2.95920   1.70600    0.000
 4709.00    2.82475   1.70596    0.000
 4710.00    2.68027   1.69725    0.000
 4711.00    2.17303   1.65991    0.000
 4712.00    1.70740   1.63186    0.000
 4713.00    1.88005   1.65405    0.000
 4714.00    2.08185   1.69711    0.000
 4715.00    2.56938   1.71011    0.000
 4716.00    2.95321   1.71194    0.000
 4717.00    2.60387   1.71282    0.000
 4718.00    2.32905   1.71365    0.000
 4719.00    2.45962   1.71424    0.000
 4720.00    2.50050   1.71487    0.000
 4721.00    2.15046   1.71570    0.000
 4722.00    1.93922   1.71632    0.000
 4723.00    2.22590   1.71711    0.000
 4724.00    2.45286   1.71745    0.000
 4725.00    2.50005   1.71803    0.000
 4726.00    2.37371   1.71861    0.000
 4727.00    1.80270   1.71919    0.000
 4728.00    1.49113   1.71977    0.000
 4729.00    1.75147   1.72038    0.000
 4730.00    2.12282   1.72119    0.000
 4731.00    2.70640   1.72184    0.000
 4732.00    2.95419   1.72286    0.000
 4733.00    2.64182   1.72322    0.000
 4734.00    2.49057   1.72399    0.000
 4735.00    2.57488   1.72435    0.000
 4736.00    2.70382   1.72515    0.000
 4737.00    2.89014   1.72571    0.000
 4738.00    2.54245   1.72627    0.000
 4739.00    1.58983   1.72686    0.000
 4740.00    1.07000   1.72770    0.000
 4741.00    0.98256   1.72850    0.000
 4742.00    1.06482   1.72905    0.000
 4743.00    1.29662   1.72964    0.000
 4744.00    1.51912   1.73043    0.000
 4745.00    1.73440   1.73098    0.000
 4746.00    2.27125   1.73152    0.000
 4747.00    3.02759   1.73210    0.000
 4748.00    3.44389   1.73289    0.000
 4749.00    3.65674   1.73343    0.000
 4750.00    3.59458   1.73393    0.000
 4751.00    3.38886   1.73425    0.000
 4752.00    3.36820   1.73503    0.000
 4753.00    3.43131   1.73556    0.000
 4754.00    3.42215   1.73613    0.000
 4755.00    3.38484   1.73690    0.000
 4756.00    2.96208   1.73747    0.000
 4757.00    2.41158   1.73828    0.000
 4758.00    2.61532   1.73901    0.000
 4759.00    3.02873   1.73928    0.000
 4760.00    3.32812   1.73980    0.000
 4761.00    3.60143   1.74031    0.005
 4762.00    3.38344   1.74083    0.005
 4763.00    3.07548   1.74142    0.005
 4764.00    2.95482   1.74243    0.005
 4765.00    2.86055   1.74294    0.005
 4766.00    2.65818   1.74344    0.005
 4767.00    2.44485   1.74399    0.005
 4768.00    2.69925   1.74478    0.005
 4769.00    2.98389   1.74553    0.005
 4770.00    2.99029   1.74599    0.005
 4771.00    2.98679   1.74627    0.005
 4772.00    2.24205   1.74706    0.005
 4773.00    1.53110   1.74781    0.005
 4774.00    1.79956   1.74834    0.004
 4775.00    2.09521   1.74908    0.004
 4776.00    2.78392   1.74961    0.004
 4777.00    3.36855   1.75030    0.005
 4778.00    2.97394   1.75057    0.004
 4779.00    2.60855   1.75135    0.004
 4780.00    2.44332   1.75208    0.004
 4781.00    2.37088   1.75260    0.004
 4782.00    2.79000   1.75337    0.004
 4783.00    3.08655   1.75410    0.004
 4784.00    2.86116   1.75453    0.004
 4785.00    2.74738   1.75479    0.004
 4786.00    3.02584   1.75546    0.004
 4787.00    3.11403   1.75572    0.004
 4788.00    2.64007   1.75648    0.004
 4789.00    2.26145   1.75724    0.004
 4790.00    2.12291   1.75795    0.004
 4791.00    2.19662   1.75841    0.004
 4792.00    2.73063   1.75891    0.004
 4793.00    2.89105   1.75962    0.004
 4794.00    2.34833   1.76015    0.004
 4795.00    1.89219   1.76116    0.004
 4796.00    1.57835   1.76191    0.004
 4797.00    1.78709   1.76257    0.004
 4798.00    2.74882   1.76271    0.004
 4799.00    3.30065   1.76294    0.004
 4800.00    3.33298   1.76359    0.004
 4801.00    3.17164   1.76372    0.005
 4802.00    2.79399   1.76390    0.005
 4803.00    2.65294   1.76442    0.005
 4804.00    2.74495   1.76532    0.004
 4805.00    2.68804   1.76553    0.004
 4806.00    2.50177   1.76622    0.004
 4807.00    2.71386   1.76664    0.004
 4808.00    3.23080   1.76706    0.004
 4809.00    3.52712   1.76752    0.004
 4810.00    3.67504   1.76811    0.004
 4811.00    3.59762   1.76791    0.004
 4812.00    3.38741   1.76776    0.004
 4813.00    3.26733   1.76800    0.004
 4814.00    3.19357   1.76892    0.004
 4815.00    3.17435   1.76937    0.004
 4816.00    3.17942   1.76999    0.004
 4817.00    2.93731   1.76990    0.004
 4818.00    2.60064   1.76889    0.004
 4819.00    2.07046   1.76890    0.004
 4820.00    1.47738   1.77017    0.004
 4821.00    2.16935   1.77099    0.004
 4822.00    3.21117   1.77076    0.004
 4823.00    3.20829   1.77062    0.004
 4824.00    2.97198   1.77095    0.004
 4825.00    2.62668   1.77102    0.004
 4826.00    2.26194   1.77085    0.004
 4827.00    2.15847   1.76940    0.004
 4828.00    2.09060   1.76850    0.004
 4829.00    2.15903   1.76927    0.004
 4830.00    2.24071   1.77028    0.004
 4831.00    2.03173   1.76971    0.004
 4832.00    1.80513   1.76918    0.004
 4833.00    1.84346   1.76881    0.004
 4834.00    1.89232   1.76786    0.004
 4835.00    2.56933   1.76673    0.004
 4836.00    3.20185   1.76603    0.005
 4837.00    2.67306   1.76470    0.004
 4838.00    2.16024   1.76288    0.004
 4839.00    1.86554   1.76132    0.004
 4840.00    1.64598   1.75960    0.004
 4841.00    2.10568   1.75703    0.004
 4842.00    2.48266   1.75413    0.004
 4843.00    2.31076   1.75086    0.004
 4844.00    2.13595   1.74694    0.004
 4845.00    1.94610   1.74227    0.004
 4846.00    1.80475   1.73637    0.004
 4847.00    1.86532   1.72945    0.004
 4848.00    1.96102   1.72118    0.000
 4849.00    2.17772   1.71120    0.000
 4850.00    2.39777   1.69894    0.000
 4851.00    2.62756   1.68404    0.000
 4852.00    2.57419   1.66422    0.000
 4853.00    1.82003   1.63879    0.000
 4854.00    1.47077   1.60480    0.000
 4855.00    1.98537   1.55893    0.000
 4856.00    2.62373   1.49487    0.000
 4857.00    3.49141   1.40695    0.000
 4858.00    3.97426   1.30048    0.000
 4859.00    3.83417   1.18625    0.000
 4860.00    3.40947   1.11991    0.000
 4861.00    2.58059   1.16186    0.000
 4862.00    2.08240   1.29114    0.000
 4863.00    1.99732   1.42035    0.000
 4864.00    1.96173   1.51059    0.000
 4865.00    1.98063   1.57068    0.000
 4866.00    1.93341   1.61449    0.000
 4867.00    1.82196   1.64810    0.000
 4868.00    1.92461   1.67420    0.000
 4869.00    2.21063   1.69414    0.000
 4870.00    2.51226   1.70993    0.000
 4871.00    2.82566   1.72346    0.000
 4872.00    2.71443   1.73478    0.000
 4873.00    2.32173   1.74426    0.000
 4874.00    2.31482   1.75240    0.000
 4875.00    2.53183   1.75913    0.005
 4876.00    2.67974   1.76538    0.005
 4877.00    2.79270   1.77053    0.004
 4878.00    2.72821   1.77548    0.004
 4879.00    2.58601   1.77929    0.005
 4880.00    2.35108   1.78282    0.005
 4881.00    2.08130   1.78619    0.005
 4882.00    2.08525   1.78880    0.004
 4883.00    2.17651   1.79157    0.004
 4884.00    2.08242   1.79385    0.004
 4885.00    1.93893   1.79635    0.004
 4886.00    2.22008   1.79852    0.005
 4887.00    2.59387   1.80036    0.005
 4888.00    2.56930   1.80187    0.005
 4889.00    2.47567   1.80310    0.005
 4890.00    1.99939   1.80450    0.004
 4891.00    1.47272   1.80668    0.004
 4892.00    2.22921   1.80847    0.004
 4893.00    3.10493   1.80970    0.004
 4894.00    2.76740   1.81093    0.004
 4895.00    2.36108   1.81222    0.004
 4896.00    2.07688   1.81367    0.005
 4897.00    1.79190   1.81451    0.005
 4898.00    1.11786   1.81506    0.004
 4899.00    0.52870   1.81573    0.004
 4900.00    1.95410   1.81696    0.004
 4901.00    3.26671   1.81807    0.005
 4902.00    3.12090   1.81868    0.005
 4903.00    2.91359   1.81957    0.005
 4904.00    2.17156   1.82039    0.004
 4905.00    1.60504   1.82100    0.004
 4906.00    2.16791   1.82188    0.004
 4907.00    2.62611   1.82276    0.004
 4908.00    2.55795   1.82352    0.004
 4909.00    2.48030   1.82378    0.004
 4910.00    2.36400   1.82420    0.004
 4911.00    2.36169   1.82423    0.004
 4912.00    2.74405   1.82498    0.004
 4913.00    2.91232   1.82517    0.005
 4914.00    2.47107   1.82512    0.004
 4915.00    1.99386   1.82381    0.004
 4916.00    1.42914   1.82158    0.004
 4917.00    1.14574   1.81620    0.004
 4918.00    1.45286   1.80192    0.004
 4919.00    1.60621   1.77287    0.004
 4920.00    1.47897   1.72600    0.004
 4921.00    1.39827   1.71199    0.004
 4922.00    1.39179   1.74768    0.004
 4923.00    1.60737   1.79794    0.004
 4924.00    2.13371   1.81898    0.004
 4925.00    2.61662   1.82727    0.004
 4926.00    3.04604   1.83126    0.004
 4927.00    3.23625   1.83366    0.004
 4928.00    3.16677   1.83507    0.004
 4929.00    2.86551   1.83598    0.004
 4930.00    2.34229   1.83705    0.004
 4931.00    2.47418   1.83755    0.004
 4932.00    3.15923   1.83810    0.004
 4933.00    2.92149   1.83900    0.004
 4934.00    1.99765   1.84007    0.004
 4935.00    1.97079   1.84056    0.004
 4936.00    2.52978   1.84105    0.004
 4937.00    2.58379   1.84153    0.004
 4938.00    2.34913   1.84201    0.004
 4939.00    2.20628   1.84243    0.004
 4940.00    2.10914   1.84256    0.000
 4941.00    1.86407   1.84275    0.000
 4942.00    1.55529   1.84341    0.000
 4943.00    1.88755   1.84494    0.000
 4944.00    2.45648   1.84621    0.000
 4945.00    2.82868   1.84646    0.000
 4946.00    3.13933   1.84715    0.000
 4947.00    3.44374   1.84746    0.000
 4948.00    3.74653   1.84856    0.000
 4949.00    3.39553   1.84925    0.000
 4950.00    2.90531   1.84942    0.000
 4951.00    2.17892   1.84988    0.000
 4952.00    1.41273   1.85033    0.000
 4953.00    1.77676   1.85072    0.000
 4954.00    2.28454   1.85081    0.000
 4955.00    2.25192   1.85084    0.000
 4956.00    2.17136   1.85077    0.000
 4957.00    2.65345   1.85164    0.000
 4958.00    3.16523   1.85273    0.000
 4959.00    2.94390   1.85352    0.000
 4960.00    2.70677   1.85432    0.000
 4961.00    2.32936   1.85505    0.000
 4962.00    1.97681   1.85548    0.000
 4963.00    2.16485   1.85592    0.000
 4964.00    2.34042   1.85628    0.000
 4965.00    2.36290   1.85648    0.000
 4966.00    2.34826   1.85727    0.000
 4967.00    2.02284   1.85792    0.000
 4968.00    1.78050   1.85805    0.000
 4969.00    2.05688   1.85853    0.000
 4970.00    2.25713   1.85924    0.000
 4971.00    2.08410   1.85973    0.000
 4972.00    1.98977   1.86043    0.000
 4973.00    2.20877   1.86085    0.000
 4974.00    2.47497   1.86132    0.000
 4975.00    2.89730   1.86203    0.000
 4976.00    3.14959   1.86236    0.000
 4977.00    2.92659   1.86254    0.000
 4978.00    2.73954   1.86323    0.000
 4979.00    2.63850   1.86363    0.000
 4980.00    2.56111   1.86375    0.000
 4981.00    2.53258   1.86289    0.000
 4982.00    2.42657   1.86305    0.000
 4983.00    2.18137   1.86402    0.000
 4984.00    1.97569   1.86573    0.000
 4985.00    1.83213   1.86685    0.000
 4986.00    1.69174   1.86776    0.000
 4987.00    1.55573   1.86784    0.000
 4988.00    1.53320   1.86815    0.000
 4989.00    1.64846   1.86816    0.000
 4990.00    1.97038   1.86831    0.000
 4991.00    2.51350   1.86898    0.000
 4992.00    2.56421   1.86942    0.000
 4993.00    2.15002   1.87016    0.000
 4994.00    1.77566   1.87089    0.000
 4995.00    1.43446   1.87163    0.000
 4996.00    1.28646   1.87229    0.000
 4997.00    1.28005   1.87265    0.000
 4998.00    1.17523   1.87272    0.000
 4999.00    1.00709   1.87158    0.000
 5000.00    1.31733   1.87073    0.000
 5001.00    1.89688   1.87145    0.000
 5002.00    2.40708   1.87330    0.000
 5003.00    2.88330   1.87357    0.000
 5004.00    2.92883   1.87368    0.000
 5005.00    2.79199   1.87440    0.000
 5006.00    2.52323   1.87504    0.000
 5007.00    2.20662   1.87545    0.000
 5008.00    2.18372   1.87608    0.000
 5009.00    2.25092   1.87642    0.000
 5010.00    2.25585   1.87682    0.000
 5011.00    2.24488   1.87708    0.000
 5012.00    2.21120   1.87165    0.000
 5013.00    2.17280   1.84433    0.000
 5014.00    2.28673   1.80054    0.000
 5015.00    2.42560   1.80145    0.000
 5016.00    2.00575   1.84349    0.000
 5017.00    1.51734   1.87376    0.000
 5018.00    1.70867   1.87793    0.000
 5019.00    1.95746   1.88067    0.000
 5020.00    2.34570   1.88227    0.000
 5021.00    2.74076   1.88281    0.000
 5022.00    2.73039   1.88288    0.000
 5023.00    2.70953   1.88357    0.000
 5024.00    2.43168   1.88417    0.000
 5025.00    2.18429   1.88439    0.000
 5026.00    2.54800   1.88446    0.000
 5027.00    2.84443   1.88513    0.000
 5028.00    2.35488   1.88588    0.000
 5029.00    1.93925   1.88663    0.004
 5030.00    2.12042   1.88623    0.004
 5031.00    2.30710   1.88628    0.004
 5032.00    2.52717   1.88703    0.004
 5033.00    2.75578   1.88800    0.004
 5034.00    3.02521   1.88858    0.004
 5035.00    3.08622   1.88894    0.004
 5036.00    2.33542   1.88952    0.004
 5037.00    1.71170   1.88979    0.004
 5038.00    1.50016   1.88958    0.004
 5039.00    1.52557   1.88769    0.004
 5040.00    2.20139   1.88711    0.004
 5041.00    2.57332   1.88938    0.004
 5042.00    2.23068   1.89149    0.004
 5043.00    2.09116   1.89191    0.004
 5044.00    2.36454   1.89119    0.004
 5045.00    2.47163   1.88101    0.004
 5046.00    2.28448   1.86388    0.004
 5047.00    2.23888   1.86352    0.004
 5048.00    2.41239   1.87953    0.004
 5049.00    2.43238   1.89427    0.004
 5050.00    2.24365   1.89576    0.004
 5051.00    2.08751   1.89749    0.004
 5052.00    1.97038   1.89850    0.004
 5053.00    1.94985   1.89705    0.004
 5054.00    2.03126   1.89275    0.004
 5055.00    2.12780   1.89168    0.004
 5056.00    2.23842   1.89491    0.004
 5057.00    2.37636   1.89841    0.004
 5058.00    2.53672   1.89934    0.004
 5059.00    2.36769   1.89995    0.004
 5060.00    1.96075   1.90057    0.004
 5061.00    2.03585   1.90102    0.004
 5062.00    2.41658   1.90100    0.004
 5063.00    2.20670   1.90144    0.004
 5064.00    1.66940   1.90151    0.004
 5065.00    1.42228   1.90243    0.004
 5066.00    1.31508   1.90294    0.004
 5067.00    1.53842   1.90315    0.004
 5068.00    1.89937   1.90343    0.004
 5069.00    1.89431   1.90403    0.004
 5070.00    1.75891   1.90454    0.004
 5071.00    1.75669   1.90474    0.004
 5072.00    1.79453   1.90493    0.004
 5073.00    2.09870   1.90529    0.004
 5074.00    2.46939   1.90619    0.004
 5075.00    2.32761   1.90669    0.004
 5076.00    2.08197   1.90696    0.004
 5077.00    1.77538   1.90746    0.004
 5078.00    1.45911   1.90764    0.004
 5079.00    1.94498   1.90781    0.004
 5080.00    2.52574   1.90816    0.004
 5081.00    2.18277   1.90896    0.004
 5082.00    1.76554   1.90922    0.004
 5083.00    1.77220   1.90979    0.004
 5084.00    1.79793   1.91027    0.004
 5085.00    1.99737   1.91052    0.004
 5086.00    2.18918   1.91108    0.004
 5087.00    1.89881   1.91156    0.004
 5088.00    1.63238   1.91189    0.004
 5089.00    1.81137   1.91277    0.004
 5090.00    1.96217   1.91324    0.004
 5091.00    1.79896   1.91339    0.004
 5092.00    1.67969   1.91362    0.004
 5093.00    1.90275   1.91409    0.004
 5094.00    2.11152   1.91432    0.004
 5095.00    2.23616   1.91478    0.004
 5096.00    2.33701   1.91491    0.004
 5097.00    2.32684   1.91505    0.004
 5098.00    2.26896   1.91518    0.004
 5099.00    2.02928   1.91540    0.004
 5100.00    1.82983   1.91602    0.004
 5101.00    1.75837   1.91688    0.004
 5102.00    1.65191   1.91732    0.004
 5103.00    1.45108   1.91753    0.004
 5104.00    1.44813   1.91806    0.004
 5105.00    1.90273   1.91859    0.004
 5106.00    2.22662   1.91903    0.004
 5107.00    2.28900   1.91923    0.004
 5108.00    2.26478   1.91966    0.004
 5109.00    2.08967   1.91986    0.004
 5110.00    2.21387   1.92038    0.004
 5111.00    2.79460   1.92080    0.004
 5112.00    3.04371   1.92081    0.004
 5113.00    2.84844   1.92068    0.004
 5114.00    2.70599   1.92128    0.004
 5115.00    2.62584   1.92220    0.004
 5116.00    2.51807   1.92303    0.004
 5117.00    2.38155   1.92344    0.004
 5118.00    2.25775   1.92362    0.004
 5119.00    2.14562   1.92403    0.004
 5120.00    2.05696   1.92411    0.004
 5121.00    1.98728   1.92419    0.004
 5122.00    1.87352   1.92445    0.004
 5123.00    1.72839   1.92527    0.004
 5124.00    2.08240   1.92558    0.004
 5125.00    2.74821   1.92532    0.004
 5126.00    2.73993   1.92548    0.004
 5127.00    2.36367   1.92606    0.004
 5128.00    2.10244   1.92687    0.004
 5129.00    1.89578   1.92735    0.004
 5130.00    2.14629   1.92773    0.004
 5131.00    2.58390   1.92788    0.004
 5132.00    2.48598   1.92836    0.004
 5133.00    2.20084   1.92883    0.004
 5134.00    2.15997   1.92930    0.004
 5135.00    2.19113   1.92967    0.004
 5136.00    2.05141   1.92981    0.004
 5137.00    1.86996   1.93018    0.004
 5138.00    1.88280   1.93022    0.004
 5139.00    1.93403   1.93035    0.004
 5140.00    2.05695   1.93081    0.004
 5141.00    2.19093   1.93117    0.004
 5142.00    1.78380   1.93120    0.004
 5143.00    1.31505   1.93142    0.004
 5144.00    1.42329   1.93210    0.004
 5145.00    1.57556   1.93242    0.004
 5146.00    1.44137   1.93342    0.004
 5147.00    1.29540   1.93344    0.004
 5148.00    1.28709   1.93355    0.004
 5149.00    1.29222   1.93400    0.004
 5150.00    1.81575   1.93443    0.004
 5151.00    2.29953   1.93487    0.004
 5152.00    2.09452   1.93531    0.004
 5153.00    1.94111   1.93554    0.004
 5154.00    2.33683   1.93541    0.004
 5155.00    2.64411   1.93617    0.004
 5156.00    2.28572   1.93680    0.004
 5157.00    1.96056   1.93778    0.004
 5158.00    1.82576   1.93788    0.004
 5159.00    1.72245   1.93820    0.004
 5160.00    1.76263   1.93828    0.004
 5161.00    1.82219   1.93870    0.004
 5162.00    1.95410   1.93891    0.004
 5163.00    2.03160   1.93876    0.004
 5164.00    1.93932   1.93920    0.004
 5165.00    1.84279   1.93821    0.004
 5166.00    1.73497   1.93687    0.004
 5167.00    1.65737   1.93604    0.004
 5168.00    1.64849   1.93708    0.004
 5169.00    1.67890   1.93868    0.004
 5170.00    1.78667   1.93954    0.004
 5171.00    1.86538   1.93927    0.004
 5172.00    1.89423   1.93997    0.004
 5173.00    2.05406   1.94157    0.004
 5174.00    2.41077   1.94253    0.004
 5175.00    2.54862   1.94258    0.004
 5176.00    2.39739   1.94308    0.004
 5177.00    2.36047   1.94379    0.004
 5178.00    2.45652   1.94407    0.004
 5179.00    2.21084   1.94412    0.004
 5180.00    1.61456   1.94429    0.004
 5181.00    1.25341   1.94378    0.004
 5182.00    1.10502   1.94327    0.004
 5183.00    1.21424   1.94308    0.004
 5184.00    1.52889   1.94410    0.004
 5185.00    1.74591   1.94569    0.004
 5186.00    1.89444   1.94673    0.004
 5187.00    1.94562   1.94699    0.004
 5188.00    1.93689   1.94701    0.004
 5189.00    2.04848   1.94727    0.004
 5190.00    2.22475   1.94739    0.000
 5191.00    2.24680   1.94798    0.000
 5192.00    2.19686   1.94800    0.000
 5193.00    2.26592   1.94835    0.000
 5194.00    2.38284   1.94881    0.000
 5195.00    2.04496   1.94949    0.000
 5196.00    1.55101   1.94973    0.000
 5197.00    1.41916   1.94974    0.000
 5198.00    1.39194   1.94976    0.000
 5199.00    1.29648   1.94919    0.000
 5200.00    1.18472   1.94997    0.000
 5201.00    1.37359   1.95054    0.000
 5202.00    1.62032   1.95010    0.000
 5203.00    1.81831   1.94907    0.000
 5204.00    2.00902   1.94972    0.000
 5205.00    1.99494   1.95129    0.000
 5206.00    1.95843   1.95230    0.000
 5207.00    2.10608   1.95262    0.000
 5208.00    2.26704   1.95305    0.000
 5209.00    2.16287   1.95361    0.000
 5210.00    2.04881   1.95325    0.000
 5211.00    1.93690   1.95254    0.004
 5212.00    1.83327   1.95319    0.004
 5213.00    2.03040   1.95452    0.004
 5214.00    2.19897   1.95472    0.004
 5215.00    1.90428   1.95469    0.004
 5216.00    1.62952   1.95510    0.004
 5217.00    1.55759   1.95586    0.004
 5218.00    1.51227   1.95662    0.004
 5219.00    1.66055   1.95726    0.004
 5220.00    1.74644   1.95756    0.004
 5221.00    1.48478   1.95775    0.004
 5222.00    1.28746   1.95781    0.004
 5223.00    1.37637   1.95822    0.004
 5224.00    1.56856   1.95737    0.004
 5225.00    2.13806   1.95628    0.004
 5226.00    2.44440   1.95656    0.004
 5227.00    1.94524   1.95719    0.004
 5228.00    1.54190   1.95873    0.004
 5229.00    1.38790   1.95970    0.004
 5230.00    1.33981   1.95986    0.004
 5231.00    1.52854   1.95968    0.004
 5232.00    1.80801   1.95949    0.004
 5233.00    2.26336   1.95941    0.004
 5234.00    2.49546   1.95980    0.004
 5235.00    2.35019   1.96052    0.004
 5236.00    2.22814   1.96137    0.004
 5237.00    2.14048   1.96221    0.004
 5238.00    2.05373   1.96212    0.004
 5239.00    1.96817   1.96250    0.004
 5240.00    1.99976   1.96299    0.004
 5241.00    2.16572   1.96289    0.004
 5242.00    2.19862   1.96303    0.004
 5243.00    2.09691   1.96329    0.004
 5244.00    1.95134   1.96458    0.004
 5245.00    1.76664   1.96482    0.004
 5246.00    1.90397   1.96495    0.004
 5247.00    2.29447   1.96473    0.004
 5248.00    2.39841   1.96462    0.004
 5249.00    2.30422   1.96486    0.004
 5250.00    1.96887   1.96510    0.004
 5251.00    1.48733   1.96533    0.004
 5252.00    1.51294   1.96544    0.004
 5253.00    1.80694   1.96544    0.004
 5254.00    2.25462   1.96614    0.004
 5255.00    2.77287   1.96660    0.004
 5256.00    2.85527   1.96659    0.004
 5257.00    2.76536   1.96717    0.004
 5258.00    2.47526   1.96727    0.004
 5259.00    2.11771   1.96713    0.004
 5260.00    2.04036   1.96735    0.004
 5261.00    2.04231   1.96744    0.004
 5262.00    2.05306   1.96718    0.004
 5263.00    2.06587   1.96716    0.004
 5264.00    2.07087   1.96772    0.004
 5265.00    2.07441   1.96792    0.004
 5266.00    2.19301   1.96825    0.004
 5267.00    2.32828   1.96868    0.004
 5268.00    2.65166   1.96840    0.004
 5269.00    2.99482   1.96825    0.004
 5270.00    2.64591   1.96869    0.004
 5271.00    2.24982   1.96958    0.004
 5272.00    1.98410   1.96990    0.004
 5273.00    1.72276   1.97032    0.004
 5274.00    1.75137   1.97003    0.004
 5275.00    1.79228   1.96998    0.004
 5276.00    2.21685   1.97089    0.004
 5277.00    2.60618   1.97213    0.004
 5278.00    2.45885   1.97231    0.004
 5279.00    2.32867   1.97249    0.004
 5280.00    2.36585   1.97254    0.004
 5281.00    2.32758   1.97236    0.004
 5282.00    1.75802   1.97253    0.004
 5283.00    1.26818   1.97270    0.004
 5284.00    1.21054   1.97311    0.004
 5285.00    1.21324   1.97411    0.004
 5286.00    1.47812   1.97463    0.004
 5287.00    1.78907   1.97479    0.004
 5288.00    2.26480   1.97495    0.004
 5289.00    2.58366   1.97511    0.004
 5290.00    2.43137   1.97539    0.004
 5291.00    2.23254   1.97577    0.004
 5292.00    1.91475   1.97557    0.004
 5293.00    1.77757   1.97584    0.004
 5294.00    2.03770   1.97622    0.004
 5295.00    2.28014   1.97601    0.004
 5296.00    2.48879   1.97615    0.004
 5297.00    2.66630   1.97629    0.004
 5298.00    2.79195   1.97655    0.004
 5299.00    2.70389   1.97705    0.004
 5300.00    2.30394   1.97718    0.004
 5301.00    2.13521   1.97731    0.004
 5302.00    2.26321   1.97770    0.004
 5303.00    2.17721   1.97868    0.004
 5304.00    1.84925   1.97903    0.004
 5305.00    1.71512   1.97880    0.004
 5306.00    1.77430   1.97879    0.004
 5307.00    1.92873   1.97868    0.004
 5308.00    2.16692   1.97915    0.004
 5309.00    2.01043   1.97914    0.004
 5310.00    1.54807   1.97903    0.004
 5311.00    1.37349   1.97963    0.004
 5312.00    1.39498   1.97996    0.003
 5313.00    1.58256   1.97958    0.003
 5314.00    1.86931   1.97919    0.004
 5315.00    1.89581   1.97880    0.004
 5316.00    1.78673   1.97880    0.004
 5317.00    1.75860   1.97989    0.004
 5318.00    1.76704   1.98031    0.004
 5319.00    1.75887   1.97932    0.004
 5320.00    1.74425   1.97968    0.003
 5321.00    1.72552   1.98076    0.004
 5322.00    1.70543   1.98157    0.004
 5323.00    1.88329   1.98165    0.004
 5324.00    2.11604   1.98160    0.004
 5325.00    2.00580   1.98119    0.004
 5326.00    1.81733   1.98077    0.004
 5327.00    1.93800   1.98075    0.004
 5328.00    2.11510   1.98169    0.004
 5329.00    2.29871   1.98226    0.004
 5330.00    2.48324   1.98283    0.004
 5331.00    2.31680   1.98326    0.004
 5332.00    2.11496   1.98333    0.004
 5333.00    2.05400   1.98353    0.004
 5334.00    2.00208   1.98396    0.004
 5335.00    1.82575   1.98416    0.004
 5336.00    1.64654   1.98444    0.004
 5337.00    1.80764   1.98414    0.004
 5338.00    1.95974   1.98433    0.004
 5339.00    1.85503   1.98461    0.004
 5340.00    1.75593   1.98443    0.004
 5341.00    1.73714   1.98499    0.004
 5342.00    1.73665   1.98540    0.004
 5343.00    1.90733   1.98530    0.004
 5344.00    2.03326   1.98498    0.004
 5345.00    1.85394   1.98516    0.004
 5346.00    1.72363   1.98584    0.004
 5347.00    1.85206   1.98661    0.004
 5348.00    1.95411   1.98679    0.004
 5349.00    1.94406   1.98719    0.004
 5350.00    1.94628   1.98722    0.004
 5351.00    1.99148   1.98739    0.004
 5352.00    2.10288   1.98778    0.004
 5353.00    2.40936   1.98809    0.004
 5354.00    2.53192   1.98870    0.004
 5355.00    2.19233   1.98850    0.004
 5356.00    2.06994   1.98888    0.004
 5357.00    2.41761   1.98890    0.004
 5358.00    2.66907   1.98906    0.004
 5359.00    2.73978   1.98944    0.004
 5360.00    2.64132   1.98959    0.004
 5361.00    2.26540   1.98997    0.004
 5362.00    2.04664   1.98983    0.004
 5363.00    2.05393   1.98947    0.004
 5364.00    2.00138   1.98947    0.004
 5365.00    1.87315   1.98947    0.004
 5366.00    1.73550   1.98961    0.004
 5367.00    1.58733   1.98997    0.004
 5368.00    1.53218   1.98997   -2.000
 5369.00    1.56849   1.98981   -2.000
 5370.00    1.83237   1.98958   -2.000
 5371.00    2.29360   1.99008   -2.000
 5372.00    2.65493   1.99058   -2.000
 5373.00    2.93994   1.99093   -2.000
 5374.00    2.98114   1.99106   -2.000
 5375.00    2.85864   1.99141   -2.000
 5376.00    2.41380   1.99153   -2.000
 5377.00    1.77936   1.99188   -2.000
 5378.00    1.48723   1.99170   -2.000
 5379.00    1.37064   1.99145   -2.000
 5380.00    1.54339   1.99179   -2.000
 5381.00    1.84471   1.99191   -2.000
 5382.00    1.99289   1.99224   -2.000
 5383.00    2.08262   1.99220    0.003
 5384.00    1.94375   1.99231    0.003
 5385.00    1.73073   1.99264    0.003
 5386.00    1.86802   1.99260    0.003
 5387.00    2.10044   1.99255    0.003
 5388.00    1.84152   1.99251    0.003
 5389.00    1.47313   1.99261    0.004
 5390.00    1.39284   1.99277    0.004
 5391.00    1.36372   1.99235    0.004
 5392.00    1.46056   1.99229    0.004
 5393.00    1.57449   1.99208    0.004
 5394.00    1.73365   1.99165    0.004
 5395.00    1.89719   1.99143    0.004
 5396.00    1.85816   1.99099    0.004
 5397.00    1.80695   1.99077    0.004
 5398.00    2.05223   1.99017    0.004
 5399.00    2.30243   1.98927    0.004
 5400.00    2.08753   1.98761    0.004
 5401.00    1.88446   1.98595    0.004
 5402.00    1.98621   1.98382    0.004
 5403.00    2.07788   1.97980    0.004
 5404.00    2.03296   1.97313    0.004
 5405.00    1.95125   1.96333    0.004
 5406.00    1.53854   1.94699    0.004
 5407.00    1.20728   1.91565    0.004
 5408.00    1.41436   1.85895    0.004
 5409.00    1.62402   1.78156    0.004
 5410.00    1.84695   1.73419    0.004
 5411.00    2.05771   1.75995    0.004
 5412.00    2.21793   1.83539    0.004
 5413.00    2.33495   1.90302    0.004
 5414.00    2.30356   1.94094    0.004
 5415.00    2.24815   1.96141    0.003
 5416.00    2.12326   1.97358    0.003
 5417.00    2.00137   1.98104    0.003
 5418.00    1.88690   1.98563    0.003
 5419.00    1.77497   1.98856    0.003
 5420.00    1.66848   1.99096    0.003
 5421.00    1.51200   1.99266    0.003
 5422.00    1.26309   1.99361    0.003
 5423.00    1.15251   1.99425    0.003
 5424.00    1.26543   1.99444    0.003
 5425.00    1.42222   1.99538    0.003
 5426.00    1.64119   1.99601    0.003
 5427.00    1.76760   1.99588    0.003
 5428.00    1.77855   1.99607    0.003
 5429.00    1.80426   1.99685    0.003
 5430.00    1.84619   1.99726    0.003
 5431.00    1.69823   1.99750    0.003
 5432.00    1.36618   1.99736    0.003
 5433.00    1.27798   1.99754    0.003
 5434.00    1.39827   1.99832    0.003
 5435.00    1.67925   1.99887    0.003
 5436.00    2.08125   1.99965    0.003
 5437.00    2.20492   2.00004    0.003
 5438.00    2.14446   2.00027    0.003
 5439.00    1.88502   2.00028    0.003
 5440.00    1.51031   2.00067    0.003
 5441.00    1.27644   2.00073    0.003
 5442.00    1.11367   2.00035    0.003
 5443.00    1.28290   2.00058    0.003
 5444.00    1.59721   2.00025    0.003
 5445.00    1.82581   2.00003    0.004
 5446.00    2.02227   2.00079    0.004
 5447.00    1.98219   2.00117    0.004
 5448.00    1.86684   2.00154    0.004
 5449.00    1.84466   2.00175    0.004
 5450.00    1.84724   2.00125    0.004
 5451.00    2.03935   1.99998    0.004
 5452.00    2.27269   1.99903    0.004
 5453.00    2.26290   1.99918    0.004
 5454.00    2.21112   2.00026    0.004
 5455.00    1.77414   2.00155    0.004
 5456.00    1.28664   2.00230    0.003
 5457.00    1.70528   2.00266    0.004
 5458.00    2.20764   2.00285    0.004
 5459.00    1.97669   2.00266    0.004
 5460.00    1.70454   2.00246    0.004
 5461.00    1.66328   2.00244    0.004
 5462.00    1.62697   2.00262    0.003
 5463.00    1.56889   2.00242    0.003
 5464.00    1.52888   2.00222    0.003
 5465.00    1.91288   2.00218    0.003
 5466.00    2.25623   2.00252    0.004
 5467.00    2.07753   2.00287    0.004
 5468.00    1.90131   2.00321    0.003
 5469.00    1.74662   2.00338    0.003
 5470.00    1.62483   2.00334    0.003
 5471.00    1.71395   2.00333    0.003
 5472.00    1.80579   2.00290    0.003
 5473.00    1.91127   2.00324    0.003
 5474.00    1.95373   2.00340    0.003
 5475.00    1.74041   2.00334    0.003
 5476.00    1.53977   2.00350    0.003
 5477.00    1.38185   2.00361    0.003
 5478.00    1.31421   2.00433   -2.000
 5479.00    1.50299   2.00465   -2.000
 5480.00    1.52481   2.00463   -2.000
 5481.00    1.14132   2.00418   -2.000
 5482.00    1.08349   2.00450   -2.000
 5483.00    1.70791   2.00482   -2.000
 5484.00    2.87656   2.00513   -2.000
 5485.00    5.03629   2.00527   -2.000
 5486.00    6.71182   2.00503   -2.000
 5487.00    7.61662   2.00495   -2.000
 5488.00    7.89162   2.00526   -2.000
 5489.00    7.28681   2.00557   -2.000
 5490.00    5.88483   2.00570   -2.000
 5491.00    3.50282   2.00562   -2.000
 5492.00    1.44632   2.00575   -2.000
 5493.00   -0.25742   2.00567   -2.000
 5494.00   -0.87946   2.00579   -2.000
 5495.00   -0.46752   2.00570   -2.000
 5496.00    0.43250   2.00600   -2.000
 5497.00    1.74390   2.00629   -2.000
 5498.00    2.03226   2.00659   -2.000
 5499.00    1.56134   2.00670   -2.000
 5500.00    1.40522   2.00643   -2.000
 5501.00    1.45431   2.00633   -2.000
 5502.00    1.56164   2.00662    0.004
 5503.00    1.70221   2.00672    0.004
 5504.00    1.70755   2.00644    0.004
 5505.00    1.64570   2.00616    0.003
 5506.00    1.67856   2.00641    0.003
 5507.00    1.75212   2.00747    0.003
 5508.00    1.69038   2.00756    0.003
 5509.00    1.57880   2.00727    0.003
 5510.00    1.91952   2.00698    0.003
 5511.00    2.40139   2.00686    0.003
 5512.00    2.34690   2.00695    0.003
 5513.00    2.15285   2.00701    0.003
 5514.00    2.18321   2.00767    0.003
 5515.00    2.26122   2.00794    0.003
 5516.00    2.08723   2.00784    0.003
 5517.00    1.87094   2.00732    0.003
 5518.00    1.64303   2.00758    0.003
 5519.00    1.41364   2.00784    0.003
 5520.00    1.53732   2.00810    0.003
 5521.00    1.69214   2.00817    0.003
 5522.00    1.75103   2.00786    0.003
 5523.00    1.80490   2.00772    0.003
 5524.00    1.81331   2.00779    0.003
 5525.00    1.81753   2.00746    0.003
 5526.00    1.56903   2.00713    0.003
 5527.00    1.33737   2.00699    0.003
 5528.00    1.46802   2.00760    0.003
 5529.00    1.60707   2.00863    0.003
 5530.00    1.84873   2.00869    0.003
 5531.00    2.08383   2.00854    0.003
 5532.00    2.26422   2.00859    0.003
 5533.00    2.37281   2.00844    0.003
 5534.00    2.03474   2.00868    0.003
 5535.00    1.76904   2.00872    0.003
 5536.00    1.85710   2.00856    0.003
 5537.00    1.85913   2.00898    0.003
 5538.00    1.51957   2.00942    0.003
 5539.00    1.24018   2.00907    0.003
 5540.00    1.15931   2.00890    0.003
 5541.00    1.23079   2.00912    0.003
 5542.00    1.72717   2.00935    0.003
 5543.00    1.99549   2.00957    0.003
 5544.00    1.71950   2.00960    0.003
 5545.00    1.63213   2.00943    0.003
 5546.00    1.93355   2.00964    0.003
 5547.00    2.09460   2.00986    0.003
 5548.00    2.00390   2.00989    0.003
 5549.00    2.11072   2.00970    0.003
 5550.00    2.52730   2.00991    0.003
 5551.00    2.74258   2.01012    0.003
 5552.00    2.68069   2.00995    0.003
 5553.00    2.48342   2.00936    0.003
 5554.00    2.12207   2.00976    0.003
 5555.00    1.91572   2.01036    0.003
 5556.00    1.87498   2.01056    0.003
 5557.00    1.86627   2.01057    0.003
 5558.00    1.88773   2.01037    0.003
 5559.00    1.80418   2.01038    0.003
 5560.00    1.63336   2.01018    0.003
 5561.00    1.59904   2.01018    0.003
 5562.00    1.66457   2.00978    0.003
 5563.00    1.96193   2.00957    0.003
 5564.00    2.40820   2.00976    0.003
 5565.00    2.20959   2.01014    0.003
 5566.00    1.64861   2.01073    0.003
 5567.00    1.63231   2.01052    0.003
 5568.00    1.88232   2.00991    0.003
 5569.00    2.07533   2.01009    0.003
 5570.00    2.24427   2.01027    0.003
 5571.00    2.26367   2.01025    0.003
 5572.00    2.22897   2.01023    0.003
 5573.00    1.92115   2.01080    0.003
 5574.00    1.52975   2.01097    0.003
 5575.00    1.80232   2.01095    0.003
 5576.00    2.24395   2.01072    0.003
 5577.00    2.14929   2.01069    0.003
 5578.00    1.94355   2.01066    0.003
 5579.00    1.59386   2.01102    0.003
 5580.00    1.22070   2.01079    0.003
 5581.00    1.43598   2.01095    0.003
 5582.00    1.72314   2.01131    0.003
 5583.00    1.88709   2.01167    0.003
 5584.00    2.04069   2.01123    0.003
 5585.00    1.85626   2.01058    0.003
 5586.00    1.65549   2.00994    0.003
 5587.00    1.86837   2.01029    0.003
 5588.00    2.08635   2.01085    0.003
 5589.00    2.23865   2.00898    0.003
 5590.00    2.37756   2.00329    0.003
 5591.00    2.25028   2.00003    0.003
 5592.00    2.13976   2.00300    0.003
 5593.00    2.22382   2.00917    0.003
 5594.00    2.25925   2.01152    0.003
 5595.00    1.90385   2.01126    0.003
 5596.00    1.59766   2.01140    0.003
 5597.00    1.58878   2.01154    0.003
 5598.00    1.59733   2.01147    0.003
 5599.00    1.68901   2.01120    0.003
 5600.00    1.83860   2.01134    0.003
 5601.00    2.21308   2.01147    0.003
 5602.00    2.51976   2.01160    0.003
 5603.00    2.60704   2.01152    0.003
 5604.00    2.51668   2.01104    0.003
 5605.00    1.93980   2.01076    0.003
 5606.00    1.62719   2.01109    0.003
 5607.00    1.93470   2.01162    0.003
 5608.00    2.16804   2.01174    0.003
 5609.00    2.25092   2.01186    0.003
 5610.00    2.29320   2.01198    0.003
 5611.00    2.26376   2.01189    0.003
 5612.00    2.20971   2.01160    0.003
 5613.00    2.11761   2.01150    0.003
 5614.00    1.90158   2.01121    0.003
 5615.00    1.51736   2.01132    0.003
 5616.00    1.37472   2.01164    0.003
 5617.00    1.52072   2.01215    0.003
 5618.00    1.56991   2.01225    0.003
 5619.00    1.51713   2.01236    0.003
 5620.00    1.52420   2.01225    0.003
 5621.00    1.58690   2.01195    0.003
 5622.00    1.63503   2.01205    0.003
 5623.00    1.67124   2.01215    0.003
 5624.00    1.66665   2.01224    0.003
 5625.00    1.63266   2.01213    0.003
 5626.00    1.77864   2.01181    0.003
 5627.00    2.03852   2.01191    0.003
 5628.00    1.77725   2.01200    0.003
 5629.00    1.22763   2.01208    0.003
 5630.00    1.16197   2.01217    0.003
 5631.00    1.32917   2.01226    0.003
 5632.00    1.55180   2.01234    0.003
 5633.00    1.79747   2.01243    0.003
 5634.00    1.73761   2.01229    0.003
 5635.00    1.56920   2.01197    0.003
 5636.00    1.68207   2.01204    0.003
 5637.00    1.87933   2.01147    0.003
 5638.00    1.84352   2.01011    0.003
 5639.00    1.74966   2.01000    0.003
 5640.00    1.67743   2.01091    0.003
 5641.00    1.60957   2.01201    0.003
 5642.00    1.74590   2.01227    0.003
 5643.00    1.91457   2.01171    0.003
 5644.00    1.98154   2.01115    0.003
 5645.00    2.03654   2.01103    0.003
 5646.00    1.88379   2.01149    0.003
 5647.00    1.71444   2.01156    0.003
 5648.00    1.60528   2.01162    0.003
 5649.00    1.49880   2.01189    0.003
 5650.00    1.58624   2.01236    0.003
 5651.00    1.67020   2.01241    0.003
 5652.00    1.47707   2.01269    0.003
 5653.00    1.29656   2.01293    0.003
 5654.00    1.34880   2.01235    0.003
 5655.00    1.40409   2.01199    0.003
 5656.00    1.49322   2.01182    0.003
 5657.00    1.58803   2.01124    0.003
 5658.00    1.72691   2.01087    0.003
 5659.00    1.83686   2.01114    0.003
 5660.00    1.77699   2.01159    0.003
 5661.00    1.70674   2.01140    0.003
 5662.00    1.58823   2.01103    0.003
 5663.00    1.48562   2.01107    0.003
 5664.00    1.44346   2.01111    0.003
 5665.00    1.50615   2.01092    0.003
 5666.00    1.90159   2.01054    0.003
 5667.00    2.16360   2.01079    0.003
 5668.00    2.06669   2.01146    0.003
 5669.00    1.92132   2.01190    0.003
 5670.00    1.66417   2.01192    0.003
 5671.00    1.54957   2.01195    0.003
 5672.00    1.71958   2.01175    0.003
 5673.00    1.84940   2.01136    0.003
 5674.00    1.90931   2.01115    0.003
 5675.00    1.90558   2.01099    0.003
 5676.00    1.80494   2.01119    0.003
 5677.00    1.70932   2.01057    0.003
 5678.00    1.62039   2.00994    0.003
 5679.00    1.54612   2.01000    0.003
 5680.00    1.48912   2.01129    0.003
 5681.00    1.48599   2.01212    0.003
 5682.00    1.53883   2.01190    0.003
 5683.00    1.58444   2.01127    0.003
 5684.00    1.62342   2.01086    0.003
 5685.00    1.65587   2.01087    0.003
 5686.00    1.68306   2.01110    0.003
 5687.00    1.58973   2.01151    0.003
 5688.00    1.41076   2.01151    0.003
 5689.00    1.39078   2.01151    0.003
 5690.00    1.46991   2.01151    0.003
 5691.00    1.63303   2.01174    0.003
 5692.00    1.84191   2.01191    0.003
 5693.00    1.96542   2.01056    0.003
 5694.00    2.04851   2.00820    0.003
 5695.00    2.08155   2.00719    0.003
 5696.00    2.09416   2.00875    0.003
 5697.00    2.15064   2.01104    0.003
 5698.00    2.22243   2.01120    0.003
 5699.00    2.20240   2.01101    0.003
 5700.00    2.15536   2.01140    0.003
 5701.00    2.19559   2.01115    0.003
 5702.00    2.25707   2.01071    0.003
 5703.00    2.24489   2.01069    0.003
 5704.00    2.21821   2.01090    0.003
 5705.00    2.00476   2.01129    0.003
 5706.00    1.76262   2.01103    0.003
 5707.00    1.57310   2.01059    0.003
 5708.00    1.38953   2.01056    0.003
 5709.00    1.45795   2.01053    0.003
 5710.00    1.54546   2.01026    0.003
 5711.00    1.56809   2.01004    0.003
 5712.00    1.58808   2.01066    0.003
 5713.00    1.71007   2.01104    0.003
 5714.00    1.82638   2.01124    0.003
 5715.00    1.67507   2.01138    0.003
 5716.00    1.51578   2.01092    0.003
 5717.00    1.21929   2.01112    0.003
 5718.00    0.96442   2.01125    0.003
 5719.00    1.14991   2.01079    0.003
 5720.00    1.32118   2.01026    0.003
 5721.00    1.38596   2.00962    0.003
 5722.00    1.44239   2.00999    0.003
 5723.00    1.45124   2.01018    0.003
 5724.00    1.47792   2.01030    0.003
 5725.00    1.58560   2.01007    0.003
 5726.00    1.65458   2.01043    0.003
 5727.00    1.57952   2.01038    0.003
 5728.00    1.56275   2.01056    0.003
 5729.00    1.72744   2.01067    0.003
 5730.00    1.78815   2.01019    0.003
 5731.00    1.57408   2.01013    0.003
 5732.00    1.44722   2.01007    0.003
 5733.00    1.51826   2.01000    0.003
 5734.00    1.60088   2.01018    0.003
 5735.00    1.70628   2.01053    0.003
 5736.00    1.80955   2.00997    0.003
 5737.00    1.90917   2.00832    0.003
 5738.00    1.94817   2.00650    0.003
 5739.00    1.89626   2.00633    0.003
 5740.00    1.82409   2.00825    0.000
 5741.00    1.72520   2.00967    0.000
 5742.00    1.56813   2.00976    0.000
 5743.00    1.34351   2.00951    0.000
 5744.00    1.26274   2.00985    0.000
 5745.00    1.32931   2.00976    0.000
 5746.00    1.40019   2.00943    0.000
 5747.00    1.47496   2.00917    0.000
 5748.00    1.56538   2.00950    0.000
 5749.00    1.66828   2.00967    0.000
 5750.00    1.69553   2.00950    0.000
 5751.00    1.66981   2.00857    0.000
 5752.00    1.70837   2.00847    0.000
 5753.00    1.78641   2.00838    0.000
 5754.00    1.81214   2.00853    0.000
 5755.00    1.80981   2.00885    0.000
 5756.00    1.76900   2.00900    0.000
 5757.00    1.71027   2.00932    0.000
 5758.00    1.65266   2.00947    0.000
 5759.00    1.59549   2.00979    0.000
 5760.00    1.78117   2.00943    0.000
 5761.00    2.05001   2.00891    0.000
 5762.00    2.17483   2.00880    0.000
 5763.00    2.25814   2.00869    0.000
 5764.00    2.07515   2.00884    0.000
 5765.00    1.82872   2.00889    0.000
 5766.00    1.76817   2.00861    0.000
 5767.00    1.74328   2.00892    0.000
 5768.00    1.81624   2.00880    0.000
 5769.00    1.90378   2.00843    0.000
 5770.00    1.89295   2.00789    0.000
 5771.00    1.87139   2.00828    0.000
 5772.00    1.91485   2.00874    0.000
 5773.00    1.96297   2.00794    0.000
 5774.00    1.88214   2.00740    0.000
 5775.00    1.79656   2.00753    0.000
 5776.00    1.63097   2.00782    0.000
 5777.00    1.46841   2.00769    0.000
 5778.00    1.42644   2.00756    0.000
 5779.00    1.40095   2.00743    0.000
 5780.00    1.64057   2.00730    0.000
 5781.00    1.87528   2.00742    0.000
 5782.00    2.06043   2.00745    0.000
 5783.00    2.20705   2.00689    0.000
 5784.00    2.07450   2.00675    0.000
 5785.00    1.94564   2.00687    0.000
 5786.00    1.83724   2.00715    0.000
 5787.00    1.74341   2.00727    0.000
 5788.00    1.71415   2.00755    0.000
 5789.00    1.70531   2.00714    0.000
 5790.00    1.77087   2.00683    0.000
 5791.00    1.86387   2.00710   -2.000
 5792.00    2.04069   2.00695   -2.000
 5793.00    2.19862   2.00680   -2.000
 5794.00    2.30752   2.00691   -2.000
 5795.00    2.39677   2.00718   -2.000
 5796.00    2.44220   2.00676   -2.000
 5797.00    2.45218   2.00618   -2.000
 5798.00    2.39360   2.00576   -2.000
 5799.00    2.30132   2.00517   -2.000
 5800.00    2.15218   2.00501   -2.000
 5801.00    2.13977   2.00538   -2.000
 5802.00    2.32951   2.00633   -2.000
 5803.00    2.24427   2.00659   -2.000
 5804.00    1.80167   2.00642   -2.000
 5805.00    1.44947   2.00625   -2.000
 5806.00    1.20076   2.00608   -2.000
 5807.00    1.23595   2.00591   -2.000
 5808.00    1.55780   2.00574   -2.000
 5809.00    1.77046   2.00503   -2.000
 5810.00    1.88590   2.00374   -2.000
 5811.00    1.83232   2.00367    0.000
 5812.00    1.64611   2.00515    0.000
 5813.00    1.61849   2.00598    0.000
 5814.00    1.70033   2.00564    0.000
 5815.00    1.77880   2.00588    0.000
 5816.00    1.85524   2.00570    0.000
 5817.00    1.90013   2.00552    0.000
 5818.00    1.92836   2.00560    0.000
 5819.00    1.80804   2.00557    0.000
 5820.00    1.61965   2.00523    0.000
 5821.00    1.58514   2.00573    0.000
 5822.00    1.61133   2.00597    0.000
 5823.00    1.67925   2.00687    0.000
 5824.00    1.76119   2.00920    0.000
 5825.00    1.87366   2.01028    0.000
 5826.00    1.99475   2.00899    0.000
 5827.00    1.99106   2.00627    0.000
 5828.00    1.95831   2.00506    0.000
 5829.00    1.94459   2.00529    0.000
 5830.00    1.93441   2.00509    0.000
 5831.00    1.96263   2.00488    0.000
 5832.00    1.99639   2.00468    0.000
 5833.00    1.86585   2.00475    0.000
 5834.00    1.71812   2.00524    0.000
 5835.00    1.76448   2.00546    0.000
 5836.00    1.82396   2.00525    0.000
 5837.00    1.94902   2.00504    0.000
 5838.00    2.07625   2.00510    0.000
 5839.00    2.08392   2.00532    0.000
 5840.00    2.09383   2.00510    0.000
 5841.00    2.17661   2.00460    0.000
 5842.00    2.25331   2.00424    0.000
 5843.00    2.23827   2.00445    0.000
 5844.00    2.20354   2.00422    0.000
 5845.00    1.97786   2.00400    0.000
 5846.00    1.76083   2.00406    0.000
 5847.00    1.60450   2.00426    0.000
 5848.00    1.46795   2.00403    0.000
 5849.00    1.43831   2.00380    0.000
 5850.00    1.43254   2.00329    0.000
 5851.00    1.53016   2.00263    0.000
 5852.00    1.60879   2.00240    0.000
 5853.00    1.61965   2.00245    0.000
 5854.00    1.65512   2.00292    0.000
 5855.00    1.76434   2.00312    0.000
 5856.00    1.85997   2.00288    0.000
 5857.00    1.92091   2.00292    0.000
 5858.00    1.96207   2.00311    0.000
 5859.00    1.95981   2.00258    0.000
 5860.00    1.92601   2.00220    0.000
 5861.00    1.83214   2.00238    0.000
 5862.00    1.71786   2.00213    0.000
 5863.00    1.56967   2.00189    0.000
 5864.00    1.49613   2.00164    0.000
 5865.00    1.53133   2.00110    0.000
 5866.00    1.61410   2.00042    0.000
 5867.00    1.75780   2.00016    0.000
 5868.00    1.84412   1.99962    0.000
 5869.00    1.86567   1.99864    0.000
 5870.00    1.82918   1.99564    0.000
 5871.00    1.73491   1.98991    0.000
 5872.00    1.63042   1.94312    0.000
 5873.00    1.51695   1.82092    0.000
 5874.00    1.61409   1.72572    0.000
 5875.00    1.87415   1.75244    0.000
 5876.00    1.97738   1.87402    0.000
 5877.00    1.97397   1.97470    0.000
 5878.00    1.90388   1.99282    0.000
 5879.00    1.79404   1.99614    0.000
 5880.00    1.71096   1.99731    0.000
 5881.00    1.64177   1.99819    0.000
 5882.00    1.56424   1.99864    0.000
 5883.00    1.48294   1.99909    0.000
 5884.00    1.38958   1.99954    0.000
 5885.00    1.29155   1.99969    0.000
 5886.00    1.34434   1.99912    0.000
 5887.00    1.44686   1.99723    0.000
 5888.00    1.49174   1.99433    0.000
 5889.00    1.52068   1.99334    0.000
 5890.00    1.45941   1.99540    0.000
 5891.00    1.37762   1.99786    0.000
 5892.00    1.38969   1.99873    0.000
 5893.00    1.41884   1.99799    0.000
 5894.00    1.50757   1.99580    0.000
 5895.00    1.60462   1.99524    0.000
 5896.00    1.51298   1.99671    0.000
 5897.00    1.40240   1.99831    0.000
 5898.00    1.29923   1.99888    0.000
 5899.00    1.19652   1.99888    0.000
 5900.00    1.14941   1.99901    0.000
 5901.00    1.10474   1.99901    0.003
 5902.00    1.33902   1.99915    0.003
 5903.00    1.56452   1.99915    0.003
 5904.00    1.54225   1.99928    0.003
 5905.00    1.50970   1.99927    0.003
 5906.00    1.33082   1.99940    0.003
 5907.00    1.17239   1.99910    0.003
 5908.00    1.20437   1.99879    0.003
 5909.00    1.25891   1.99848    0.003
 5910.00    1.46677   1.99847    0.003
 5911.00    1.65140   1.99859    0.003
 5912.00    1.71379   1.99828    0.003
 5913.00    1.73569   1.99827    0.003
 5914.00    1.58621   1.99869    0.003
 5915.00    1.47727   1.99881    0.003
 5916.00    1.51010   1.99819    0.003
 5917.00    1.52397   1.99743    0.003
 5918.00    1.48204   1.99742    0.003
 5919.00    1.45483   1.99753    0.003
 5920.00    1.46450   1.99751    0.003
 5921.00    1.46756   1.99793    0.003
 5922.00    1.45635   1.99804    0.003
 5923.00    1.42427   1.99802    0.003
 5924.00    1.35306   1.99812    0.003
 5925.00    1.30514   1.99779    0.003
 5926.00    1.29532   1.99715    0.003
 5927.00    1.34987   1.99670    0.003
 5928.00    1.49681   1.99680    0.003
 5929.00    1.59238   1.99677    0.003
 5930.00    1.62308   1.99687    0.003
 5931.00    1.63324   1.99684    0.003
 5932.00    1.62055   1.99694    0.003
 5933.00    1.64706   1.99660    0.003
 5934.00    1.71204   1.99657    0.003
 5935.00    1.72950   1.99666    0.003
 5936.00    1.70582   1.99663    0.003
 5937.00    1.67889   1.99672    0.003
 5938.00    1.64950   1.99637    0.003
 5939.00    1.56591   1.99602    0.003
 5940.00    1.44600   1.99599    0.003
 5941.00    1.33684   1.99607    0.003
 5942.00    1.23398   1.99572    0.003
 5943.00    1.22945   1.99568    0.003
 5944.00    1.27524   1.99545    0.003
 5945.00    1.38372   1.99497    0.003
 5946.00    1.52000   1.99536    0.003
 5947.00    1.71171   1.99544    0.003
 5948.00    1.92452   1.99508    0.003
 5949.00    1.95151   1.99472    0.003
 5950.00    1.91838   1.99436    0.003
 5951.00    1.70670   1.99399    0.003
 5952.00    1.44666   1.99395    0.003
 5953.00    1.40063   1.99401    0.003
 5954.00    1.40212   1.99365    0.003
 5955.00    1.51391   1.99328    0.003
 5956.00    1.64523   1.99323    0.003
 5957.00    1.66356   1.99361    0.003
 5958.00    1.66662   1.99431    0.003
 5959.00    1.69134   1.99481    0.003
 5960.00    1.71815   1.99444    0.003
 5961.00    1.62128   1.99438    0.003
 5962.00    1.51704   1.99444    0.003
 5963.00    1.41383   1.99439    0.003
 5964.00    1.31135   1.99444    0.003
 5965.00    1.31641   1.99438    0.003
 5966.00    1.32756   1.99444    0.003
 5967.00    1.49364   1.99405    0.003
 5968.00    1.64515   1.99399    0.003
 5969.00    1.60068   1.99404    0.003
 5970.00    1.56169   1.99366    0.003
 5971.00    1.57188   1.99327    0.003
 5972.00    1.57592   1.99288    0.003
 5973.00    1.53955   1.99249    0.003
 5974.00    1.50747   1.99242    0.003
 5975.00    1.49746   1.99214    0.003
 5976.00    1.49421   1.99097    0.003
 5977.00    1.51898   1.98981    0.003
 5978.00    1.53822   1.98963    0.003
 5979.00    1.53851   1.99109    0.003
 5980.00    1.53821   1.99233    0.003
 5981.00    1.53623   1.99236    0.003
 5982.00    1.50359   1.99229    0.003
 5983.00    1.39539   1.99232    0.003
 5984.00    1.32075   1.99225    0.003
 5985.00    1.31741   1.99261    0.003
 5986.00    1.34689   1.99264    0.003
 5987.00    1.43696   1.99223    0.003
 5988.00    1.51935   1.99182    0.003
 5989.00    1.58939   1.99174    0.003
 5990.00    1.65237   1.99210    0.003
 5991.00    1.70537   1.99212    0.003
 5992.00    1.74170   1.99204    0.003
 5993.00    1.75728   1.99206    0.003
 5994.00    1.76168   1.99164    0.003
 5995.00    1.75382   1.99122    0.003
 5996.00    1.75470   1.99114    0.003
 5997.00    1.76405   1.99115    0.003
 5998.00    1.77539   1.99073    0.003
 5999.00    1.78844   1.99031    0.003
 6000.00    1.75282   1.98988    0.003
 6001.00    1.68063   1.98979    0.003
 6002.00    1.63979   1.99014    0.003
 6003.00    1.61966   1.99015    0.003
 6004.00    1.67332   1.98971    0.003
 6005.00    1.76965   1.98928    0.003
 6006.00    1.74686   1.98919    0.003
 6007.00    1.66406   1.98919    0.003
 6008.00    1.66847   1.98909    0.003
 6009.00    1.71090   1.98943    0.003
 6010.00    1.72429   1.98978    0.003
 6011.00    1.72683   1.99012    0.003
 6012.00    1.65747   1.99011    0.003
 6013.00    1.56530   1.99001    0.003
 6014.00    1.53302   1.99001    0.003
 6015.00    1.51663   1.98991    0.003
 6016.00    1.61699   1.98990    0.003
 6017.00    1.74266   1.98980    0.003
 6018.00    1.61838   1.98979    0.003
 6019.00    1.45108   1.98968    0.003
 6020.00    1.37683   1.98967    0.003
 6021.00    1.31472   1.98957    0.003
 6022.00    1.40319   1.98955    0.003
 6023.00    1.50550   1.98910    0.003
 6024.00    1.41591   1.98899    0.003
 6025.00    1.31563   1.98897    0.003
 6026.00    1.42347   1.98852    0.003
 6027.00    1.53514   1.98806    0.003
 6028.00    1.57374   1.98794    0.003
 6029.00    1.60930   1.98792    0.003
 6030.00    1.57403   1.98711    0.002
 6031.00    1.53394   1.98655    0.002
 6032.00    1.43232   1.98653    0.003
 6033.00    1.33767   1.98606    0.003
 6034.00    1.30310   1.98594    0.003
 6035.00    1.27360   1.98591    0.003
 6036.00    1.27643   1.98544    0.003
 6037.00    1.29123   1.98532    0.003
 6038.00    1.36588   1.98598    0.003
 6039.00    1.42282   1.98674    0.003
 6040.00    1.40813   1.98706    0.003
 6041.00    1.43116   1.98702    0.003
 6042.00    1.58087   1.98655    0.003
 6043.00    1.70399   1.98642    0.003
 6044.00    1.75175   1.98638    0.003
 6045.00    1.76335   1.98625    0.003
 6046.00    1.68738   1.98656    0.003
 6047.00    1.63078   1.98688    0.003
 6048.00    1.61470   1.98683    0.003
 6049.00    1.60500   1.98635    0.003
 6050.00    1.60692   1.98621    0.003
 6051.00    1.54340   1.98652    0.003
 6052.00    1.37590   1.98683    0.003
 6053.00    1.29353   1.98643    0.003
 6054.00    1.32985   1.98585    0.003
 6055.00    1.40640   1.98615    0.003
 6056.00    1.53230   1.98646    0.003
 6057.00    1.56648   1.98640    0.003
 6058.00    1.50145   1.98591    0.002
 6059.00    1.39873   1.98541    0.002
 6060.00    1.26005   1.98527    0.003
 6061.00    1.21408   1.98521    0.003
 6062.00    1.24612   1.98471    0.003
 6063.00    1.31333   1.98456    0.003
 6064.00    1.40660   1.98450    0.003
 6065.00    1.43923   1.98435    0.003
 6066.00    1.43239   1.98393    0.003
 6067.00    1.36623   1.98298    0.003
 6068.00    1.26629   1.98247    0.003
 6069.00    1.20077   1.98195    0.003
 6070.00    1.15231   1.98180    0.003
 6071.00    1.21280   1.98137    0.003
 6072.00    1.32000   1.98077    0.003
 6073.00    1.35572   1.98106    0.003
 6074.00    1.36517   1.98135    0.003
 6075.00    1.35591   1.98164    0.003
 6076.00    1.34082   1.98193    0.003
 6077.00    1.35576   1.98185    0.003
 6078.00    1.37849   1.98169    0.003
 6079.00    1.40948   1.98198    0.003
 6080.00    1.44222   1.98226    0.003
 6081.00    1.46062   1.98218    0.003
 6082.00    1.47662   1.98239    0.003
 6083.00    1.44501   1.98312    0.002
 6084.00    1.40739   1.98303    0.002
 6085.00    1.35842   1.98250    0.002
 6086.00    1.30844   1.98234    0.002
 6087.00    1.29426   1.98262    0.002
 6088.00    1.28194   1.98253    0.002
 6089.00    1.34025   1.98236    0.002
 6090.00    1.39886   1.98227    0.002
 6091.00    1.38500   1.98211    0.002
 6092.00    1.37194   1.98238    0.002
 6093.00    1.37588   1.98229    0.002
 6094.00    1.37216   1.98175    0.002
 6095.00    1.27566   1.98158    0.002
 6096.00    1.20402   1.98185    0.002
 6097.00    1.33866   1.98212    0.003
 6098.00    1.45474   1.98202    0.003
 6099.00    1.45574   1.98148    0.003
 6100.00    1.47246   1.98093    0.003
 6101.00    1.56576   1.98075    0.003
 6102.00    1.67469   1.98065    0.003
 6103.00    1.84551   1.98085    0.003
 6104.00    1.93046   1.98118    0.003
 6105.00    1.73277   1.98063    0.003
 6106.00    1.54398   1.98007    0.003
 6107.00    1.37997   1.97952    0.003
 6108.00    1.29536   1.97896    0.003
 6109.00    1.39983   1.97878    0.003
 6110.00    1.48553   1.97828    0.003
 6111.00    1.53262   1.97765    0.003
 6112.00    1.56722   1.97753    0.003
 6113.00    1.57947   1.97735    0.002
 6114.00    1.60165   1.97685    0.002
 6115.00    1.63937   1.97583    0.002
 6116.00    1.64424   1.97526    0.002
 6117.00    1.60393   1.97545    0.002
 6118.00    1.56148   1.97615    0.002
 6119.00    1.51642   1.97641    0.002
 6120.00    1.48824   1.97590    0.002
 6121.00    1.47808   1.97564    0.002
 6122.00    1.42757   1.97673    0.002
 6123.00    1.33910   1.97704    0.002
 6124.00    1.28810   1.97685    0.002
 6125.00    1.26817   1.97710    0.002
 6126.00    1.23748   1.97735    0.002
 6127.00    1.19894   1.97798    0.003
 6128.00    1.12605   1.97868    0.003
 6129.00    1.03115   1.97854    0.002
 6130.00    1.08064   1.97873    0.002
 6131.00    1.21111   1.97904    0.003
 6132.00    1.33975   1.97845    0.003
 6133.00    1.46751   1.97787    0.003
 6134.00    1.53253   1.97728    0.003
 6135.00    1.57110   1.97669    0.003
 6136.00    1.58675   1.97687    0.003
 6137.00    1.59412   1.97756    0.003
 6138.00    1.58255   1.97781    0.003
 6139.00    1.56521   1.97766    0.003
 6140.00    1.48956   1.97706    0.003
 6141.00    1.39911   1.97686    0.003
 6142.00    1.37608   1.97709    0.003
 6143.00    1.36698   1.97733    0.002
 6144.00    1.46939   1.97757    0.002
 6145.00    1.58994   1.97742    0.002
 6146.00    1.57323   1.97721    0.002
 6147.00    1.53983   1.97666    0.002
 6148.00    1.52212   1.97560    0.002
 6149.00    1.50572   1.97539    0.002
 6150.00    1.56265   1.97563    0.002
 6151.00    1.62309   1.97546    0.002
 6152.00    1.60045   1.97525    0.002
 6153.00    1.57638   1.97508    0.002
 6154.00    1.53987   1.97487    0.002
 6155.00    1.50816   1.97470    0.002
 6156.00    1.57064   1.97448    0.002
 6157.00    1.62011   1.97471    0.003
 6158.00    1.51939   1.97454    0.003
 6159.00    1.42583   1.97392    0.003
 6160.00    1.38960   1.97290    0.003
 6161.00    1.37433   1.97223    0.003
 6162.00    1.48526   1.97205    0.003
 6163.00    1.56560   1.97143    0.003
 6164.00    1.50061   1.97080    0.003
 6165.00    1.42944   1.96977    0.003
 6166.00    1.33435   1.96870    0.003
 6167.00    1.27447   1.96766    0.003
 6168.00    1.32824   1.96658    0.003
 6169.00    1.36554   1.96675    0.003
 6170.00    1.35790   1.96782    0.002
 6171.00    1.34258   1.96848    0.002
 6172.00    1.30932   1.96870    0.002
 6173.00    1.30838   1.96932    0.002
 6174.00    1.37289   1.96998    0.002
 6175.00    1.39684   1.96979    0.002
 6176.00    1.34930   1.96996    0.002
 6177.00    1.29818   1.97103    0.002
 6178.00    1.24154   1.97128    0.002
 6179.00    1.20540   1.97105    0.002
 6180.00    1.19704   1.97126    0.002
 6181.00    1.22627   1.97147    0.002
 6182.00    1.30034   1.97168    0.002
 6183.00    1.37155   1.97189    0.002
 6184.00    1.43975   1.97169    0.002
 6185.00    1.46136   1.97186    0.003
 6186.00    1.43975   1.97170    0.003
 6187.00    1.34637   1.97142    0.003
 6188.00    1.19430   1.97166    0.003
 6189.00    1.07976   1.97142    0.003
 6190.00    0.99223   1.97121    0.003
 6191.00    1.16671   1.97138    0.003
 6192.00    1.50669   1.97203    0.003
 6193.00    2.01843   1.97182    0.003
 6194.00    2.62502   1.97116    0.003
 6195.00    3.71765   1.97091    0.003
 6196.00    5.04366   1.97070   -2.000
 6197.00    5.89138   1.97045   -2.000
 6198.00    6.54082   1.97024   -2.000
 6199.00    5.55463   1.96999   -2.000
 6200.00    3.98870   1.97060   -2.000
 6201.00    2.04933   1.97125   -2.000
 6202.00   -0.00180   1.97103   -2.000
 6203.00   -0.79167   1.97036   -2.000
 6204.00   -1.26826   1.97010   -2.000
 6205.00   -0.75489   1.96988   -2.000
 6206.00   -0.04218   1.96963   -2.000
 6207.00    0.52420   1.96940   -2.000
 6208.00    1.06749   1.96956    0.003
 6209.00    1.30183   1.97020    0.002
 6210.00    1.49997   1.96998    0.002
 6211.00    1.57250   1.96930    0.002
 6212.00    1.63507   1.96862    0.002
 6213.00    1.51459   1.96835    0.002
 6214.00    1.38606   1.96854    0.002
 6215.00    1.36881   1.96873    0.002
 6216.00    1.35577   1.96849    0.002
 6217.00    1.48494   1.96823    0.002
 6218.00    1.60411   1.96799    0.003
 6219.00    1.54061   1.96773    0.002
 6220.00    1.47982   1.96749    0.002
 6221.00    1.44885   1.96679    0.002
 6222.00    1.42728   1.96610    0.002
 6223.00    1.47830   1.96541    0.002
 6224.00    1.53257   1.96514    0.002
 6225.00    1.60595   1.96489    0.002
 6226.00    1.68464   1.96419    0.002
 6227.00    1.78803   1.96349    0.002
 6228.00    1.88201   1.96236    0.002
 6229.00    1.94033   1.96035    0.002
 6230.00    1.94310   1.95874    0.002
 6231.00    1.77005   1.95846    0.002
 6232.00    1.60184   1.95864    0.002
 6233.00    1.44664   1.95924    0.002
 6234.00    1.34147   1.95986    0.002
 6235.00    1.35154   1.96003    0.002
 6236.00    1.32553   1.96063    0.002
 6237.00    1.22763   1.96125    0.002
 6238.00    1.16427   1.96185    0.002
 6239.00    1.16086   1.96290    0.002
 6240.00    1.14192   1.96352    0.002
 6241.00    1.09936   1.96369    0.002
 6242.00    1.09092   1.96386    0.002
 6243.00    1.12803   1.96403    0.002
 6244.00    1.16991   1.96420    0.002
 6245.00    1.21738   1.96436    0.002
 6246.00    1.29484   1.96496    0.002
 6247.00    1.40338   1.96514    0.003
 6248.00    1.51397   1.96529    0.003
 6249.00    1.62645   1.96547    0.003
 6250.00    1.69382   1.96475    0.003
 6251.00    1.72484   1.96446    0.002
 6252.00    1.71783   1.96462    0.002
 6253.00    1.68384   1.96478    0.002
 6254.00    1.74675   1.96451    0.002
 6255.00    1.86995   1.96421    0.002
 6256.00    2.06814   1.96393    0.002
 6257.00    2.30711   1.96364    0.002
 6258.00    2.61971   1.96380    0.003
 6259.00    2.96710   1.96396    0.003
 6260.00    2.98015   1.96411    0.003
 6261.00    2.85695   1.96383    0.003
 6262.00    2.41549   1.96353    0.003
 6263.00    1.86328   1.96324    0.003
 6264.00    1.37620   1.96295    0.003
 6265.00    0.90822   1.96310    0.003
 6266.00    0.89207   1.96281    0.003
 6267.00    0.98568   1.96251    0.003
 6268.00    1.13487   1.96266    0.003
 6269.00    1.29498   1.96281    0.002
 6270.00    1.28401   1.96251    0.002
 6271.00    1.24688   1.96221    0.002
 6272.00    1.26650   1.96236    0.002
 6273.00    1.29252   1.96206    0.002
 6274.00    1.40140   1.96175    0.002
 6275.00    1.51650   1.96145    0.002
 6276.00    1.55126   1.96115    0.002
 6277.00    1.58279   1.96129    0.002
 6278.00    1.50282   1.96099    0.003
 6279.00    1.42137   1.96068    0.003
 6280.00    1.31321   1.96082    0.000
 6281.00    1.21243   1.96096    0.000
 6282.00    1.23732   1.96065    0.000
 6283.00    1.26489   1.95989    0.000
 6284.00    1.32073   1.95958    0.000
 6285.00    1.35844   1.95972    0.000
 6286.00    1.26079   1.95986    0.000
 6287.00    1.16553   1.95999    0.000
 6288.00    1.08384   1.96013    0.000
 6289.00    1.03409   1.96027    0.000
 6290.00    1.12892   1.96041    0.000
 6291.00    1.21571   1.96008    0.000
 6292.00    1.27264   1.95977    0.000
 6293.00    1.28911   1.95945    0.000
 6294.00    1.17998   1.95867    0.000
 6295.00    1.10347   1.95835    0.000
 6296.00    1.11296   1.95848    0.000
 6297.00    1.13990   1.95815    0.000
 6298.00    1.20632   1.95737    0.000
 6299.00    1.26256   1.95705    0.000
 6300.00    1.29884   1.95672    0.000
 6301.00    1.29819   1.95593    0.000
 6302.00    1.23444   1.95515    0.000
 6303.00    1.24885   1.95436    0.000
 6304.00    1.38031   1.95311    0.000
 6305.00    1.45908   1.95186    0.000
 6306.00    1.46852   1.95061    0.000
 6307.00    1.40714   1.94936    0.000
 6308.00    1.26366   1.94856    0.000
 6309.00    1.22476   1.94776    0.000
 6310.00    1.29276   1.94743    0.000
 6311.00    1.37604   1.94801    0.000
 6312.00    1.47310   1.94905    0.000
 6313.00    1.48033   1.95009    0.000
 6314.00    1.41617   1.95112    0.000
 6315.00    1.37147   1.95263    0.000
 6316.00    1.34039   1.95412    0.000
 6317.00    1.26076   1.95516    0.000
 6318.00    1.15136   1.95479    0.000
 6319.00    1.13872   1.95447    0.000
 6320.00    1.17789   1.95551    0.000
 6321.00    1.24346   1.95560    0.002
 6322.00    1.32132   1.95574    0.002
 6323.00    1.36605   1.95630    0.002
 6324.00    1.39752   1.95642    0.002
 6325.00    1.42375   1.95653    0.002
 6326.00    1.44819   1.95617    0.002
 6327.00    1.42206   1.95583    0.002
 6328.00    1.38139   1.95594    0.002
 6329.00    1.41253   1.95653    0.002
 6330.00    1.46072   1.95662    0.002
 6331.00    1.50249   1.95580    0.002
 6332.00    1.54303   1.95546    0.002
 6333.00    1.48818   1.95509    0.002
 6334.00    1.41918   1.95474    0.002
 6335.00    1.32028   1.95533    0.002
 6336.00    1.21814   1.95589    0.002
 6337.00    1.42932   1.95551    0.002
 6338.00    1.66280   1.95469    0.002
 6339.00    1.80383   1.95434    0.002
 6340.00    1.94150   1.95444    0.002
 6341.00    1.77708   1.95455    0.002
 6342.00    1.61219   1.95417    0.002
 6343.00    1.47081   1.95286    0.002
 6344.00    1.34562   1.94916    0.002
 6345.00    1.47873   1.94510    0.002
 6346.00    1.59724   1.94480    0.002
 6347.00    1.56869   1.94870    0.002
 6348.00    1.52454   1.95296    0.002
 6349.00    1.36778   1.95442    0.002
 6350.00    1.23792   1.95451    0.002
 6351.00    1.25689   1.95413    0.002
 6352.00    1.26673   1.95328    0.002
 6353.00    1.23618   1.95293    0.002
 6354.00    1.20271   1.95302    0.002
 6355.00    1.15861   1.95312    0.002
 6356.00    1.14751   1.95272    0.002
 6357.00    1.23694   1.95236    0.002
 6358.00    1.32793   1.95245    0.002
 6359.00    1.42297   1.95304    0.002
 6360.00    1.47162   1.95309    0.002
 6361.00    1.41694   1.95273    0.002
 6362.00    1.37273   1.95282    0.002
 6363.00    1.34873   1.95242    0.002
 6364.00    1.33587   1.95156    0.002
 6365.00    1.34175   1.95119    0.002
 6366.00    1.33724   1.95128    0.002
 6367.00    1.31738   1.95137    0.002
 6368.00    1.35205   1.94948    0.002
 6369.00    1.45745   1.94627    0.002
 6370.00    1.54834   1.94499    0.002
 6371.00    1.62265   1.94705    0.002
 6372.00    1.61570   1.94994    0.002
 6373.00    1.52685   1.95093    0.002
 6374.00    1.43349   1.95101    0.002
 6375.00    1.33610   1.95109    0.002
 6376.00    1.25638   1.95067    0.002
 6377.00    1.19049   1.94881    0.002
 6378.00    1.17121   1.94603    0.002
 6379.00    1.18402   1.94425    0.002
 6380.00    1.24719   1.94437    0.002
 6381.00    1.34076   1.94690    0.002
 6382.00    1.37508   1.94928    0.002
 6383.00    1.37818   1.94931    0.002
 6384.00    1.32001   1.94894    0.002
 6385.00    1.23383   1.94851    0.002
 6386.00    1.16119   1.94813    0.002
 6387.00    1.09388   1.94820    0.002
 6388.00    1.15680   1.94827    0.002
 6389.00    1.26339   1.94835    0.002
 6390.00    1.43070   1.94842    0.002
 6391.00    1.61511   1.94798    0.002
 6392.00    1.55828   1.94710    0.002
 6393.00    1.44547   1.94671    0.002
 6394.00    1.30583   1.94627    0.002
 6395.00    1.16120   1.94589    0.002
 6396.00    1.21077   1.94545    0.002
 6397.00    1.28825   1.94455    0.002
 6398.00    1.23594   1.94264    0.002
 6399.00    1.17012   1.94083    0.002
 6400.00    1.13942   1.93942    0.002
 6401.00    1.11107   1.93705    0.002
 6402.00    1.19844   1.93523    0.002
 6403.00    1.28958   1.93382    0.002
 6404.00    1.37029   1.93194    0.002
 6405.00    1.44704   1.93160    0.002
 6406.00    1.40057   1.93262    0.002
 6407.00    1.35371   1.93415    0.002
 6408.00    1.30105   1.93614    0.002
 6409.00    1.26070   1.93864    0.002
 6410.00    1.33927   1.94057    0.002
 6411.00    1.40219   1.94159    0.002
 6412.00    1.35584   1.94262    0.002
 6413.00    1.31096   1.94364    0.002
 6414.00    1.27395   1.94415    0.002
 6415.00    1.23737   1.94421    0.002
 6416.00    1.20262   1.94478    0.002
 6417.00    1.14814   1.94528    0.002
 6418.00    1.02341   1.94534    0.002
 6419.00    0.93768   1.94487    0.002
 6420.00    0.96852   1.94447    0.002
 6421.00    1.01902   1.94452    0.002
 6422.00    1.11959   1.94509    0.002
 6423.00    1.17082   1.94560    0.002
 6424.00    1.11395   1.94565    0.002
 6425.00    1.11331   1.94570    0.002
 6426.00    1.21958   1.94575    0.002
 6427.00    1.32482   1.94580    0.002
 6428.00    1.42837   1.94532    0.002
 6429.00    1.47457   1.94491    0.002
 6430.00    1.43740   1.94496    0.002
 6431.00    1.37972   1.94501    0.003
 6432.00    1.29582   1.94505    0.003
 6433.00    1.22630   1.94510    0.002
 6434.00    1.17300   1.94514    0.002
 6435.00    1.16570   1.94466    0.002
 6436.00    1.20413   1.94372    0.002
 6437.00    1.17262   1.94384    0.002
 6438.00    1.07982   1.94380    0.002
 6439.00    1.02912   1.94392    0.002
 6440.00    1.01092   1.94388    0.002
 6441.00    1.03209   1.94347    0.002
 6442.00    1.07997   1.94351    0.002
 6443.00    1.04705   1.94355    0.002
 6444.00    0.96607   1.94359    0.002
 6445.00    0.97206   1.94362    0.002
 6446.00    1.02319   1.94313    0.002
 6447.00    1.08092   1.94271    0.002
 6448.00    1.14161   1.94221    0.002
 6449.00    1.12591   1.94233    0.002
 6450.00    1.08067   1.94281    0.002
 6451.00    1.06794   1.94285    0.002
 6452.00    1.06591   1.94234    0.002
 6453.00    1.15557   1.94139    0.002
 6454.00    1.27053   1.94043    0.002
 6455.00    1.36844   1.94054    0.002
 6456.00    1.46248   1.94102    0.002
 6457.00    1.52136   1.94105    0.002
 6458.00    1.57387   1.94108    0.002
 6459.00    1.56095   1.94111    0.002
 6460.00    1.53892   1.94114    0.002
 6461.00    1.47933   1.94116    0.002
 6462.00    1.41598   1.94119    0.002
 6463.00    1.30429   1.94122    0.002
 6464.00    1.18956   1.94070    0.002
 6465.00    1.18747   1.94027    0.002
 6466.00    1.18887   1.94029    0.002
 6467.00    1.26376   1.94032    0.002
 6468.00    1.34161   1.94034    0.002
 6469.00    1.50162   1.94036    0.002
 6470.00    1.65248   1.94038    0.002
 6471.00    1.67389   1.94041    0.002
 6472.00    1.68729   1.93988    0.002
 6473.00    1.62635   1.93890    0.002
 6474.00    1.57426   1.93846    0.002
 6475.00    1.58202   1.93848    0.002
 6476.00    1.57243   1.93850    0.002
 6477.00    1.47187   1.93851    0.002
 6478.00    1.37461   1.93853    0.002
 6479.00    1.29135   1.93854    0.002
 6480.00    1.23749   1.93856    0.002
 6481.00    1.28617   1.93857    0.002
 6482.00    1.29713   1.93804    0.002
 6483.00    1.19744   1.93760    0.002
 6484.00    1.13432   1.93761    0.002
 6485.00    1.16267   1.93762    0.002
 6486.00    1.23077   1.93763    0.002
 6487.00    1.38455   1.93764    0.002
 6488.00    1.44939   1.93765    0.002
 6489.00    1.34786   1.93766    0.002
 6490.00    1.24433   1.93767    0.002
 6491.00    1.13756   1.93712    0.002
 6492.00    1.07500   1.93612    0.002
 6493.00    1.07580   1.93511    0.002
 6494.00    1.08542   1.93466    0.002
 6495.00    1.10614   1.93467    0.002
 6496.00    1.15009   1.93467    0.002
 6497.00    1.21983   1.93468    0.002
 6498.00    1.27452   1.93468    0.002
 6499.00    1.31447   1.93468    0.002
 6500.00    1.33289   1.93468    0.002
 6501.00    1.33271   1.93412    0.002
 6502.00    1.27592   1.93367    0.002
 6503.00    1.17606   1.93367    0.002
 6504.00    1.19660   1.93310    0.002
 6505.00    1.29766   1.93265    0.002
 6506.00    1.39448   1.93264    0.002
 6507.00    1.48879   1.93264    0.002
 6508.00    1.52907   1.93264    0.002
 6509.00    1.54175   1.93320    0.002
 6510.00    1.55244   1.93308    0.002
 6511.00    1.56225   1.93205    0.002
 6512.00    1.52920   1.93103    0.002
 6513.00    1.47986   1.93000    0.002
 6514.00    1.41626   1.92897    0.002
 6515.00    1.34805   1.92793    0.002
 6516.00    1.31239   1.92690    0.002
 6517.00    1.28552   1.92586    0.002
 6518.00    1.34510   1.92483    0.002
 6519.00    1.42383   1.92322    0.002
 6520.00    1.42053   1.92115    0.002
 6521.00    1.40276   1.91851    0.002
 6522.00    1.37253   1.91426    0.002
 6523.00    1.34063   1.91026    0.002
 6524.00    1.38252   1.90658    0.002
 6525.00    1.43147   1.90416    0.002
 6526.00    1.41528   1.90425    0.002
 6527.00    1.39524   1.90583    0.002
 6528.00    1.34398   1.90901    0.000
 6529.00    1.29264   1.91137    0.000
 6530.00    1.34285   1.91295    0.000
 6531.00    1.39268   1.91383    0.000
 6532.00    1.43285   1.91438    0.000
 6533.00    1.47195   1.91481    0.000
 6534.00    1.49663   1.91420    0.000
 6535.00    1.52354   1.91314    0.000
 6536.00    1.57032   1.91265    0.000
 6537.00    1.59912   1.91146    0.000
 6538.00    1.50996   1.90936    0.000
 6539.00    1.43281   1.90725    0.000
 6540.00    1.41706   1.90515    0.000
 6541.00    1.42203   1.90245    0.000
 6542.00    1.51252   1.89872    0.000
 6543.00    1.60076   1.89453    0.000
 6544.00    1.68131   1.89033    0.000
 6545.00    1.71851   1.88554    0.000
 6546.00    1.63086   1.88029    0.000
 6547.00    1.55251   1.87387    0.000
 6548.00    1.49703   1.86536    0.000
 6549.00    1.45138   1.85593    0.000
 6550.00    1.42655   1.84471    0.000
 6551.00    1.38822   1.83038    0.000
 6552.00    1.32503   1.81171    0.000
 6553.00    1.32491   1.78780    0.000
 6554.00    1.42633   1.75746    0.000
 6555.00    1.65067   1.71686    0.000
 6556.00    2.04863   1.65948    0.000
 6557.00    2.56800   1.59048    0.000
 6558.00    3.23826   1.50903    0.000
 6559.00    3.67618   1.41809    0.000
 6560.00    3.85965   1.33398    0.000
 6561.00    3.70382   1.28464    0.000
 6562.00    3.22020   1.30698    0.000
 6563.00    2.71028   1.39429    0.000
 6564.00    2.17794   1.50793    0.000
 6565.00    1.80902   1.61084    0.000
 6566.00    1.56270   1.68344    0.000
 6567.00    1.43890   1.73196    0.000
 6568.00    1.39585   1.76685    0.000
 6569.00    1.30393   1.79366    0.000
 6570.00    1.18379   1.81534    0.000
 6571.00    1.09773   1.83225    0.000
 6572.00    1.02880   1.84510    0.000
 6573.00    1.01691   1.85600    0.000
 6574.00    1.02984   1.86407    0.000
 6575.00    1.05358   1.86912    0.000
 6576.00    1.08137   1.87326    0.000
 6577.00    1.28414   1.87923    0.000
 6578.00    1.54231   1.88655    0.000
 6579.00    1.66647   1.89207    0.000
 6580.00    1.75520   1.89382    0.000
 6581.00    1.78388   1.89557    0.000
 6582.00    1.79959   1.89868    0.000
 6583.00    1.71150   1.90301    0.000
 6584.00    1.60560   1.90704    0.000
 6585.00    1.44321   1.90955    0.000
 6586.00    1.27347   1.91161    0.000
 6587.00    1.14737   1.91307    0.000
 6588.00    1.02524   1.91407    0.000
 6589.00    1.16141   1.91507    0.000
 6590.00    1.31183   1.91547    0.000
 6591.00    1.38282   1.91602    0.000
 6592.00    1.45006   1.91702    0.000
 6593.00    1.32266   1.91803    0.000
 6594.00    1.19838   1.91903    0.000
 6595.00    1.14577   1.92004    0.000
 6596.00    1.09668   1.92043    0.000
 6597.00    1.09220   1.92037    0.000
 6598.00    1.10217   1.92093    0.000
 6599.00    1.23605   1.92193    0.000
 6600.00    1.35246   1.92171    0.000
 6601.00    1.35772   1.92181    0.000
 6602.00    1.33455   1.92282    0.000
 6603.00    1.16973   1.92321    0.000
 6604.00    1.03157   1.92314    0.000
 6605.00    1.00101   1.92308    0.000
 6606.00    0.99678   1.92364    0.000
 6607.00    1.08071   1.92340    0.000
 6608.00    1.16964   1.92351    0.000
 6609.00    1.27272   1.92389    0.002
 6610.00    1.34479   1.92383    0.002
 6611.00    1.34191   1.92376    0.002
 6612.00    1.33039   1.92432    0.002
 6613.00    1.30082   1.92533    0.002
 6614.00    1.28742   1.92509    0.002
 6615.00    1.30336   1.92519    0.002
 6616.00    1.28639   1.92495    0.002
 6617.00    1.21727   1.92505    0.002
 6618.00    1.21271   1.92481    0.002
 6619.00    1.29803   1.92491    0.002
 6620.00    1.37268   1.92529    0.002
 6621.00    1.43426   1.92522    0.002
 6622.00    1.39244   1.92515    0.002
 6623.00    1.23895   1.92508    0.002
 6624.00    1.17063   1.92500    0.002
 6625.00    1.18345   1.92493    0.002
 6626.00    1.16492   1.92486    0.002
 6627.00    1.12007   1.92415    0.002
 6628.00    1.09529   1.92425    0.002
 6629.00    1.08534   1.92463    0.002
 6630.00    1.18935   1.92455    0.002
 6631.00    1.36737   1.92447    0.002
 6632.00    1.34753   1.92439    0.002
 6633.00    1.21523   1.92495    0.002
 6634.00    1.18453   1.92533    0.002
 6635.00    1.20411   1.92588    0.002
 6636.00    1.24125   1.92562    0.002
 6637.00    1.28591   1.92508    0.002
 6638.00    1.23068   1.92500    0.002
 6639.00    1.13881   1.92492    0.002
 6640.00    1.12226   1.92484    0.002
 6641.00    1.12910   1.92540    0.002
 6642.00    1.20012   1.92576    0.002
 6643.00    1.28776   1.92568    0.002
 6644.00    1.34994   1.92495    0.002
 6645.00    1.40675   1.92442    0.002
 6646.00    1.45073   1.92433    0.002
 6647.00    1.49257   1.92424    0.002
 6648.00    1.35473   1.92416    0.002
 6649.00    1.19435   1.92471    0.002
 6650.00    1.10805   1.92508    0.002
 6651.00    1.02821   1.92499    0.002
 6652.00    1.10085   1.92490    0.002
 6653.00    1.18131   1.92416    0.002
 6654.00    1.30792   1.92362    0.002
 6655.00    1.43244   1.92418    0.002
 6656.00    1.35151   1.92453    0.002
 6657.00    1.26982   1.92444    0.002
 6658.00    1.17224   1.92435    0.002
 6659.00    1.07988   1.92426    0.002
 6660.00    1.05038   1.92351    0.002
 6661.00    1.02234   1.92296    0.002
 6662.00    1.00641   1.92352    0.002
 6663.00    0.99579   1.92322    0.002
 6664.00    1.01792   1.92202    0.002
 6665.00    1.02418   1.92147    0.002
 6666.00    0.95331   1.92137    0.002
 6667.00    0.89898   1.92127    0.002
 6668.00    0.90993   1.92117    0.002
 6669.00    0.95589   1.92041    0.002
 6670.00    1.11683   1.91986    0.002
 6671.00    1.21912   1.91910    0.002
 6672.00    1.15858   1.91656    0.002
 6673.00    1.12214   1.91247    0.002
 6674.00    1.14300   1.89734    0.002
 6675.00    1.13175   1.86307    0.002
 6676.00    1.05461   1.83324    0.002
 6677.00    1.00908   1.82850    0.002
 6678.00    1.02003   1.85028    0.002
 6679.00    1.01014   1.87781    0.002
 6680.00    0.96768   1.88892    0.002
 6681.00    0.93982   1.88970    0.002
 6682.00    0.93200   1.89090    0.002
 6683.00    0.98736   1.89501    0.002
 6684.00    1.11902   1.90047    0.002
 6685.00    1.16126   1.90527    0.003
 6686.00    1.10830   1.90963    0.003
 6687.00    1.13052   1.91265    0.003
 6688.00    1.22334   1.91544    0.002
 6689.00    1.23842   1.91735    0.002
 6690.00    1.18913   1.91835    0.002
 6691.00    1.14211   1.91936    0.002
 6692.00    1.09674   1.91969    0.002
 6693.00    1.06940   1.92025    0.002
 6694.00    1.05359   1.92126    0.002
 6695.00    1.10027   1.92159    0.002
 6696.00    1.18192   1.92147    0.000
 6697.00    1.13989   1.92136    0.000
 6698.00    1.03762   1.92056    0.000
 6699.00    1.00965   1.91932    0.000
 6700.00    1.01294   1.91943    0.000
 6701.00    1.02930   1.92043    0.000
 6702.00    1.05036   1.92144    0.000
 6703.00    1.07011   1.92177    0.000
 6704.00    1.08946   1.92165    0.000
 6705.00    1.06520   1.92153    0.000
 6706.00    1.02990   1.92209    0.000
 6707.00    1.15831   1.92173    0.000
 6708.00    1.32043   1.92116    0.000
 6709.00    1.39125   1.92104    0.000
 6710.00    1.44728   1.92091    0.000
 6711.00    1.54537   1.92147    0.000
 6712.00    1.64855   1.92179    0.000
 6713.00    1.78187   1.92167    0.000
 6714.00    1.91769   1.92154    0.000
 6715.00    1.76919   1.92141    0.000
 6716.00    1.60721   1.92060    0.000
 6717.00    1.53880   1.92071    0.000
 6718.00    1.47114   1.92034    0.000
 6719.00    1.37109   1.92045    0.000
 6720.00    1.27119   1.92077    0.000
 6721.00    1.17423   1.92064    0.000
 6722.00    1.09285   1.92050    0.000
 6723.00    1.19015   1.92037    0.000
 6724.00    1.27856   1.92093    0.000
 6725.00    1.29616   1.92055    0.000
 6726.00    1.30974   1.92066    0.000
 6727.00    1.29915   1.92098    0.000
 6728.00    1.31099   1.92084    0.000
 6729.00    1.42910   1.92071    0.000
 6730.00    1.53506   1.92057    0.000
 6731.00    1.59408   1.92043    0.000
 6732.00    1.60454   1.92029    0.000
 6733.00    1.45860   1.92085    0.000
 6734.00    1.36540   1.92046    0.000
 6735.00    1.41599   1.91988    0.000
 6736.00    1.42351   1.91974    0.000
 6737.00    1.33035   1.92030    0.000
 6738.00    1.22191   1.92060    0.000
 6739.00    1.08257   1.92046    0.000
 6740.00    1.03154   1.92032    0.000
 6741.00    1.13584   1.91947    0.000
 6742.00    1.21790   1.91888    0.000
 6743.00    1.26575   1.91944    0.000
 6744.00    1.26418   1.91974    0.000
 6745.00    1.19581   1.92030    0.000
 6746.00    1.15567   1.92060    0.000
 6747.00    1.14912   1.92046    0.000
 6748.00    1.13528   1.92102    0.000
 6749.00    1.11380   1.92132    0.000
 6750.00    1.16961   1.92046    0.000
 6751.00    1.29699   1.91986    0.000
 6752.00    1.39497   1.92042    0.000
 6753.00    1.46896   1.92001    0.003
 6754.00    1.42044   1.91941    0.003
 6755.00    1.28389   1.91926    0.003
 6756.00    0.94931   1.91982    0.003
 6757.00    0.48985   1.92012    0.003
 6758.00    0.48495   1.91996    0.003
 6759.00    0.73058   1.91981    0.003
 6760.00    0.83592   1.91966    0.003
 6761.00    0.87403   1.92022    0.003
 6762.00    0.81575   1.91979    0.003
 6763.00    0.71760   1.91919    0.003
 6764.00    0.97535   1.91903    0.003
 6765.00    1.35896   1.91959    0.003
 6766.00    1.55840   1.91988    0.003
 6767.00    1.70287   1.91900    0.003
 6768.00    1.56314   1.91912    0.003
 6769.00    1.35302   1.91940    0.003
 6770.00    1.02218   1.91852    0.003
 6771.00    0.66711   1.91863    0.003
 6772.00    1.08229   1.91892    0.003
 6773.00    1.61850   1.91876    0.003
 6774.00    1.54408   1.91859    0.003
 6775.00    1.39843   1.91843    0.003
 6776.00    1.38087   1.91899    0.003
 6777.00    1.37341   1.91854    0.003
 6778.00    1.29716   1.91793    0.003
 6779.00    1.21791   1.91777    0.003
 6780.00    0.80426   1.91760    0.003
 6781.00    0.39957   1.91743    0.003
 6782.00    0.57600   1.91726    0.003
 6783.00    0.74297   1.91709    0.003
 6784.00    0.73854   1.91765    0.003
 6785.00    0.76175   1.91793    0.003
 6786.00    1.08729   1.91849    0.003
 6787.00    1.37268   1.91877    0.003
 6788.00    1.34924   1.91786    0.003
 6789.00    1.30405   1.91724    0.003
 6790.00    1.13204   1.91707    0.003
 6791.00    0.97681   1.91689    0.003
 6792.00    0.89914   1.91745    0.003
 6793.00    0.90883   1.91772    0.003
 6794.00    1.24880   1.91755    0.003
 6795.00    1.54896   1.91737    0.003
 6796.00    1.72344   1.91793    0.003
 6797.00    1.74714   1.91746    0.003
 6798.00    1.36706   1.91684    0.003
 6799.00    1.07343   1.91740    0.003
 6800.00    0.97846   1.91767    0.003
 6801.00    0.93313   1.91749    0.003
 6802.00    0.98653   1.91805    0.003
 6803.00    1.08399   1.91831    0.003
 6804.00    1.25776   1.91813    0.003
 6805.00    1.32550   1.91795    0.003
 6806.00    1.23241   1.91851    0.003
 6807.00    1.25986   1.91803    0.003
 6808.00    1.44798   1.91740    0.003
 6809.00    1.43596   1.91721    0.003
 6810.00    1.18906   1.91703    0.003
 6811.00    1.08836   1.91684    0.003
 6812.00    1.13900   1.91665    0.003
 6813.00    1.10695   1.91722    0.003
 6814.00    0.99941   1.91672    0.003
 6815.00    0.89370   1.91684    0.003
 6816.00    0.78946   1.91710    0.003
 6817.00    0.80917   1.91691    0.003
 6818.00    0.91664   1.91672    0.003
 6819.00    1.00926   1.91728    0.003
 6820.00    1.09265   1.91753    0.003
 6821.00    1.17779   1.91734    0.003
 6822.00    1.26389   1.91715    0.003
 6823.00    1.25490   1.91695    0.003
 6824.00    1.20106   1.91676    0.003
 6825.00    1.30305   1.91656    0.003
 6826.00    1.46841   1.91637    0.003
 6827.00    1.53403   1.91617    0.003
 6828.00    1.56502   1.91597    0.003
 6829.00    1.46700   1.91654    0.003
 6830.00    1.33124   1.91678    0.003
 6831.00    1.16125   1.91659    0.003
 6832.00    0.98296   1.91639    0.003
 6833.00    1.11171   1.91619    0.003
 6834.00    1.30053   1.91675    0.003
 6835.00    1.40743   1.91699    0.003
 6836.00    1.50184   1.91679    0.003
 6837.00    1.42423   1.91659    0.003
 6838.00    1.32732   1.91639    0.003
 6839.00    0.96490   1.91618    0.003
 6840.00    0.58264   1.91598    0.003
 6841.00    0.55662   1.91577    0.003
 6842.00    0.54475   1.91634    0.003
 6843.00    0.82101   1.91580    0.003
 6844.00    1.10101   1.91515    0.003
 6845.00    1.45134   1.91494    0.003
 6846.00    1.76246   1.91551    0.003
 6847.00    1.41125   1.91574    0.003
 6848.00    1.08824   1.91631    0.003
 6849.00    1.06015   1.91654    0.003
 6850.00    1.05369   1.91633    0.003
 6851.00    1.20798   1.91534    0.003
 6852.00    1.34296   1.91469    0.003
 6853.00    1.36845   1.91525    0.003
 6854.00    1.38403   1.91548    0.003
 6855.00    1.35481   1.91527    0.003
 6856.00    1.33449   1.91505    0.003
 6857.00    1.34710   1.91484    0.003
 6858.00    1.39459   1.91540    0.003
 6859.00    1.55014   1.91563    0.003
 6860.00    1.56714   1.91620    0.003
 6861.00    1.21960   1.91564    0.003
 6862.00    0.94423   1.91498    0.003
 6863.00    0.83194   1.91476    0.003
 6864.00    0.78531   1.91532    0.003
 6865.00    0.86718   1.91555    0.003
 6866.00    0.99904   1.91454    0.003
 6867.00    1.21620   1.91466    0.003
 6868.00    1.35567   1.91488    0.003
 6869.00    1.37900   1.91545    0.003
 6870.00    1.26935   1.91487    0.003
 6871.00    0.98500   1.91421    0.003
 6872.00    0.84222   1.91398    0.003
 6873.00    0.86325   1.91455    0.003
 6874.00    0.94126   1.91477    0.003
 6875.00    1.07741   1.91374    0.003
 6876.00    1.09345   1.91387    0.003
 6877.00    1.00137   1.91329    0.003
 6878.00    0.91282   1.91182    0.003
 6879.00    0.82705   1.91115    0.003
 6880.00    0.80944   1.91012    0.003
 6881.00    0.83938   1.90865    0.003
 6882.00    0.88395   1.90717    0.003
 6883.00    0.93747   1.90490    0.003
 6884.00    1.14102   1.90138    0.003
 6885.00    1.42475   1.89581    0.003
 6886.00    1.28882   1.88936    0.003
 6887.00    0.95820   1.88129    0.003
 6888.00    0.93245   1.87474    0.003
 6889.00    1.02853   1.87272    0.003
 6890.00    1.13594   1.87568    0.003
 6891.00    1.24721   1.88121    0.003
 6892.00    1.21210   1.88879    0.003
 6893.00    1.13504   1.89566    0.003
 6894.00    1.05762   1.90003    0.003
 6895.00    0.98011   1.90434    0.003
 6896.00    0.98364   1.90666    0.003
 6897.00    1.00262   1.90848    0.003
 6898.00    1.07034   1.90992    0.003
 6899.00    1.14526   1.91093    0.003
 6900.00    1.15409   1.91194    0.003
 6901.00    1.15578   1.91213    0.003
 6902.00    1.05550   1.91270    0.003
 6903.00    0.94802   1.91290    0.003
 6904.00    0.87597   1.91346    0.003
 6905.00    0.80520   1.91284    0.003
 6906.00    0.94249   1.91215    0.003
 6907.00    1.07564   1.91272    0.003
 6908.00    1.04163   1.91291    0.003
 6909.00    0.98884   1.91348    0.003
 6910.00    0.63870   1.91367    0.003
 6911.00    0.37209   1.91342    0.003
 6912.00    0.94204   1.91317    0.003
 6913.00    1.42060   1.91292    0.003
 6914.00    1.24237   1.91349    0.003
 6915.00    1.10134   1.91285    0.003
 6916.00    1.16548   1.91298    0.003
 6917.00    1.28230   1.91317    0.003
 6918.00    1.63142   1.91291    0.003
 6919.00    1.83965   1.91348    0.003
 6920.00    1.53711   1.91367    0.003
 6921.00    1.31767   1.91424    0.003
 6922.00    1.35073   1.91442    0.003
 6923.00    1.37333   1.91333    0.003
 6924.00    1.36890   1.91347    0.003
 6925.00    1.32599   1.91365    0.003
 6926.00    1.19755   1.91255    0.003
 6927.00    1.06746   1.91269    0.003
 6928.00    0.93423   1.91286    0.003
 6929.00    0.90415   1.91343    0.003
 6930.00    1.04748   1.91361    0.003
 6931.00    1.09223   1.91335    0.003
 6932.00    0.99178   1.91392    0.003
 6933.00    0.92530   1.91326    0.003
 6934.00    0.90279   1.91339    0.003
 6935.00    0.87098   1.91356    0.003
 6936.00    0.82857   1.91413    0.003
 6937.00    0.72427   1.91430    0.003
 6938.00    0.55771   1.91404    0.003
 6939.00    0.63929   1.91461    0.003
 6940.00    0.94106   1.91478    0.003
 6941.00    1.03157   1.91367    0.003
 6942.00    0.95689   1.91296    0.003
 6943.00    1.02389   1.91269    0.003
 6944.00    1.18831   1.91326    0.003
 6945.00    1.20231   1.91427    0.003
 6946.00    1.12565   1.91444    0.003
 6947.00    1.12551   1.91416    0.003
 6948.00    1.16562   1.91389    0.003
 6949.00    1.08350   1.91361    0.003
 6950.00    0.94559   1.91334    0.003
 6951.00    0.89752   1.91391    0.003
 6952.00    0.88474   1.91322    0.003
 6953.00    0.89798   1.91336    0.003
 6954.00    0.91991   1.91352    0.003
 6955.00    0.86055   1.91324    0.003
 6956.00    0.77835   1.91381    0.003
 6957.00    0.88279   1.91397    0.003
 6958.00    1.03042   1.91454    0.003
 6959.00    0.94478   1.91384    0.003
 6960.00    0.81584   1.91313    0.003
 6961.00    0.98634   1.91370    0.003
 6962.00    1.19970   1.91385    0.003
 6963.00    1.11523   1.91357    0.003
 6964.00    0.99991   1.91414    0.003
 6965.00    0.93487   1.91430    0.003
 6966.00    0.87318   1.91401    0.003
 6967.00    0.93537   1.91458    0.003
 6968.00    1.00151   1.91387    0.003
 6969.00    0.95409   1.91315    0.003
 6970.00    0.90622   1.91286    0.003
 6971.00    0.84490   1.91343    0.003
 6972.00    0.79482   1.91358    0.003
 6973.00    0.91209   1.91329    0.003
 6974.00    1.00282   1.91300    0.003
 6975.00    0.83864   1.91271    0.003
 6976.00    0.70963   1.91328    0.003
 6977.00    0.82530   1.91255    0.003
 6978.00    0.91202   1.91270    0.003
 6979.00    0.84333   1.91283    0.003
 6980.00    0.83853   1.91341    0.003
 6981.00    1.10894   1.91355    0.003
 6982.00    1.25455   1.91412    0.003
 6983.00    0.95702   1.91426    0.003
 6984.00    0.66435   1.91396    0.003
 6985.00    0.38614   1.91367    0.003
 6986.00    0.29021   1.91249    0.003
 6987.00    0.65724   1.91176    0.003
 6988.00    0.88007   1.91233    0.003
 6989.00    0.78762   1.91247    0.003
 6990.00    0.77651   1.91304    0.003
 6991.00    0.91972   1.91317    0.003
 6992.00    0.99680   1.91375    0.003
 6993.00    0.96440   1.91388    0.003
 6994.00    1.05777   1.91446    0.003
 6995.00    1.33368   1.91370    0.003
 6996.00    1.47627   1.91385    0.003
 6997.00    1.44869   1.91398    0.003
 6998.00    1.28971   1.91367    0.003
 6999.00    0.98294   1.91425    0.003
 7000.00    0.87395   1.91437    0.003
 7001.00    0.96115   1.91406    0.003
 7002.00    1.14606   1.91375    0.003
 7003.00    1.41646   1.91433    0.003
 7004.00    1.24812   1.91356    0.003
 7005.00    0.74162   1.91371    0.003
 7006.00    0.58023   1.91383    0.003
 7007.00    0.65271   1.91352    0.003
 7008.00    0.87801   1.91410    0.003
 7009.00    1.19406   1.91421    0.003
 7010.00    1.19386   1.91390    0.003
 7011.00    1.02988   1.91448    0.003
 7012.00    0.97149   1.91370    0.003
 7013.00    0.96050   1.91385    0.003
 7014.00    0.88491   1.91396    0.003
 7015.00    0.78438   1.91454    0.003
 7016.00    0.87389   1.91465    0.003
 7017.00    1.02578   1.91433    0.003
 7018.00    1.03780   1.91491    0.003
 7019.00    1.01135   1.91502    0.003
 7020.00    1.15655   1.91561    0.003
 7021.00    1.34055   1.91572    0.003
 7022.00    1.10090   1.91449    0.003
 7023.00    0.78471   1.91464    0.003
 7024.00    0.99668   1.91475    0.003
 7025.00    1.28180   1.91442    0.003
 7026.00    0.87232   1.91500    0.003
 7027.00    0.39388   1.91511    0.003
 7028.00    0.78682   1.91569    0.003
 7029.00    1.23435   1.91579    0.003
 7030.00    1.13607   1.91546    0.003
 7031.00    1.02298   1.91422    0.003
 7032.00    1.08964   1.91347    0.003
 7033.00    1.15658   1.91405    0.003
 7034.00    1.23147   1.91415    0.003
 7035.00    1.29175   1.91473    0.003
 7036.00    1.14697   1.91483    0.003
 7037.00    1.03913   1.91541    0.003
 7038.00    1.27176   1.91642    0.003
 7039.00    1.46192   1.91560    0.003
 7040.00    1.36579   1.91575    0.003
 7041.00    1.25133   1.91585    0.003
 7042.00    1.04108   1.91551    0.003
 7043.00    0.90975   1.91610    0.003
 7044.00    1.11070   1.91619    0.003
 7045.00    1.26684   1.91677    0.003
 7046.00    1.26711   1.91686    0.003
 7047.00    1.19655   1.91652    0.003
 7048.00    0.91872   1.91711    0.003
 7049.00    0.71067   1.91627    0.003
 7050.00    0.67684   1.91643   -2.000
 7051.00    0.66961   1.91651   -2.000
 7052.00    0.71960   1.91617   -2.000
 7053.00    0.84905   1.91583   -2.000
 7054.00    1.12689   1.91641   -2.000
 7055.00    1.28040   1.91650   -2.000
 7056.00    1.23114   1.91708   -2.000
 7057.00    1.32138   1.91623   -2.000
 7058.00    1.61115   1.91639   -2.000
 7059.00    1.59928   1.91554   -2.000
 7060.00    1.20786   1.91570   -2.000
 7061.00    1.02445   1.91577   -2.000
 7062.00    1.07173   1.91636   -2.000
 7063.00    1.07147   1.91550   -2.000
 7064.00    1.02474   1.91566   -2.000
 7065.00    0.95531   1.91667   -2.000
 7066.00    0.86632   1.91581   -2.000
 7067.00    0.81637   1.91597   -2.000
 7068.00    0.79608   1.91604   -2.000
 7069.00    0.86693   1.91663   -2.000
 7070.00    0.99863   1.91670   -2.000
 7071.00    1.09818   1.91729   -2.000
 7072.00    1.17893   1.91736   -2.000
 7073.00    1.23790   1.91700   -2.000
 7074.00    1.28577   1.91759   -2.000
 7075.00    1.33188   1.91766   -2.000
 7076.00    1.37722   1.91635   -2.000
 7077.00    1.45873   1.91556   -2.000
 7078.00    1.55396   1.91615   -2.000
 7079.00    1.52814   1.91621   -2.000
 7080.00    1.46336   1.91585   -2.000
 7081.00    1.31205   1.91549   -2.000
 7082.00    1.13743   1.91608   -2.000
 7083.00    1.18908   1.91518   -2.000
 7084.00    1.29068   1.91344   -2.000
 7085.00    1.26049   1.91265   -2.000
 7086.00    1.20714   1.91323   -2.000
 7087.00    1.11264   1.91329   -2.000
 7088.00    1.01262   1.91292   -2.000
 7089.00    0.57007   1.91255   -2.000
 7090.00    0.09497   1.91314   -2.000
 7091.00    0.10582   1.91319   -2.000
 7092.00    0.14517   1.91282   -2.000
 7093.00    0.52839   1.91148   -2.000
 7094.00    0.91671   1.91165   -2.000
 7095.00    0.84733   1.91169   -2.000
 7096.00    0.80234   1.91228   -2.000
 7097.00    1.36362   1.91522   -2.000
 7098.00    1.83690   1.91709   -2.000
 7099.00    1.14158   1.91810   -2.000
 7100.00    0.54106   1.91815   -2.000
 7101.00    0.78080   1.91777   -2.000
 7102.00    0.98018   1.91836   -2.000
 7103.00    0.91595   1.91744   -2.000
 7104.00    0.86980   1.91761   -2.000
 7105.00    0.91574   1.91765   -2.000
 7106.00    0.42081   1.91727   -2.000
 7107.00   -2.30031   1.91786   -2.000
 7108.00   -3.76965   1.91790   -2.000
 7109.00   -0.97208   1.91752   -2.000
 7110.00    1.14893   1.91811   -2.000
 7111.00    1.32607   1.91717   -2.000
 7112.00    1.38126   1.91735   -2.000
 7113.00    1.13723   1.91738   -2.000
 7114.00    1.00161   1.91798   -2.000
 7115.00    1.09541   1.91801   -2.000
 7116.00    1.02011   1.91860   -2.000
 7117.00    0.63387   1.91864   -2.000
 7118.00    0.36272   1.91825   -2.000
 7119.00    0.27648   1.91884   -2.000
 7120.00    0.46085   1.91789   -2.000
 7121.00    1.02670   1.91806   -2.000
 7122.00    1.46837   1.91809   -2.000
 7123.00    1.75599   1.91770   -2.000
 7124.00    1.96518   1.91829   -2.000
 7125.00    2.08862   1.91832   -2.000
 7126.00    1.66680   1.91892   -2.000
 7127.00    0.71916   1.91894   -2.000
 7128.00    0.46000   1.91854   -2.000
 7129.00    0.78631   1.91914   -2.000
 7130.00    0.78618   1.91916   -2.000
 7131.00    0.54157   1.91877   -2.000
 7132.00    0.30695   1.91936   -2.000
 7133.00    0.07891   1.91938   -2.000
 7134.00    0.04367   1.91898   -2.000
 7135.00    0.11949   1.91858   -2.000
 7136.00    0.44205   1.91918   -2.000
 7137.00    0.88842   1.91919   -2.000
 7138.00    0.91036   1.91979   -2.000
 7139.00    0.74801   1.91881   -2.000
 7140.00    0.69372   1.91898   -2.000
 7141.00    0.67969   1.91900   -2.000
 7142.00    0.72538   1.91960   -2.000
 7143.00    0.78995   1.91961   -2.000
 7144.00    0.47877   1.91920   -2.000
 7145.00    0.06850   1.91879   -2.000
 7146.00    0.51850   1.91939   -2.000
 7147.00    1.15393   1.92041   -2.000
 7148.00    1.12806   1.92041   -2.000
 7149.00    0.98917   1.92000   -2.000
 7150.00    0.88001   1.91959   -2.000
 7151.00    0.77471   1.92019   -2.000
 7152.00    0.80964   1.92020   -2.000
 7153.00    0.85731   1.91978   -2.000
 7154.00    0.69372   1.91937   -2.000
 7155.00    0.51858   1.91997   -2.000
 7156.00    0.62183   1.91997   -2.000
 7157.00    0.74087   1.91955   -2.000
 7158.00    1.76768   1.92015   -2.000
 7159.00    2.72568   1.92015   -2.000
 7160.00    2.12167   1.92075   -2.000
 7161.00    1.50309   1.92075   -2.000
 7162.00    0.70100   1.92033   -2.000
 7163.00   -0.03482   1.91990   -2.000
 7164.00   -0.20527   1.92051   -2.000
 7165.00   -0.20900   1.92152   -2.000
 7166.00    0.84399   1.92049   -2.000
 7167.00    1.65197   1.92068   -2.000
 7168.00    1.24342   1.92067   -2.000
 7169.00    0.87569   1.92127   -2.000
 7170.00    0.67224   1.92229   -2.000
 7171.00    0.56177   1.92228   -2.000
 7172.00    0.76195   1.92185   -2.000
 7173.00    0.80283   1.92142   -2.000
 7174.00    0.39434   1.92202   -2.000
 7175.00    0.20147   1.92201   -2.000
 7176.00    0.52869   1.92158   -2.000
 7177.00    0.70650   1.92115   -2.000
 7178.00    0.57321   1.92072   -2.000
 7179.00    0.65791   1.92132   -2.000
 7180.00    1.13728   1.92130   -2.000
 7181.00    1.42892   1.92190   -2.000
 7182.00    1.42341   1.92188   -2.000
 7183.00    1.28883   1.92145   -2.000
 7184.00    0.97491   1.92101   -2.000
 7185.00    0.79621   1.92161   -2.000
 7186.00    0.78287   1.92159   -2.000
 7187.00    0.82855   1.92219   -2.000
 7188.00    0.93785   1.92217   -2.000
 7189.00    0.79575   1.92173   -2.000
 7190.00    0.41458   1.92233   -2.000
 7191.00    0.36075   1.92230   -2.000
 7192.00    0.58132   1.92291   -2.000
 7193.00    0.63167   1.92288   -2.000
 7194.00    0.55636   1.92243   -2.000
 7195.00    0.59917   1.92199   -2.000
 7196.00    0.71853   1.92154   -2.000
 7197.00    0.97759   1.92215   -2.000
 7198.00    1.31590   1.92317   -2.000
 7199.00    1.20981   1.92313   -2.000
 7200.00    0.88424   1.92374   -2.000
 7201.00    0.52080   1.92265   -2.000
 7202.00    0.14119   1.92284   -2.000
 7203.00   -0.07150   1.92280   -2.000
 7204.00   -0.22312   1.92341   -2.000
 7205.00    0.17341   1.92337   -2.000
 7206.00    0.73975   1.92292   -2.000
 7207.00    0.74521   1.92352   -2.000
 7208.00    0.60590   1.92348   -2.000
 7209.00    0.62450   1.92409   -2.000
 7210.00    0.67631   1.92404   -2.000
 7211.00    0.97825   1.92465   -2.000
 7212.00    1.32173   1.92354   -2.000
 7213.00    1.05731   1.92374   -2.000
 7214.00    0.71694   1.92476   -2.000
 7215.00    0.45585   1.92471   -2.000
 7216.00    0.20162   1.92532   -2.000
 7217.00    0.26418   1.92527   -2.000
 7218.00    0.34284   1.92588   -2.000
