###################################################################
## OUTPUT of StarlightChains_v04.for    [Cid@UFSC - 01/Apr/2007] ##
###################################################################

## Some input info
KUG0210-078._59_49.txt                   [arq_obs]
Base.CB07.vall.4m                        [arq_base]
Masks.EmLines.NEW.gm                     [arq_masks]
StCv04.C11.config                        [arq_config]
   66                                    [N_base]
    0                                    [N_YAV_components = # of components with extra extinction!]
    0                                    [i_FitPowerLaw (1/0 = Yes/No)]
-9.99                                    [alpha_PowerLaw]
CCM                                      [red_law_option]
 1.458241                                [q_norm = A(l_norm)/A(V)]

## (Re)Sampling Parameters
 3741.00                                 [l_ini (A)]
 7218.00                                 [l_fin (A)]
    1.00                                 [dl    (A)]     (OBS: dl_cushion =    50.00 A)

## Normalization info
 4020.00                                 [l_norm (A) - for base]
 4010.00                                 [llow_norm (A) - window for f_obs]
 4060.00                                 [lupp_norm (A) - window for f_obs]
3.860481E-20                             [fobs_norm (in input units)]

## S/N
 3691.00                                 [llow_SN (A) - window for S/N]
 7268.00                                 [lupp_SN (A) - window for S/N]
   2.010                                 [S/N in S/N window]
   0.016                                 [S/N in norm. window]
   0.007                                 [S/N_err in S/N window]
   0.000                                 [S/N_err in norm. window]
  1.0000                                 [fscale_chi2]

## etc...
    -2008030                             [idum_orig]
  2311                                   [NOl_eff]
  2207                                   [Nl_eff]
   104    NSIGMA                         [Ntot_cliped & clip_method]
   393050                                [Nglobal_steps]
   7                                     [N_chains]
   7                                     [NEX0s_base = N_base in EX0s-fits]
 0   1   1      105   2.0   1.756E+01    [Clip-Bug, RC-Crash & Burn-In warning-flags, n_censored_weights, wei_nsig_threshold & wei_limit]
    31     30.334     29.583      0.751  [idt_all, wdt_TotTime, wdt_UsrTime & wdt_SysTime (sec)]

## Synthesis Results - Best model ##

 7.67289E-05                             [chi2/Nl_eff]
    85.22266                             [adev (%)]

   123.75207                             [sum-of-x (%)]
 1.01440E-17                             [Flux_tot (units of input spectrum!)]
 1.88168E-12                             [Mini_tot (???)]
 9.31776E-13                             [Mcor_tot (???)]

 223.87                                  [v0_min  (km/s)]
 105.15                                  [vd_min  (km/s)]
 3.9894                                  [AV_min  (mag)]
 0.0000                                  [YAV_min (mag)]

# j     x_j(%)      Mini_j(%)     Mcor_j(%)     age_j(yr)     Z_j      (L/M)_j    YAV?  Mstars   component_j        a/Fe...       SSP_chi2r SSP_adev(%)   SSP_AV   SSP_x(%)
  1      0.0000     0.0000E+00    0.0000E+00    1.000000E+06  0.00400  1.094E-02    0   1.0000   age020_m42            0.0000     8.0487E-05    98.0031   4.0000    98.2798
  2      0.0000     0.0000E+00    0.0000E+00    3.160000E+06  0.00400  4.007E-02    0   0.9999   age045_m42            0.0000     8.0267E-05    97.4934   4.0000    98.6927
  3      0.0000     0.0000E+00    0.0000E+00    5.010000E+06  0.00400  2.539E-02    0   0.9488   age055_m42            0.0000     8.0373E-05    97.7298   4.0000    98.8758
  4      0.0000     0.0000E+00    0.0000E+00    6.610000E+06  0.00400  2.620E-02    0   0.9220   age061_m42            0.0000     8.0236E-05    97.4211   4.0000    98.7541
  5      0.0000     0.0000E+00    0.0000E+00    1.000000E+07  0.00400  1.322E-02    0   0.8862   age070_m42            0.0000     8.0132E-05    97.1259   4.0000    98.9377
  6      0.5966     3.2966E-04    5.7060E-04    1.445000E+07  0.00400  7.883E-03    0   0.8571   age078_m42            0.0000     8.0258E-05    97.4341   4.0000    98.7257
  7      0.0000     0.0000E+00    0.0000E+00    2.512000E+07  0.00400  5.251E-03    0   0.8174   age090_m42            0.0000     8.0073E-05    96.9769   4.0000    98.8424
  8      0.0000     0.0000E+00    0.0000E+00    4.000000E+07  0.00400  3.649E-03    0   0.7851   age104_m42            0.0000     7.9953E-05    96.6920   4.0000    98.9247
  9      0.0000     0.0000E+00    0.0000E+00    5.500000E+07  0.00400  3.098E-03    0   0.7629   age110_m42            0.0000     8.0040E-05    96.9229   4.0000    98.8432
 10      0.0000     0.0000E+00    0.0000E+00    1.015200E+08  0.00400  2.228E-03    0   0.7207   age116_m42            0.0000     8.0053E-05    96.9652   4.0000    98.8393
 11      0.0000     0.0000E+00    0.0000E+00    2.861200E+08  0.00400  1.093E-03    0   0.6648   age125_m42            0.0000     7.9739E-05    96.1561   4.0000    99.3143
 12      0.0000     0.0000E+00    0.0000E+00    5.088000E+08  0.00400  6.597E-04    0   0.6365   age130_m42            0.0000     7.9736E-05    96.1765   4.0000    99.7235
 13      0.0000     0.0000E+00    0.0000E+00    1.434000E+09  0.00400  2.132E-04    0   0.5798   age139_m42            0.0000     7.8862E-05    93.9200   4.0000   102.3807
 14      0.0000     0.0000E+00    0.0000E+00    4.250000E+09  0.00400  5.895E-05    0   0.5377   age158_m42            0.0000     7.8131E-05    92.1357   4.0000   104.2546
 15      0.0000     0.0000E+00    0.0000E+00    7.500000E+09  0.00400  3.510E-05    0   0.5212   age171_m42            0.0000     7.7804E-05    91.2882   4.0000   105.0796
 16      0.0000     0.0000E+00    0.0000E+00    1.300000E+10  0.00400  2.005E-05    0   0.5034   age193_m42            0.0000     7.7509E-05    90.4971   4.0000   105.4837
 17      9.0919     2.5971E+00    2.6051E+00    1.800000E+10  0.00400  1.525E-05    0   0.4967   age213_m42            0.0000     7.7477E-05    90.3936   4.0000   104.8881
 18      0.0000     0.0000E+00    0.0000E+00    1.000000E+06  0.00800  1.238E-02    0   1.0000   age020_m52            0.0000     8.0488E-05    98.0029   4.0000    98.3275
 19      0.0000     0.0000E+00    0.0000E+00    3.160000E+06  0.00800  3.074E-02    0   0.9966   age045_m52            0.0000     8.0462E-05    97.9468   4.0000    98.9988
 20      0.0000     0.0000E+00    0.0000E+00    5.010000E+06  0.00800  2.668E-02    0   0.9443   age055_m52            0.0000     8.0391E-05    97.7753   4.0000    99.2396
 21      6.9054     1.4083E-03    2.6099E-03    6.610000E+06  0.00800  2.136E-02    0   0.9177   age061_m52            0.0000     7.9816E-05    96.4056   4.0000   101.0557
 22      0.0000     0.0000E+00    0.0000E+00    1.000000E+07  0.00800  1.215E-02    0   0.8827   age070_m52            0.0000     8.0213E-05    97.3014   4.0000    99.5980
 23      0.0000     0.0000E+00    0.0000E+00    1.445000E+07  0.00800  8.717E-03    0   0.8552   age078_m52            0.0000     8.0251E-05    97.4108   4.0000    99.5755
 24      0.0000     0.0000E+00    0.0000E+00    2.512000E+07  0.00800  5.592E-03    0   0.8162   age090_m52            0.0000     8.0110E-05    97.0576   4.0000    99.9604
 25      0.0000     0.0000E+00    0.0000E+00    4.000000E+07  0.00800  3.896E-03    0   0.7841   age104_m52            0.0000     8.0072E-05    96.9734   4.0000    99.9434
 26      0.0000     0.0000E+00    0.0000E+00    1.015200E+08  0.00800  2.148E-03    0   0.7226   age116_m52            0.0000     8.0024E-05    96.8977   4.0000   100.2115
 27      0.0000     0.0000E+00    0.0000E+00    2.861200E+08  0.00800  9.925E-04    0   0.6683   age125_m52            0.0000     7.9771E-05    96.2712   4.0000   101.2185
 28      0.0000     0.0000E+00    0.0000E+00    9.047900E+08  0.00800  3.141E-04    0   0.6138   age135_m52            0.0000     7.9104E-05    94.6031   4.0000   105.3097
 29      0.0000     0.0000E+00    0.0000E+00    1.434000E+09  0.00800  1.719E-04    0   0.5853   age139_m52            0.0000     7.8334E-05    92.6032   4.0000   107.2267
 30      0.0000     0.0000E+00    0.0000E+00    2.500000E+09  0.00800  7.872E-05    0   0.5600   age150_m52            0.0000     7.7834E-05    91.3931   4.0000   107.9272
 31      0.0000     0.0000E+00    0.0000E+00    4.250000E+09  0.00800  4.336E-05    0   0.5426   age158_m52            0.0000     7.7780E-05    91.2706   4.0000   107.7478
 32      0.0000     0.0000E+00    0.0000E+00    6.250000E+09  0.00800  3.159E-05    0   0.5319   age166_m52            0.0000     7.7412E-05    90.3052   4.0000   109.0325
 33      0.0000     0.0000E+00    0.0000E+00    1.300000E+10  0.00800  1.361E-05    0   0.5073   age193_m52            0.0000     7.6480E-05    87.8941   4.0000   110.2770
 34      0.3567     1.5719E-01    1.5840E-01    1.800000E+10  0.00800  9.886E-06    0   0.4990   age213_m52            0.0000     7.6182E-05    87.2025   4.0000   111.3928
 35      0.0000     0.0000E+00    0.0000E+00    1.000000E+06  0.02000  1.544E-02    0   1.0000   age020_m62            0.0000     8.0488E-05    98.0014   4.0000    98.4691
 36      0.0000     0.0000E+00    0.0000E+00    3.160000E+06  0.02000  3.762E-02    0   0.9858   age045_m62            0.0000     8.0464E-05    97.9493   4.0000    99.5714
 37      0.0000     0.0000E+00    0.0000E+00    5.010000E+06  0.02000  3.296E-02    0   0.9342   age055_m62            0.0000     8.0362E-05    97.7091   4.0000    99.7280
 38      0.0000     0.0000E+00    0.0000E+00    8.710000E+06  0.02000  1.154E-02    0   0.8861   age067_m62            0.0000     7.9953E-05    96.5604   4.0000   101.2682
 39      0.0000     0.0000E+00    0.0000E+00    1.445000E+07  0.02000  7.663E-03    0   0.8472   age078_m62            0.0000     8.0046E-05    96.8761   4.0000   100.8780
 40      0.0000     0.0000E+00    0.0000E+00    2.512000E+07  0.02000  4.532E-03    0   0.8099   age090_m62            0.0000     8.0047E-05    96.8711   4.0000   100.2955
 41      0.0000     0.0000E+00    0.0000E+00    5.500000E+07  0.02000  2.733E-03    0   0.7595   age110_m62            0.0000     8.0041E-05    96.9189   4.0000   100.4101
 42      0.0000     0.0000E+00    0.0000E+00    1.609000E+08  0.02000  1.369E-03    0   0.6985   age120_m62            0.0000     7.9979E-05    96.7817   4.0000   101.0410
 43      0.0000     0.0000E+00    0.0000E+00    2.861200E+08  0.02000  9.013E-04    0   0.6714   age125_m62            0.0000     7.9858E-05    96.4810   4.0000   101.9322
 44      0.0000     0.0000E+00    0.0000E+00    5.088000E+08  0.02000  5.028E-04    0   0.6449   age130_m62            0.0000     7.9597E-05    95.8737   4.0000   103.8918
 45      0.0000     0.0000E+00    0.0000E+00    9.047900E+08  0.02000  2.428E-04    0   0.6179   age135_m62            0.0000     7.8963E-05    94.3423   4.0000   107.6205
 46      0.0000     0.0000E+00    0.0000E+00    1.434000E+09  0.02000  1.263E-04    0   0.5908   age139_m62            0.0000     7.8345E-05    92.7863   4.0000   109.7575
 47      0.0000     0.0000E+00    0.0000E+00    2.500000E+09  0.02000  5.985E-05    0   0.5673   age150_m62            0.0000     7.7753E-05    91.2688   4.0000   110.6358
 48      0.0000     0.0000E+00    0.0000E+00    4.250000E+09  0.02000  3.271E-05    0   0.5468   age158_m62            0.0000     7.7124E-05    89.6713   4.0000   113.2182
 49      8.6116     2.7584E+00    2.8783E+00    1.000000E+10  0.02000  1.360E-05    0   0.5167   age181_m62            0.0000     7.6281E-05    87.6106   4.0000   117.0876
 50      0.0000     0.0000E+00    0.0000E+00    1.800000E+10  0.02000  7.124E-06    0   0.5013   age213_m62            0.0000     7.5661E-05    86.1545   4.0000   119.8297
 51      0.0000     0.0000E+00    0.0000E+00    1.000000E+06  0.05000  2.592E-02    0   0.9998   age020_m72            0.0000     8.0476E-05    97.9796   4.0000    99.1895
 52      0.0000     0.0000E+00    0.0000E+00    3.160000E+06  0.05000  4.845E-02    0   0.9577   age045_m72            0.0000     8.0429E-05    97.8731   4.0000    99.9428
 53      0.0000     0.0000E+00    0.0000E+00    5.010000E+06  0.05000  3.072E-02    0   0.9147   age055_m72            0.0000     8.0284E-05    97.4817   4.0000   100.5441
 54      0.0000     0.0000E+00    0.0000E+00    6.610000E+06  0.05000  1.455E-02    0   0.8877   age061_m72            0.0000     8.0012E-05    96.6286   4.0000   101.0189
 55      0.0000     0.0000E+00    0.0000E+00    1.000000E+07  0.05000  9.074E-03    0   0.8524   age070_m72            0.0000     8.0360E-05    97.6452   4.0000   100.5747
 56      0.0000     0.0000E+00    0.0000E+00    2.512000E+07  0.05000  4.250E-03    0   0.7902   age090_m72            0.0000     8.0259E-05    97.4126   4.0000    99.9277
 57      0.0000     0.0000E+00    0.0000E+00    4.000000E+07  0.05000  3.087E-03    0   0.7618   age104_m72            0.0000     8.0170E-05    97.1933   4.0000   100.1333
 58      0.0000     0.0000E+00    0.0000E+00    1.015200E+08  0.05000  1.700E-03    0   0.7096   age116_m72            0.0000     8.0062E-05    96.9575   4.0000   100.7717
 59      0.0000     0.0000E+00    0.0000E+00    2.861200E+08  0.05000  7.384E-04    0   0.6633   age125_m72            0.0000     7.9759E-05    96.2680   4.0000   103.5827
 60      0.0000     0.0000E+00    0.0000E+00    5.088000E+08  0.05000  3.819E-04    0   0.6372   age130_m72            0.0000     7.9319E-05    95.2506   4.0000   107.4228
 61      0.0000     0.0000E+00    0.0000E+00    9.047900E+08  0.05000  1.676E-04    0   0.6110   age135_m72            0.0000     7.8383E-05    93.0030   4.0000   112.8422
 62      0.0000     0.0000E+00    0.0000E+00    1.434000E+09  0.05000  8.837E-05    0   0.5874   age139_m72            0.0000     7.7661E-05    91.0836   4.0000   114.8977
 63      0.0000     0.0000E+00    0.0000E+00    2.500000E+09  0.05000  4.233E-05    0   0.5598   age150_m72            0.0000     7.7036E-05    89.5147   4.0000   116.4102
 64      0.0000     0.0000E+00    0.0000E+00    6.250000E+09  0.05000  1.435E-05    0   0.5249   age166_m72            0.0000     7.5964E-05    86.8698   4.0000   119.1732
 65      0.0000     0.0000E+00    0.0000E+00    1.300000E+10  0.05000  6.513E-06    0   0.5036   age193_m72            0.0000     7.5047E-05    84.7509   4.0000   126.2198
 66     98.1898     9.4486E+01    9.4355E+01    1.800000E+10  0.05000  4.527E-06    0   0.4945   age213_m72            0.0000     7.4504E-05    83.6149   4.0000   128.8014


## Synthesis Results - Average & Chains ##

# j      x_j: min, <> & last-chain-values for 1 ...  7 chains
  1      0.0000      0.9370      0.0000      0.0000      0.0000      0.0000      0.0000      0.0000      0.0000
  2      0.0000      0.9301      0.0000      0.0000      0.0000      0.0000      0.0000      0.0000      0.0000
  3      0.0000      0.7817      0.0000      0.0000      0.0000      0.0000      0.0000      0.0000      0.0000
  4      0.0000      0.9800      0.0000      0.0000      0.0000      0.0000      0.0000      0.0000      0.0000
  5      0.0000      1.0234      0.0000      0.0000      0.0000      0.0000      0.0000      0.0000      0.0000
  6      0.5966      0.8429      0.0014      0.0000      0.0000      0.0000      0.0000      0.0000      0.0000
  7      0.0000      0.9212      0.0000      0.0000      0.0000      0.0000      0.0000      0.0000      0.0000
  8      0.0000      0.7126      0.0000      0.0000      0.0000      0.0000      0.0000      0.0000      0.0000
  9      0.0000      0.8462      0.0000      0.0000      0.0000      0.0000      0.0000      0.0000      0.0000
 10      0.0000      0.9637      0.0000      0.0000      0.0000      0.0000      0.0000      0.0000      0.0000
 11      0.0000      1.0551      0.0000      0.0000      0.0000      0.0000      0.0000      0.0000      0.0000
 12      0.0000      0.8415      0.0000      0.0000      0.0000      0.0000      0.0000      0.0000      0.0000
 13      0.0000      0.9451      0.0000      0.0000      0.0000      0.0000      0.0000      0.0000      0.0000
 14      0.0000      1.0901      0.0000      0.0000      0.0000      0.0000      0.0000      0.0000      0.0000
 15      0.0000      0.5834      0.0062      0.0000      0.0000      0.0000      0.0000      0.0011      0.0000
 16      0.0000      0.9340      0.0000      0.0000      0.0000      0.0000      0.0000      0.0000      0.0000
 17      9.0919      0.9875      0.0000      0.0006      0.0000      0.0000      0.0001      0.0000      0.0000
 18      0.0000      0.7770      0.0000      0.0000      0.0000      0.0000      0.0000      0.0000      0.0000
 19      0.0000      0.9652      0.0000      0.0000      0.0000      0.0000      0.0000      0.0000      0.0000
 20      0.0000      0.9543      0.0000      0.0000      0.0000      0.0000      0.0000      0.0000      0.0000
 21      6.9054      1.0331      0.0000      0.0000      0.0000      0.0000      0.0000      0.0000      0.0000
 22      0.0000      0.7666      0.0000      0.0000      0.0000      0.0000      0.0000      0.0000      0.0000
 23      0.0000      1.0827      0.0000      0.0000      0.0000      0.0000      0.0000      0.0000      0.0000
 24      0.0000      0.8295      0.0000      0.0000      0.0000      0.0000      0.0000      0.0000      0.0000
 25      0.0000      0.6873      0.0000      0.0000      0.0000      0.0000      0.0000      0.0000      0.0000
 26      0.0000      1.0171      0.0000      0.0000      0.0000      0.0000      0.0000      0.0000      0.0000
 27      0.0000      0.8538      0.0000      0.0000      0.0000      0.0000      0.0000      0.0000      0.0000
 28      0.0000      1.2430      0.0000      0.0000      0.0000      0.0000      0.0000      0.0000      0.0000
 29      0.0000      1.1475      0.0000      0.0000      0.0000      0.0000      0.0000      0.0000      0.0000
 30      0.0000      1.3142      0.0000      0.0000      0.0018      0.0000      0.0000      0.0000      0.0000
 31      0.0000      0.8277      0.0000      0.0000      0.0000      0.0000      0.0000      0.0017      0.0000
 32      0.0000      1.0970      0.0000      0.0000      0.0000      0.0000      0.0000      0.0013      0.0000
 33      0.0000      1.1553      0.0060      0.0000      0.0087      0.0000      0.0000      0.0000      0.0000
 34      0.3567      2.6932      4.2760      6.0520      0.0000      6.7433      0.0040      0.0000      6.3896
 35      0.0000      0.7548      0.0000      0.0000      0.0000      0.0000      0.0000      0.0002      0.0000
 36      0.0000      1.0259      0.0000      0.0000      0.0000      0.0000      0.0000      0.0000      0.0000
 37      0.0000      1.0274      0.0000      0.0000      0.0000      0.0000      0.0000      0.0000      0.0000
 38      0.0000      0.9098      0.0000      0.0000      0.0000      0.0000      0.0000      0.0000      0.0003
 39      0.0000      0.8756      0.0000      0.0000      0.0000      0.0012      0.0000      0.0000      0.0000
 40      0.0000      0.8277      0.0000      0.0000      0.0000      0.0000      0.0000      0.0000      0.0000
 41      0.0000      1.1048      0.0000      0.0000      0.0000      0.0000      0.0000      0.0000      0.0000
 42      0.0000      0.8166      0.0000      0.0000      0.0000      0.0000      0.0000      0.0000      0.0000
 43      0.0000      1.6173      0.0000      0.0000      0.0000      0.0000      0.0000      0.0000      0.0000
 44      0.0000      0.7720      0.0000      0.0000      0.0000      0.0000      0.0000      0.0000      0.0000
 45      0.0000      1.0065      0.0000      0.0000      0.0000      0.0000      0.0000      0.0000      0.0027
 46      0.0000      1.2772      0.0000      0.0000      0.0000      0.0000      0.0000      0.0000      0.0000
 47      0.0000      0.8190      0.0000      0.0000      0.0000      0.0000      0.0000      0.0000      0.0000
 48      0.0000      0.9161      0.0000      0.0000      0.0000      0.0000      0.0000      0.0000      0.0019
 49      8.6116      0.8822      0.0000      0.0000      0.0000      0.0021      0.0008      0.0003      0.0000
 50      0.0000      0.9528      0.0000      0.0000      0.0048      0.0000      0.0000      0.0257      0.0000
 51      0.0000      1.2287      0.0000      0.0000      0.0000      0.0000      0.0000      0.0000      0.0000
 52      0.0000      0.7565      0.0000      0.0000      0.0000      0.0000      0.0000      0.0000      0.0000
 53      0.0000      0.9933      0.0000      0.0006      0.0000      0.0000      0.0000      0.0000      0.0000
 54      0.0000      0.7727      0.0000      0.0000      0.0000      0.0000      0.0000      0.0000      0.0000
 55      0.0000      0.7863      0.0000      0.0000      0.0000      0.0000      0.0000      0.0000      0.0000
 56      0.0000      0.8277      0.0000      0.0000      0.0000      0.0000      0.0042      0.0000      0.0000
 57      0.0000      0.6688      0.0000      0.0000      0.0000      0.0000      0.0000      0.0000      0.0000
 58      0.0000      0.9514      0.0000      0.0000      0.0000      0.0000      0.0000      0.0000      0.0000
 59      0.0000      0.8824      0.0000      0.0000      0.0000      0.0000      0.0000      0.0000      0.0000
 60      0.0000      1.2407      0.0000      0.0002      0.0000      0.0000      0.0000      0.0000      0.0000
 61      0.0000      0.9291      0.0000      0.0000      0.0000      0.0000      0.0000      0.0000      0.0000
 62      0.0000      1.0747      0.0000      0.0000      0.0000      0.0000      0.0000      0.0000      0.0000
 63      0.0000      1.2033      0.0000      0.0000      0.0000      0.0000      0.0000      0.0000      0.0000
 64      0.0000      0.9780      0.0000      0.0068      0.0000      0.0000      0.0000      0.0005      0.0053
 65      0.0000      1.5331      0.0000      0.0063      0.0048      0.0000      0.0000      0.0101      0.0162
 66     98.1898     64.9621    125.7103    123.9336    129.9799    123.2534    129.9908    129.9591    123.5840

# j      m_j: min, <> & last-chain-values for 1 ...  7 chains
  1  0.0000E+00  1.1094E-03  0.0000E+00  0.0000E+00  0.0000E+00  0.0000E+00  0.0000E+00  0.0000E+00  0.0000E+00
  2  0.0000E+00  3.0061E-04  0.0000E+00  0.0000E+00  0.0000E+00  0.0000E+00  0.0000E+00  0.0000E+00  0.0000E+00
  3  0.0000E+00  3.7834E-04  0.0000E+00  0.0000E+00  0.0000E+00  0.0000E+00  0.0000E+00  0.0000E+00  0.0000E+00
  4  0.0000E+00  4.4671E-04  0.0000E+00  0.0000E+00  0.0000E+00  0.0000E+00  0.0000E+00  0.0000E+00  0.0000E+00
  5  0.0000E+00  8.8859E-04  0.0000E+00  0.0000E+00  0.0000E+00  0.0000E+00  0.0000E+00  0.0000E+00  0.0000E+00
  6  5.7060E-04  1.1871E-03  1.1047E-06  0.0000E+00  0.0000E+00  0.0000E+00  0.0000E+00  0.0000E+00  0.0000E+00
  7  0.0000E+00  1.8574E-03  0.0000E+00  0.0000E+00  0.0000E+00  0.0000E+00  0.0000E+00  0.0000E+00  0.0000E+00
  8  0.0000E+00  1.9860E-03  0.0000E+00  0.0000E+00  0.0000E+00  0.0000E+00  0.0000E+00  0.0000E+00  0.0000E+00
  9  0.0000E+00  2.6992E-03  0.0000E+00  0.0000E+00  0.0000E+00  0.0000E+00  0.0000E+00  0.0000E+00  0.0000E+00
 10  0.0000E+00  4.0379E-03  0.0000E+00  0.0000E+00  0.0000E+00  0.0000E+00  0.0000E+00  0.0000E+00  0.0000E+00
 11  0.0000E+00  8.3125E-03  0.0000E+00  0.0000E+00  0.0000E+00  0.0000E+00  0.0000E+00  0.0000E+00  0.0000E+00
 12  0.0000E+00  1.0516E-02  0.0000E+00  0.0000E+00  0.0000E+00  0.0000E+00  0.0000E+00  0.0000E+00  0.0000E+00
 13  0.0000E+00  3.3289E-02  0.0000E+00  0.0000E+00  0.0000E+00  0.0000E+00  0.0000E+00  0.0000E+00  0.0000E+00
 14  0.0000E+00  1.2878E-01  0.0000E+00  0.0000E+00  0.0000E+00  0.0000E+00  0.0000E+00  0.0000E+00  0.0000E+00
 15  0.0000E+00  1.1221E-01  6.6195E-04  0.0000E+00  0.0000E+00  0.0000E+00  0.0000E+00  1.1472E-04  0.0000E+00
 16  0.0000E+00  3.0373E-01  0.0000E+00  0.0000E+00  0.0000E+00  0.0000E+00  0.0000E+00  0.0000E+00  0.0000E+00
 17  2.6051E+00  4.1658E-01  0.0000E+00  1.3967E-04  0.0000E+00  0.0000E+00  2.0149E-05  0.0000E+00  0.0000E+00
 18  0.0000E+00  8.1297E-04  0.0000E+00  0.0000E+00  0.0000E+00  0.0000E+00  0.0000E+00  0.0000E+00  0.0000E+00
 19  0.0000E+00  4.0531E-04  0.0000E+00  0.0000E+00  0.0000E+00  0.0000E+00  0.0000E+00  0.0000E+00  0.0000E+00
 20  0.0000E+00  4.3751E-04  0.0000E+00  0.0000E+00  0.0000E+00  0.0000E+00  0.0000E+00  0.0000E+00  0.0000E+00
 21  2.6099E-03  5.7489E-04  0.0000E+00  0.0000E+00  0.0000E+00  0.0000E+00  0.0000E+00  0.0000E+00  0.0000E+00
 22  0.0000E+00  7.2138E-04  0.0000E+00  0.0000E+00  0.0000E+00  0.0000E+00  0.0000E+00  0.0000E+00  0.0000E+00
 23  0.0000E+00  1.3759E-03  0.0000E+00  0.0000E+00  0.0000E+00  0.0000E+00  0.0000E+00  0.0000E+00  0.0000E+00
 24  0.0000E+00  1.5683E-03  0.0000E+00  0.0000E+00  0.0000E+00  0.0000E+00  0.0000E+00  0.0000E+00  0.0000E+00
 25  0.0000E+00  1.7917E-03  0.0000E+00  0.0000E+00  0.0000E+00  0.0000E+00  0.0000E+00  0.0000E+00  0.0000E+00
 26  0.0000E+00  4.4319E-03  0.0000E+00  0.0000E+00  0.0000E+00  0.0000E+00  0.0000E+00  0.0000E+00  0.0000E+00
 27  0.0000E+00  7.4466E-03  0.0000E+00  0.0000E+00  0.0000E+00  0.0000E+00  0.0000E+00  0.0000E+00  0.0000E+00
 28  0.0000E+00  3.1461E-02  0.0000E+00  0.0000E+00  0.0000E+00  0.0000E+00  0.0000E+00  0.0000E+00  0.0000E+00
 29  0.0000E+00  5.0607E-02  0.0000E+00  0.0000E+00  0.0000E+00  0.0000E+00  0.0000E+00  0.0000E+00  0.0000E+00
 30  0.0000E+00  1.2109E-01  0.0000E+00  0.0000E+00  9.2286E-05  0.0000E+00  0.0000E+00  0.0000E+00  0.0000E+00
 31  0.0000E+00  1.3416E-01  0.0000E+00  0.0000E+00  0.0000E+00  0.0000E+00  0.0000E+00  1.5057E-04  0.0000E+00
 32  0.0000E+00  2.3925E-01  0.0000E+00  0.0000E+00  0.0000E+00  0.0000E+00  0.0000E+00  1.5580E-04  0.0000E+00
 33  0.0000E+00  5.5776E-01  1.6065E-03  0.0000E+00  2.2774E-03  0.0000E+00  0.0000E+00  0.0000E+00  0.0000E+00
 34  1.5840E-01  1.7608E+00  1.5474E+00  2.2066E+00  0.0000E+00  2.4658E+00  1.4237E-03  0.0000E+00  2.3331E+00
 35  0.0000E+00  6.3316E-04  0.0000E+00  0.0000E+00  0.0000E+00  0.0000E+00  0.0000E+00  9.1226E-08  0.0000E+00
 36  0.0000E+00  3.4819E-04  0.0000E+00  0.0000E+00  0.0000E+00  0.0000E+00  0.0000E+00  0.0000E+00  0.0000E+00
 37  0.0000E+00  3.7718E-04  0.0000E+00  0.0000E+00  0.0000E+00  0.0000E+00  0.0000E+00  0.0000E+00  0.0000E+00
 38  0.0000E+00  9.0481E-04  0.0000E+00  0.0000E+00  0.0000E+00  0.0000E+00  0.0000E+00  0.0000E+00  1.6995E-07
 39  0.0000E+00  1.2538E-03  0.0000E+00  0.0000E+00  0.0000E+00  9.5797E-07  0.0000E+00  0.0000E+00  0.0000E+00
 40  0.0000E+00  1.9158E-03  0.0000E+00  0.0000E+00  0.0000E+00  0.0000E+00  0.0000E+00  0.0000E+00  0.0000E+00
 41  0.0000E+00  3.9768E-03  0.0000E+00  0.0000E+00  0.0000E+00  0.0000E+00  0.0000E+00  0.0000E+00  0.0000E+00
 42  0.0000E+00  5.3964E-03  0.0000E+00  0.0000E+00  0.0000E+00  0.0000E+00  0.0000E+00  0.0000E+00  0.0000E+00
 43  0.0000E+00  1.5605E-02  0.0000E+00  0.0000E+00  0.0000E+00  0.0000E+00  0.0000E+00  0.0000E+00  0.0000E+00
 44  0.0000E+00  1.2825E-02  0.0000E+00  0.0000E+00  0.0000E+00  0.0000E+00  0.0000E+00  0.0000E+00  0.0000E+00
 45  0.0000E+00  3.3178E-02  0.0000E+00  0.0000E+00  0.0000E+00  0.0000E+00  0.0000E+00  0.0000E+00  4.9539E-05
 46  0.0000E+00  7.7381E-02  0.0000E+00  0.0000E+00  0.0000E+00  0.0000E+00  0.0000E+00  0.0000E+00  0.0000E+00
 47  0.0000E+00  1.0055E-01  0.0000E+00  0.0000E+00  0.0000E+00  0.0000E+00  0.0000E+00  0.0000E+00  0.0000E+00
 48  0.0000E+00  1.9836E-01  0.0000E+00  0.0000E+00  0.0000E+00  0.0000E+00  0.0000E+00  0.0000E+00  2.3268E-04
 49  2.8783E+00  4.3415E-01  0.0000E+00  0.0000E+00  0.0000E+00  5.8560E-04  2.2706E-04  8.6512E-05  0.0000E+00
 50  0.0000E+00  8.6840E-01  0.0000E+00  0.0000E+00  2.3646E-03  0.0000E+00  0.0000E+00  1.2716E-02  0.0000E+00
 51  0.0000E+00  6.1388E-04  0.0000E+00  0.0000E+00  0.0000E+00  0.0000E+00  0.0000E+00  0.0000E+00  0.0000E+00
 52  0.0000E+00  1.9368E-04  0.0000E+00  0.0000E+00  0.0000E+00  0.0000E+00  0.0000E+00  0.0000E+00  0.0000E+00
 53  0.0000E+00  3.8309E-04  0.0000E+00  1.2943E-07  0.0000E+00  0.0000E+00  0.0000E+00  0.0000E+00  0.0000E+00
 54  0.0000E+00  6.1062E-04  0.0000E+00  0.0000E+00  0.0000E+00  0.0000E+00  0.0000E+00  0.0000E+00  0.0000E+00
 55  0.0000E+00  9.5673E-04  1.5494E-08  0.0000E+00  0.0000E+00  0.0000E+00  0.0000E+00  0.0000E+00  0.0000E+00
 56  0.0000E+00  1.9933E-03  0.0000E+00  0.0000E+00  0.0000E+00  0.0000E+00  5.5369E-06  0.0000E+00  0.0000E+00
 57  0.0000E+00  2.1378E-03  0.0000E+00  0.0000E+00  0.0000E+00  0.0000E+00  0.0000E+00  0.0000E+00  0.0000E+00
 58  0.0000E+00  5.1440E-03  0.0000E+00  0.0000E+00  0.0000E+00  0.0000E+00  0.0000E+00  0.0000E+00  0.0000E+00
 59  0.0000E+00  1.0267E-02  0.0000E+00  0.0000E+00  0.0000E+00  0.0000E+00  0.0000E+00  0.0000E+00  0.0000E+00
 60  0.0000E+00  2.6812E-02  0.0000E+00  2.3409E-06  0.0000E+00  0.0000E+00  0.0000E+00  0.0000E+00  0.0000E+00
 61  0.0000E+00  4.3872E-02  0.0000E+00  0.0000E+00  0.0000E+00  0.0000E+00  0.0000E+00  0.0000E+00  0.0000E+00
 62  0.0000E+00  9.2526E-02  0.0000E+00  0.0000E+00  0.0000E+00  0.0000E+00  0.0000E+00  0.0000E+00  0.0000E+00
 63  0.0000E+00  2.0612E-01  0.0000E+00  0.0000E+00  0.0000E+00  0.0000E+00  0.0000E+00  0.0000E+00  0.0000E+00
 64  0.0000E+00  4.6335E-01  0.0000E+00  1.7911E-03  0.0000E+00  0.0000E+00  0.0000E+00  1.2911E-04  1.4109E-03
 65  0.0000E+00  1.5354E+00  0.0000E+00  3.5023E-03  2.5890E-03  0.0000E+00  0.0000E+00  5.4775E-03  9.0348E-03
 66  9.4355E+01  9.1911E+01  9.8450E+01  9.7788E+01  9.9993E+01  9.7534E+01  9.9998E+01  9.9981E+01  9.7656E+01

# AV, chi2 & Mass for <> & i_chain = 1 ...  7 solutions
AV       3.9894      2.9432      2.6560      2.7524      2.7291      2.6693      2.6627      3.1601      2.9899
chi2 7.6729E-05  1.8255E-03  8.0967E-05  8.5342E-05  7.7204E-05  8.6490E-05  7.7304E-05  7.7088E-05  8.8444E-05
Mass 9.3178E-13  1.5526E-13  1.9071E-13  2.1546E-13  2.1418E-13  1.9215E-13  1.9590E-13  3.8207E-13  2.9596E-13
 223.87                                  [v0_min (km/s) before EX0s...]
 105.15                                  [vd_min (km/s) before EX0s...]


## Synthetic spectrum (Best Model) ##l_obs f_obs f_syn wei
 3478    [Nl_obs]
 3741.00  101.60873   0.32161    0.000
 3742.00  116.82579   0.37350    0.000
 3743.00   89.09283   0.40838    0.000
 3744.00   44.49092   0.41291    0.000
 3745.00   -9.93956   0.38832    0.000
 3746.00   47.73343   0.34911    0.000
 3747.00  162.33330   0.31159    0.000
 3748.00  159.28554   0.28396    0.000
 3749.00  104.50476   0.26535    0.000
 3750.00   15.25585   0.25203    0.000
 3751.00  -87.00590   0.24629    0.000
 3752.00  -32.81325   0.25846    0.000
 3753.00   71.52102   0.29559    0.000
 3754.00   89.65935   0.35059    0.000
 3755.00   84.69899   0.40853    0.000
 3756.00   43.33826   0.45803    0.000
 3757.00   -6.01187   0.48952    0.000
 3758.00  -34.85521   0.49049    0.000
 3759.00  -60.11874   0.45587    0.000
 3760.00   24.97438   0.40244    0.000
 3761.00  124.72717   0.36169    0.000
 3762.00  160.28079   0.35318    0.000
 3763.00  189.80138   0.36891    0.000
 3764.00  144.41583   0.38601    0.000
 3765.00   94.70917   0.39038    0.000
 3766.00   63.41205   0.38562    0.000
 3767.00   32.85424   0.38154    0.000
 3768.00   38.96589   0.38138    0.000
 3769.00   42.76274   0.38558    0.000
 3770.00   -9.66855   0.40025    0.000
 3771.00  -56.53121   0.42964    0.000
 3772.00  -30.42117   0.46615    0.000
 3773.00   -0.63676   0.49865    0.000
 3774.00   61.40452   0.52357    0.000
 3775.00  110.87498   0.54066    0.000
 3776.00   78.83831   0.54709    0.000
 3777.00   40.46786   0.54315    0.000
 3778.00  -29.95963   0.53627    0.000
 3779.00  -92.52535   0.53452    0.000
 3780.00 -122.91163   0.54053    0.000
 3781.00 -132.82271   0.55331    0.000
 3782.00  -73.28816   0.57015    0.000
 3783.00  -33.17892   0.58579    0.000
 3784.00  -48.62725   0.59565    0.000
 3785.00  -43.45631   0.59909    0.000
 3786.00   12.09261   0.59426    0.000
 3787.00   90.53982   0.57337    0.000
 3788.00  217.24918   0.53136    0.000
 3789.00  243.89012   0.47758    0.000
 3790.00   87.23546   0.43105    0.000
 3791.00    7.03745   0.40520    0.000
 3792.00   49.22723   0.40201    0.000
 3793.00   89.58240   0.41465    0.000
 3794.00  127.36062   0.42928    0.000
 3795.00   99.49397   0.43133    0.000
 3796.00   -9.51025   0.41732    0.000
 3797.00  -50.71235   0.39717    0.000
 3798.00  -18.04482   0.38136    0.000
 3799.00    1.02565   0.37024    0.000
 3800.00    7.02947   0.36033    0.000
 3801.00   19.06453   0.35688    0.000
 3802.00   36.21035   0.37133    0.000
 3803.00    9.47915   0.40641    0.000
 3804.00  -49.99372   0.45119    0.000
 3805.00  -98.53888   0.49134    0.000
 3806.00 -139.92035   0.51720    0.000
 3807.00  -98.17071   0.52369    0.000
 3808.00   -8.71705   0.51141    0.000
 3809.00   74.83544   0.49091    0.000
 3810.00  155.43843   0.47922    0.000
 3811.00  149.96468   0.48598    0.000
 3812.00  107.26782   0.50393    0.000
 3813.00   68.98616   0.51547    0.000
 3814.00   32.34191   0.50711    0.000
 3815.00  -26.88470   0.47750    0.000
 3816.00  -93.21017   0.43615    0.000
 3817.00  -73.08104   0.39696    0.000
 3818.00  -30.27291   0.37111    0.000
 3819.00   22.56088   0.36121    0.000
 3820.00   77.54272   0.35868    0.000
 3821.00   54.39845   0.35001    0.000
 3822.00   17.99525   0.33162    0.000
 3823.00  109.12511   0.31529    0.000
 3824.00  216.62029   0.31281    0.000
 3825.00  130.25880   0.31928    0.000
 3826.00   26.49649   0.31910    0.000
 3827.00   48.63770   0.30609    0.000
 3828.00   77.54611   0.28968    0.000
 3829.00   21.08789   0.28219    0.000
 3830.00  -36.25037   0.28677    0.000
 3831.00  -23.49539   0.29827    0.000
 3832.00  -11.99627   0.30909    0.000
 3833.00  -28.39765   0.31226    0.000
 3834.00  -36.43510   0.30442    0.000
 3835.00   59.53002   0.29015    0.000
 3836.00  137.78783   0.28075    0.000
 3837.00   66.37852   0.28438    0.000
 3838.00    6.27830   0.29741    0.000
 3839.00   17.32364   0.30738    0.000
 3840.00   29.59744   0.30563    0.000
 3841.00   47.93264   0.29598    0.000
 3842.00   53.65173   0.29107    0.000
 3843.00    8.86723   0.30215    0.000
 3844.00  -31.46434   0.33178    0.000
 3845.00  -56.99178   0.37178    0.000
 3846.00  -63.65226   0.40788    0.000
 3847.00  -17.33207   0.43002    0.000
 3848.00   29.49489   0.43874    0.000
 3849.00   77.53901   0.43991    0.000
 3850.00  101.92743   0.43598    0.000
 3851.00   77.25584   0.42583    0.000
 3852.00   67.24134   0.41275    0.000
 3853.00   83.66309   0.40611    0.000
 3854.00   92.68664   0.41053    0.000
 3855.00   90.04277   0.41813    0.000
 3856.00   75.54765   0.41745    0.000
 3857.00   44.64608   0.40575    0.000
 3858.00   28.25673   0.38841    0.000
 3859.00   29.55021   0.37037    0.000
 3860.00   52.94839   0.35254    0.000
 3861.00  100.09084   0.33556    0.000
 3862.00  121.78887   0.32556    0.000
 3863.00  119.37846   0.33317    0.000
 3864.00   49.51723   0.36176    0.000
 3865.00  -76.69236   0.39922    0.000
 3866.00  -78.98799   0.42677    0.000
 3867.00    9.85574   0.43558    0.000
 3868.00   56.11772   0.43153    0.000
 3869.00   74.87514   0.42476    0.000
 3870.00   62.29943   0.41862    0.000
 3871.00   32.01622   0.40981    0.000
 3872.00   40.90934   0.39549    0.000
 3873.00   69.07363   0.37871    0.000
 3874.00   78.90236   0.36859    0.000
 3875.00   80.93432   0.37541    0.000
 3876.00   77.28514   0.40157    0.000
 3877.00   71.56660   0.43533    0.000
 3878.00   86.92664   0.45604    0.000
 3879.00  108.78472   0.45077    0.000
 3880.00  127.77992   0.42654    0.000
 3881.00  146.04018   0.40356    0.000
 3882.00  148.68387   0.39537    0.000
 3883.00  148.06267   0.39947    0.000
 3884.00  122.84103   0.40847    0.000
 3885.00   93.56285   0.42259    0.000
 3886.00   54.59156   0.44102    0.000
 3887.00   14.41987   0.44976    0.000
 3888.00   96.79399   0.43650    0.000
 3889.00  189.65569   0.41269    0.000
 3890.00  200.84259   0.40473    0.000
 3891.00  207.95882   0.42633    0.000
 3892.00  139.30225   0.47179    0.000
 3893.00   69.82999   0.52840    0.000
 3894.00   27.82582   0.58160    0.000
 3895.00  -11.96973   0.61587    0.000
 3896.00   -6.58611   0.62298    0.000
 3897.00    4.90098   0.60970    0.000
 3898.00   88.56635   0.59320    0.000
 3899.00  154.81583   0.58563    0.000
 3900.00   79.18229   0.58433    0.000
 3901.00   15.00101   0.58054    0.000
 3902.00   20.76893   0.57548    0.000
 3903.00   22.59326   0.57763    0.000
 3904.00    5.43988   0.58563    0.000
 3905.00    2.20814   0.58792    0.000
 3906.00   53.49610   0.57867    0.000
 3907.00   84.86002   0.56429    0.000
 3908.00   51.28180   0.55599    0.000
 3909.00   40.03185   0.56486    0.000
 3910.00   90.35329   0.59650    0.000
 3911.00  118.72320   0.64143    0.000
 3912.00   95.25575   0.68178    0.000
 3913.00   77.84928   0.70873    0.000
 3914.00   72.81255   0.72518    0.000
 3915.00   64.66030   0.73498    0.000
 3916.00   50.97443   0.73716    0.000
 3917.00   57.01270   0.72983    0.000
 3918.00   93.69847   0.71359    0.000
 3919.00  120.82158   0.69007    0.000
 3920.00  134.89700   0.66043    0.000
 3921.00  114.41878   0.62429    0.000
 3922.00   52.43394   0.58205    0.000
 3923.00   25.69690   0.54143    0.000
 3924.00   36.29010   0.51575    0.000
 3925.00   48.52301   0.51168    0.000
 3926.00   62.28771   0.52207    0.000
 3927.00   50.67603   0.53101    0.000
 3928.00   18.16509   0.52369    0.000
 3929.00    8.70191   0.49468    0.000
 3930.00   15.94666   0.44955    0.000
 3931.00   21.15853   0.39886    0.000
 3932.00   25.07667   0.35148    0.000
 3933.00   43.06931   0.31208    0.000
 3934.00   68.89479   0.28213    0.000
 3935.00   76.83757   0.26212    0.000
 3936.00   76.12360   0.25250    0.000
 3937.00   78.70599   0.25428    0.000
 3938.00   82.66652   0.27008    0.000
 3939.00  120.79871   0.30227    0.000
 3940.00  171.15428   0.34870    0.000
 3941.00  121.88467   0.40119    0.000
 3942.00   42.50265   0.44841    0.000
 3943.00   26.23148   0.48042    0.000
 3944.00   25.81128   0.49365    0.000
 3945.00   51.43824   0.49389    0.000
 3946.00   82.37681   0.49489    0.000
 3947.00   60.37945   0.51253    0.000
 3948.00   29.90590   0.55259    0.000
 3949.00  -23.55949   0.60162    0.000
 3950.00  -79.77002   0.64090    0.000
 3951.00  -11.95803   0.66917    0.000
 3952.00   65.95340   0.69768    0.000
 3953.00  129.75342   0.72722    0.000
 3954.00  192.90488   0.74681    0.000
 3955.00  123.33087   0.75371    0.000
 3956.00   52.70435   0.75832    0.000
 3957.00   15.43058   0.76377    0.000
 3958.00  -17.31630   0.75865    0.000
 3959.00   35.69281   0.73909    0.000
 3960.00   80.29974   0.71692    0.000
 3961.00   30.21679   0.69708    0.000
 3962.00   -4.73024   0.66571    0.000
 3963.00   79.29659   0.60982    0.000
 3964.00  145.37859   0.53915    0.000
 3965.00  104.98085   0.47866    0.000
 3966.00   58.67890   0.44007    0.000
 3967.00  -15.34514   0.41170    0.000
 3968.00  -61.60340   0.37731    0.000
 3969.00   -1.45651   0.33473    0.000
 3970.00   53.66757   0.29535    0.000
 3971.00   92.73714   0.27255    0.000
 3972.00   89.07375   0.27358    0.000
 3973.00  -30.32393   0.29855    0.000
 3974.00  -85.84750   0.34247    0.000
 3975.00    6.94380   0.39855    0.000
 3976.00   70.75397   0.46164    0.000
 3977.00   76.35387   0.52862    0.000
 3978.00   61.17049   0.59574    0.000
 3979.00    9.63353   0.65940    0.000
 3980.00    6.21192   0.71986    0.000
 3981.00   76.45333   0.77795   -1.000
 3982.00   96.74443   0.82817   -1.000
 3983.00   49.85982   0.86080   -1.000
 3984.00   29.61494   0.87158   -1.000
 3985.00   40.91770   0.86948   -1.000
 3986.00   55.62310   0.87048   -1.000
 3987.00   73.88155   0.88407   -1.000
 3988.00   63.46218   0.90910   -1.000
 3989.00   26.62899   0.93828   -1.000
 3990.00    2.82929   0.96436   -1.000
 3991.00  -10.38857   0.98070    0.000
 3992.00   26.14529   0.98340   -1.000
 3993.00   98.22558   0.98173   -1.000
 3994.00   82.37249   0.98964   -1.000
 3995.00   11.38537   1.00575   -1.000
 3996.00  -12.56011   1.01618    0.000
 3997.00  -10.72617   1.01050    0.000
 3998.00   11.47598   0.99092   -1.000
 3999.00   43.38036   0.96936   -1.000
 4000.00    2.25896   0.96231   -1.000
 4001.00  -68.87704   0.98337    0.000
 4002.00  -49.95105   1.03053    0.000
 4003.00    0.60672   1.08272   -1.000
 4004.00   29.63013   1.11803   -1.000
 4005.00   52.27307   1.12636   -1.000
 4006.00   97.23166   1.10091   -1.000
 4007.00  147.67215   1.04332   -1.000
 4008.00   97.43694   0.98219   -1.000
 4009.00   27.18514   0.95934   -1.000
 4010.00   30.27004   0.98728   -1.000
 4011.00   44.75035   1.03971   -1.000
 4012.00    2.41814   1.08541   -1.000
 4013.00  -46.44669   1.11340    0.000
 4014.00  -14.01005   1.12922    0.000
 4015.00   24.71243   1.14209   -1.000
 4016.00   67.08508   1.15721   -1.000
 4017.00  109.61143   1.17350   -1.000
 4018.00   64.90415   1.18600   -1.000
 4019.00   19.53894   1.18907   -1.000
 4020.00  -19.76300   1.18580    0.000
 4021.00  -52.06790   1.18882    0.000
 4022.00   38.98974   1.19975   -1.000
 4023.00  120.48954   1.20490   -1.000
 4024.00   99.14886   1.19698   -1.000
 4025.00   80.08636   1.18093   -1.000
 4026.00   78.31834   1.16341   -1.000
 4027.00   88.11530   1.15203   -1.000
 4028.00  164.61798   1.15878   -1.000
 4029.00  214.85410   1.18650   -1.000
 4030.00  144.71169   1.21672   -1.000
 4031.00   68.26545   1.21742   -1.000
 4032.00  -31.82711   1.16403    0.000
 4033.00  -71.54998   1.06511    0.000
 4034.00   77.98661   0.96246   -1.000
 4035.00  172.85149   0.89453   -1.000
 4036.00  122.27049   0.87656   -1.000
 4037.00   66.99504   0.91246   -1.000
 4038.00    1.00000   0.99678   17.558
 4039.00  -80.19055   1.10696    0.000
 4040.00 -191.42125   1.20606    0.000
 4041.00 -228.79134   1.26230    0.000
 4042.00 -138.91994   1.26991    0.000
 4043.00  -60.74447   1.24768    0.000
 4044.00   -0.21270   1.21588    0.000
 4045.00   12.53991   1.17146   -1.000
 4046.00  -38.04261   1.09239    0.000
 4047.00   -5.04071   0.97942    0.000
 4048.00  125.54618   0.88038   -1.000
 4049.00   81.46227   0.85634   -1.000
 4050.00 -142.45332   0.92416    0.000
 4051.00 -233.20178   1.04236    0.000
 4052.00 -203.02104   1.15514    0.000
 4053.00 -202.23332   1.23105    0.000
 4054.00 -224.97081   1.26227    0.000
 4055.00 -250.10681   1.25464    0.000
 4056.00 -276.93173   1.22163    0.000
 4057.00 -306.44516   1.17776    0.000
 4058.00 -337.61923   1.13541    0.000
 4059.00 -244.23119   1.10112    0.000
 4060.00  -83.63053   1.07740    0.000
 4061.00   -7.33913   1.07306    0.000
 4062.00   29.43822   1.09165   -1.000
 4063.00   44.97178   1.11013   -1.000
 4064.00   51.92257   1.09185   -1.000
 4065.00   85.73444   1.02756   -1.000
 4066.00  128.80803   0.95626   -1.000
 4067.00   89.89474   0.93199   -1.000
 4068.00   27.17400   0.96774   -1.000
 4069.00   11.10339   1.03154   -1.000
 4070.00    6.23788   1.09428   -1.000
 4071.00  -89.89582   1.14471    0.000
 4072.00 -203.71413   1.16678    0.000
 4073.00  -71.92809   1.14525    0.000
 4074.00   96.86733   1.10036   -1.000
 4075.00   55.73681   1.08110   -1.000
 4076.00   -8.61351   1.10497    0.000
 4077.00  -63.17548   1.13336    0.000
 4078.00 -117.02065   1.12290    0.000
 4079.00  -66.66724   1.07663    0.000
 4080.00  -12.32465   1.03974    0.000
 4081.00 -113.90063   1.05615    0.000
 4082.00 -214.40822   1.13061    0.000
 4083.00 -242.08122   1.22865    0.000
 4084.00 -265.08887   1.30349    0.000
 4085.00 -211.21219   1.32747    0.000
 4086.00 -154.50951   1.31108    0.000
 4087.00  -68.72558   1.28980    0.000
 4088.00   -5.76850   1.29440    0.000
 4089.00 -110.32018   1.33537    0.000
 4090.00 -201.62122   1.39960    0.000
 4091.00 -218.58855   1.45758    0.000
 4092.00 -218.90645   1.48354    0.000
 4093.00 -144.71919   1.47357    0.000
 4094.00  -65.67760   1.44389    0.000
 4095.00   31.19230   1.41335    0.000
 4096.00  225.30252   1.38691    0.000
 4097.00  718.47119   1.35114    0.000
 4098.00  924.65961   1.29641    0.000
 4099.00  380.79367   1.23783    0.000
 4100.00   30.98646   1.19628    0.000
 4101.00  116.99293   1.17161    0.000
 4102.00  166.01253   1.14622    0.000
 4103.00  143.05865   1.11021    0.000
 4104.00  116.92391   1.07948    0.000
 4105.00   85.39196   1.08012    0.000
 4106.00  112.14048   1.11891    0.000
 4107.00  225.52232   1.18230    0.000
 4108.00  228.12944   1.25223    0.000
 4109.00   85.99549   1.30971    0.000
 4110.00   20.27981   1.33790    0.000
 4111.00   42.52359   1.33239    0.000
 4112.00   69.15858   1.30337    0.000
 4113.00  100.25105   1.27036    0.000
 4114.00  121.58708   1.25328    0.000
 4115.00  134.18796   1.26271    0.000
 4116.00  104.44968   1.29387   -1.000
 4117.00   41.30636   1.33032   -1.000
 4118.00   49.99121   1.35630   -1.000
 4119.00  108.52129   1.36230   -1.000
 4120.00   83.81751   1.34390   -1.000
 4121.00    8.46577   1.30890   -1.000
 4122.00   34.73158   1.27896    0.000
 4123.00  114.98277   1.26871    0.000
 4124.00  137.91801   1.27340    0.000
 4125.00  134.42506   1.28502    0.001
 4126.00  157.88129   1.30447   -1.000
 4127.00  192.03854   1.33146   -1.000
 4128.00  233.05263   1.35307   -1.000
 4129.00  276.38733   1.35392   -1.000
 4130.00  189.72272   1.33291   -1.000
 4131.00   66.07017   1.30017   -1.000
 4132.00  129.83392   1.26258    0.000
 4133.00  237.59982   1.21863    0.000
 4134.00  284.83362   1.16870    0.000
 4135.00  320.64191   1.12750    0.000
 4136.00  190.82385   1.11784    0.000
 4137.00   36.81989   1.15149    0.000
 4138.00   48.15201   1.21846    0.000
 4139.00   77.05404   1.29092    0.000
 4140.00   72.81203   1.34482    0.000
 4141.00   66.27728   1.37398    0.000
 4142.00   50.86427   1.37805    0.000
 4143.00   35.14507   1.34994    0.000
 4144.00   85.90240   1.28000    0.000
 4145.00  134.79829   1.17822    0.000
 4146.00  117.84846   1.08922    0.000
 4147.00  103.74345   1.06291    0.000
 4148.00  133.62766   1.10686    0.000
 4149.00  160.61993   1.18152    0.000
 4150.00  159.10518   1.23970    0.000
 4151.00  149.21579   1.25889    0.000
 4152.00   79.87016   1.24593    0.000
 4153.00   19.36591   1.22253    0.000
 4154.00    7.12644   1.20501    0.000
 4155.00   32.90047   1.19608    0.000
 4156.00  224.83266   1.19096    0.000
 4157.00  354.25275   1.18682    0.000
 4158.00  258.83197   1.18688    0.000
 4159.00  169.92270   1.19866    0.000
 4160.00  100.66269   1.23021    0.000
 4161.00   71.65892   1.28067    0.000
 4162.00  146.03510   1.33677    0.000
 4163.00  178.30031   1.38474    0.000
 4164.00  117.54340   1.42111    0.000
 4165.00  122.73837   1.44464    0.000
 4166.00  254.26865   1.44715    0.000
 4167.00  307.56183   1.42388    0.000
 4168.00  230.09578   1.38284    0.000
 4169.00  193.30020   1.33995    0.000
 4170.00  216.08003   1.31367    0.000
 4171.00  191.74420   1.31443    0.000
 4172.00  106.72447   1.33014    0.000
 4173.00   43.39099   1.33123    0.000
 4174.00    4.66703   1.29680    0.000
 4175.00  -14.41110   1.23847    0.000
 4176.00  -13.82678   1.19168    0.000
 4177.00    2.64334   1.17927    0.000
 4178.00   33.13604   1.19472    0.000
 4179.00   79.28839   1.21754    0.000
 4180.00  137.62003   1.23650    0.000
 4181.00  174.93997   1.25477    0.000
 4182.00  197.89067   1.27404    0.000
 4183.00  142.99110   1.28832    0.000
 4184.00   41.42727   1.29715    0.000
 4185.00   -6.14343   1.31256    0.000
 4186.00  -25.47465   1.34496    0.000
 4187.00   28.92987   1.38521    0.000
 4188.00  116.78033   1.40478    0.000
 4189.00  147.80016   1.38580    0.000
 4190.00  156.64362   1.34962    0.000
 4191.00  116.52135   1.33423    0.000
 4192.00   60.13560   1.35098    0.000
 4193.00   52.55121   1.38286    0.000
 4194.00   58.56871   1.41502    0.000
 4195.00  125.17027   1.44421    0.000
 4196.00  205.67091   1.45968    0.000
 4197.00  177.57683   1.44217    0.000
 4198.00  129.52544   1.38705    0.000
 4199.00  109.47313   1.31448    0.000
 4200.00   93.38003   1.25332    0.000
 4201.00   83.26991   1.22145    0.000
 4202.00   73.76982   1.21786    0.000
 4203.00  106.24614   1.22706    0.000
 4204.00  141.45724   1.23936    0.000
 4205.00  147.23170   1.26273    0.000
 4206.00  151.94429   1.30683    0.000
 4207.00   55.51984   1.36974    0.000
 4208.00  -36.49673   1.44049    0.000
 4209.00    0.99318   1.50510    0.000
 4210.00   39.11653   1.55247    0.000
 4211.00   86.46138   1.57438    0.000
 4212.00  128.39574   1.57074    0.000
 4213.00  119.16714   1.55620    0.000
 4214.00  108.38878   1.54376    0.000
 4215.00   86.95712   1.52663    0.000
 4216.00   66.88914   1.48848    0.000
 4217.00   54.06898   1.43182    0.000
 4218.00   54.25382   1.39515    0.000
 4219.00  109.98286   1.42442    0.000
 4220.00  152.72517   1.52184    0.000
 4221.00  149.71161   1.64315    0.000
 4222.00  145.26199   1.73723    0.000
 4223.00  136.55974   1.77407    0.000
 4224.00  133.01302   1.74430    0.000
 4225.00  142.47688   1.64987    0.000
 4226.00  156.98268   1.50008    0.000
 4227.00  182.44456   1.31319    0.000
 4228.00  215.62408   1.12434    0.000
 4229.00  263.35785   0.99091    0.000
 4230.00  265.67651   0.97187    0.000
 4231.00  193.22658   1.08072    0.000
 4232.00  115.17056   1.26928    0.000
 4233.00   29.02195   1.45893    0.000
 4234.00    4.69013   1.58215    0.000
 4235.00   58.84252   1.61805    0.000
 4236.00   99.43636   1.59494    0.000
 4237.00  124.86069   1.55182    0.000
 4238.00  122.52113   1.51506    0.000
 4239.00   92.78419   1.50088    0.000
 4240.00   70.15540   1.51216    0.000
 4241.00   53.71259   1.54334    0.000
 4242.00   71.48166   1.59050    0.000
 4243.00  115.47928   1.65037    0.000
 4244.00  130.69489   1.71753    0.000
 4245.00  126.51398   1.78890    0.000
 4246.00  151.26721   1.86311    0.000
 4247.00  193.10378   1.92483    0.000
 4248.00  160.68628   1.94567    0.000
 4249.00   90.03784   1.90656    0.000
 4250.00   65.49137   1.81461    0.000
 4251.00   61.51394   1.69915    0.000
 4252.00   72.75709   1.59203    0.000
 4253.00   89.83615   1.52096    0.000
 4254.00  165.73007   1.49784    0.000
 4255.00  260.79169   1.50248    0.000
 4256.00  293.04926   1.50596    0.000
 4257.00  308.16336   1.50870    0.000
 4258.00  316.53906   1.53852    0.000
 4259.00  323.40466   1.60460    0.000
 4260.00  348.05005   1.66603    0.000
 4261.00  375.87534   1.67037    0.000
 4262.00  322.65561   1.61345    0.000
 4263.00  258.34735   1.55320    0.000
 4264.00  174.01669   1.56234    0.000
 4265.00   87.73013   1.66084    0.000
 4266.00   39.86756   1.80627    0.000
 4267.00   -5.64514   1.93844    0.000
 4268.00   63.89223   2.01520   -1.000
 4269.00  136.69067   2.02067   -1.000
 4270.00  240.18204   1.96153   -1.000
 4271.00  339.40250   1.85250   -1.000
 4272.00  325.72046   1.70507   -1.000
 4273.00  311.62244   1.53721   -1.000
 4274.00  291.80630   1.38607   -1.000
 4275.00  267.52933   1.29240   -1.000
 4276.00  202.73141   1.27082   -1.000
 4277.00  142.69110   1.31728   -1.000
 4278.00  114.34142   1.42394   -1.000
 4279.00   95.26872   1.57252    0.001
 4280.00  124.22289   1.73006    0.000
 4281.00  162.67366   1.84573    0.000
 4282.00  240.76898   1.88162   -2.000
 4283.00  304.72650   1.85455   -2.000
 4284.00  319.87854   1.81206   -2.000
 4285.00  313.32794   1.78991   -2.000
 4286.00  243.69505   1.79199   -2.000
 4287.00  164.99733   1.79348   -2.000
 4288.00   63.81621   1.77908   -2.000
 4289.00   24.02921   1.75046   -2.000
 4290.00  115.49142   1.70265   -2.000
 4291.00  178.08298   1.62824   -2.000
 4292.00  187.07021   1.54292   -2.000
 4293.00  181.55817   1.48908   -2.000
 4294.00  152.53090   1.50379   -2.000
 4295.00  150.11540   1.57947   -2.000
 4296.00  185.55864   1.66457   -2.000
 4297.00  202.62572   1.71765   -2.000
 4298.00  196.69379   1.72774    0.000
 4299.00  161.70151   1.69550    0.000
 4300.00   94.65362   1.62208    0.000
 4301.00  104.36157   1.51007    0.000
 4302.00  188.74892   1.38875    0.000
 4303.00  228.51903   1.30437    0.000
 4304.00  230.00800   1.27677    0.000
 4305.00  161.70255   1.29387    0.000
 4306.00   40.65411   1.32633    0.000
 4307.00   50.78045   1.34140    0.000
 4308.00  148.01570   1.32218    0.000
 4309.00  190.22466   1.26830    0.000
 4310.00  200.43390   1.19803    0.000
 4311.00  127.27254   1.15153    0.000
 4312.00   11.85892   1.16420    0.000
 4313.00   53.75315   1.24443    0.000
 4314.00  164.67577   1.37450    0.000
 4315.00  185.96248   1.52604    0.000
 4316.00  173.48404   1.68256    0.000
 4317.00  164.38411   1.85347    0.000
 4318.00  156.36435   2.05191    0.000
 4319.00  185.65640   2.25576    0.000
 4320.00  224.92065   2.41646    0.000
 4321.00  184.25441   2.49549    0.000
 4322.00  126.09709   2.48795    0.000
 4323.00  104.69891   2.42041    0.000
 4324.00   89.69520   2.31723    0.000
 4325.00   62.08750   2.17344    0.000
 4326.00   32.81266   1.98309    0.000
 4327.00   31.59616   1.77575    0.000
 4328.00   33.00156   1.62633    0.000
 4329.00  100.05258   1.61964    0.000
 4330.00  170.85803   1.77373    0.000
 4331.00  117.89854   2.01393    0.000
 4332.00   62.09728   2.22941    0.000
 4333.00   10.64914   2.35829    0.000
 4334.00  -36.13490   2.41614    0.000
 4335.00   29.06879   2.45184    0.000
 4336.00   92.12821   2.49543    0.000
 4337.00  127.27649   2.53489    0.000
 4338.00  155.45183   2.52575    0.000
 4339.00  122.70660   2.42829    0.000
 4340.00   96.63126   2.25060    0.000
 4341.00  113.63750   2.04771    0.000
 4342.00  124.85195   1.88998    0.000
 4343.00  106.84665   1.83196    0.000
 4344.00   95.91384   1.88082    0.000
 4345.00  113.84872   1.99709    0.000
 4346.00  124.07555   2.13002    0.000
 4347.00  108.22472   2.24585    0.000
 4348.00  100.63281   2.33243    0.000
 4349.00  116.60744   2.39967    0.000
 4350.00  128.06207   2.46234    0.000
 4351.00  128.49696   2.51435    0.000
 4352.00  147.56911   2.51929   -1.000
 4353.00  205.84286   2.43842   -1.000
 4354.00  263.87964   2.28822   -1.000
 4355.00  321.48303   2.14928   -1.000
 4356.00  329.36591   2.09979   -1.000
 4357.00  257.80750   2.15276   -1.000
 4358.00  210.66643   2.26166   -1.000
 4359.00  197.76013   2.36685   -1.000
 4360.00  179.42271   2.42869   -1.000
 4361.00  154.38435   2.44049   -1.000
 4362.00  175.08781   2.43117   -1.000
 4363.00  245.53806   2.44396   -1.000
 4364.00  285.36472   2.49786   -1.000
 4365.00  295.81454   2.57557   -1.000
 4366.00  262.27408   2.65131    0.000
 4367.00  191.52357   2.70733    0.000
 4368.00  159.44865   2.72546    0.000
 4369.00  156.18185   2.68927    0.000
 4370.00  155.17123   2.60767    0.000
 4371.00  155.63696   2.52191    0.000
 4372.00  124.73923   2.47105    0.000
 4373.00   75.87827   2.45952    0.000
 4374.00   79.07907   2.45662    0.000
 4375.00  108.24931   2.42431    0.000
 4376.00  172.69112   2.34892    0.000
 4377.00  252.35376   2.25557    0.000
 4378.00  217.34013   2.20048    0.000
 4379.00  139.89316   2.22882    0.000
 4380.00  133.12361   2.32789    0.000
 4381.00  148.51776   2.43142    0.000
 4382.00  132.19936   2.46732    0.000
 4383.00  107.58440   2.39935    0.000
 4384.00   78.57484   2.22758    0.000
 4385.00   48.62657   1.98539    0.000
 4386.00  129.83501   1.75020    0.000
 4387.00  229.84076   1.62335    0.000
 4388.00  225.58980   1.66435    0.000
 4389.00  208.01915   1.83382    0.000
 4390.00  177.14963   2.02535    0.000
 4391.00  145.09338   2.15290    0.000
 4392.00  173.79410   2.20501    0.000
 4393.00  205.73058   2.22519    0.000
 4394.00  235.82980   2.25404    0.000
 4395.00  264.95709   2.29968    0.000
 4396.00  218.02287   2.34755    0.000
 4397.00  172.72615   2.39168    0.000
 4398.00  163.42140   2.45115    0.000
 4399.00  158.54863   2.54032    0.000
 4400.00  208.43391   2.63460    0.000
 4401.00  246.95537   2.68195    0.000
 4402.00  189.87434   2.65250    0.000
 4403.00  147.58815   2.57561    0.000
 4404.00  198.02911   2.49820    0.000
 4405.00  252.49055   2.41942    0.000
 4406.00  326.72720   2.30473    0.000
 4407.00  386.43588   2.15343    0.000
 4408.00  388.14841   2.02617    0.000
 4409.00  361.66049   1.98991    0.000
 4410.00  241.65105   2.05516    0.000
 4411.00  160.77669   2.18847    0.000
 4412.00  189.54741   2.36062    0.000
 4413.00  200.17450   2.55004    0.000
 4414.00  167.31612   2.71546    0.000
 4415.00  158.07036   2.79792    0.000
 4416.00  197.69661   2.76180    0.000
 4417.00  231.93568   2.63396    0.000
 4418.00  256.47702   2.49838    0.000
 4419.00  261.92752   2.44623    0.000
 4420.00  237.32674   2.51622    0.000
 4421.00  235.71312   2.66388    0.000
 4422.00  265.86432   2.80251    0.000
 4423.00  317.63989   2.86497    0.000
 4424.00  395.71716   2.83397    0.000
 4425.00  391.82684   2.74939    0.000
 4426.00  300.04517   2.67498    0.000
 4427.00  263.71756   2.64785    0.000
 4428.00  279.83923   2.66145    0.000
 4429.00  260.11862   2.68878    0.000
 4430.00  210.50879   2.71551    0.000
 4431.00  191.95033   2.73471    0.000
 4432.00  196.18889   2.73824    0.000
 4433.00  235.79915   2.73053    0.000
 4434.00  298.21439   2.72037    0.000
 4435.00  332.18359   2.70398    0.000
 4436.00  350.10773   2.65835    0.000
 4437.00  309.73730   2.57803    0.000
 4438.00  240.74873   2.51618    0.000
 4439.00  272.05545   2.54302    0.000
 4440.00  345.92017   2.67497    0.000
 4441.00  298.57297   2.85207    0.000
 4442.00  207.17416   2.97704    0.000
 4443.00  197.88605   2.98888    0.000
 4444.00  213.84860   2.90002    0.000
 4445.00  263.59564   2.78625    0.000
 4446.00  321.99210   2.73737    0.000
 4447.00  267.92975   2.79390    0.000
 4448.00  190.42886   2.92253    0.000
 4449.00  184.79295   3.05320    0.000
 4450.00  190.96420   3.13690    0.000
 4451.00  171.81993   3.16564    0.000
 4452.00  149.55472   3.16003    0.000
 4453.00  209.56941   3.13584    0.000
 4454.00  276.58276   3.09140    0.000
 4455.00  284.74445   3.02037    0.000
 4456.00  290.00168   2.91121    0.000
 4457.00  220.43741   2.77038    0.000
 4458.00  151.71524   2.64018    0.000
 4459.00  210.54916   2.56222    0.000
 4460.00  264.18958   2.54088    0.000
 4461.00  212.64233   2.54254    0.000
 4462.00  163.13231   2.53407    0.000
 4463.00  137.56627   2.51478    0.000
 4464.00  117.77122   2.51552    0.000
 4465.00  144.77805   2.56912    0.000
 4466.00  173.53172   2.67852    0.000
 4467.00  212.91618   2.80959    0.000
 4468.00  240.41974   2.90822    0.000
 4469.00  210.92633   2.95025    0.000
 4470.00  186.04849   2.95369    0.000
 4471.00  179.19679   2.94224    0.000
 4472.00  175.39813   2.93620    0.000
 4473.00  181.52626   2.95626    0.000
 4474.00  183.52597   3.02081    0.000
 4475.00  174.16716   3.12435    0.000
 4476.00  181.83730   3.23599    0.000
 4477.00  229.63530   3.32850    0.000
 4478.00  247.93089   3.39665    0.000
 4479.00  206.13608   3.45131    0.000
 4480.00  199.82185   3.49181    0.000
 4481.00  256.40530   3.48494    0.000
 4482.00  257.98172   3.39699    0.000
 4483.00  174.24661   3.24648    0.000
 4484.00  127.01350   3.10807    0.000
 4485.00  129.49501   3.06281    0.000
 4486.00  148.17369   3.13695    0.000
 4487.00  186.27399   3.29343    0.000
 4488.00  202.73280   3.45380    0.000
 4489.00  196.31213   3.54251    0.000
 4490.00  218.02892   3.52680    0.000
 4491.00  265.98468   3.42404    0.000
 4492.00  265.03064   3.29685    0.000
 4493.00  223.86783   3.21715    0.000
 4494.00  174.46024   3.21220    0.000
 4495.00  119.08662   3.24261    0.000
 4496.00  151.66232   3.23990    0.000
 4497.00  240.10527   3.17995    0.000
 4498.00  320.73563   3.10670    0.000
 4499.00  397.02643   3.09421    0.000
 4500.00  390.91364   3.17236    0.000
 4501.00  344.99091   3.30586    0.000
 4502.00  288.07468   3.43251    0.000
 4503.00  226.57207   3.51135    0.000
 4504.00  210.95406   3.55862    0.000
 4505.00  211.71181   3.62189    0.000
 4506.00  222.70789   3.72959    0.000
 4507.00  236.79091   3.85213    0.000
 4508.00  263.21997   3.92476    0.000
 4509.00  292.74133   3.92326    0.000
 4510.00  301.80154   3.87936    0.000
 4511.00  306.70245   3.84045    0.000
 4512.00  290.10239   3.83069    0.000
 4513.00  270.07239   3.83340    0.000
 4514.00  184.10460   3.81342    0.000
 4515.00   90.30070   3.75122    0.000
 4516.00  125.77797   3.66198    0.000
 4517.00  171.71596   3.58706    0.000
 4518.00  184.02711   3.55374    0.000
 4519.00  194.80908   3.55674    0.000
 4520.00  135.88367   3.57820    0.000
 4521.00   78.66382   3.61145    0.000
 4522.00  152.15292   3.66718    0.000
 4523.00  220.50024   3.74323    0.000
 4524.00  192.34122   3.79811    0.000
 4525.00  167.00053   3.79272    0.000
 4526.00  173.23457   3.71859    0.000
 4527.00  180.58131   3.59655    0.000
 4528.00  196.63574   3.45064    0.000
 4529.00  210.81123   3.28711    0.000
 4530.00  213.87726   3.12646    0.000
 4531.00  208.19518   3.00756    0.000
 4532.00  161.56314   2.96102    0.000
 4533.00  130.54881   2.99126    0.000
 4534.00  159.22401   3.07074    0.000
 4535.00  194.65546   3.14906    0.000
 4536.00  251.62941   3.19081    0.000
 4537.00  286.22989   3.19616    0.000
 4538.00  260.37204   3.21845    0.000
 4539.00  244.97368   3.31690    0.000
 4540.00  253.81105   3.48488    0.000
 4541.00  250.63258   3.64648    0.000
 4542.00  223.36774   3.71834    0.000
 4543.00  207.29448   3.70023    0.000
 4544.00  210.75981   3.65721    0.000
 4545.00  186.83888   3.64235    0.000
 4546.00  121.06821   3.65585    0.000
 4547.00  101.06187   3.66330    0.000
 4548.00  142.49042   3.64677    0.000
 4549.00  168.50616   3.62290    0.000
 4550.00  176.30211   3.60906    0.000
 4551.00  177.55257   3.59923    0.000
 4552.00  171.98030   3.58966    0.000
 4553.00  163.08220   3.58715    0.000
 4554.00  151.12631   3.59525    0.000
 4555.00  137.12137   3.59807    0.000
 4556.00  121.45580   3.57955    0.000
 4557.00  131.48378   3.56243    0.000
 4558.00  159.83580   3.58829    0.000
 4559.00  178.95549   3.68206    0.000
 4560.00  192.29738   3.82989    0.000
 4561.00  207.54291   3.98173    0.000
 4562.00  223.82962   4.08748    0.000
 4563.00  190.49585   4.13187    0.000
 4564.00  133.57364   4.12246    0.000
 4565.00  146.69034   4.06846    0.000
 4566.00  188.53229   3.97697    0.000
 4567.00  231.99738   3.87336    0.000
 4568.00  276.03125   3.81504    0.000
 4569.00  269.51941   3.84790    0.000
 4570.00  248.06888   3.95843    0.000
 4571.00  229.98012   4.07906    0.000
 4572.00  212.71486   4.13442    0.000
 4573.00  162.70428   4.10448    0.000
 4574.00  106.20406   4.03775    0.000
 4575.00  134.28770   4.00219    0.000
 4576.00  175.46445   4.03347    0.000
 4577.00  171.86024   4.10404    0.000
 4578.00  163.13156   4.15498    0.000
 4579.00  169.80908   4.15836    0.000
 4580.00  177.66985   4.11357    0.000
 4581.00  147.33369   4.02355    0.000
 4582.00  115.40753   3.90602    0.000
 4583.00  163.78680   3.80137    0.000
 4584.00  212.15570   3.75473    0.000
 4585.00  230.15533   3.77614    0.000
 4586.00  244.56764   3.82846    0.000
 4587.00  196.28055   3.86409    0.000
 4588.00  148.94606   3.87547    0.000
 4589.00  111.80338   3.89876    0.000
 4590.00   94.45113   3.96918    0.000
 4591.00  226.69086   4.08172    0.000
 4592.00  335.03140   4.18264    0.000
 4593.00  306.00720   4.21479    0.000
 4594.00  268.11139   4.16526    0.000
 4595.00  189.67966   4.06839    0.000
 4596.00  126.26768   3.97226    0.000
 4597.00  119.04667   3.90429    0.000
 4598.00  106.86242   3.86816    0.000
 4599.00   79.15584   3.86116    0.000
 4600.00   66.66690   3.88086    0.000
 4601.00   94.57204   3.91540    0.000
 4602.00  116.70845   3.94699    0.000
 4603.00  125.69987   3.96489    0.000
 4604.00  129.16713   3.97021    0.000
 4605.00  121.73524   3.97605    0.000
 4606.00  110.02327   3.98553    0.000
 4607.00   90.95193   3.99425    0.000
 4608.00  105.12477   4.01780    0.000
 4609.00  169.35493   4.08626    0.000
 4610.00  186.06563   4.22056    0.000
 4611.00  139.89919   4.39628    0.000
 4612.00  123.20488   4.54817    0.000
 4613.00  140.85811   4.61666    0.000
 4614.00  154.88585   4.59234    0.000
 4615.00  165.18761   4.52103    0.000
 4616.00  175.45108   4.46535    0.000
 4617.00  185.67986   4.46097    0.000
 4618.00  185.58739   4.50505    0.000
 4619.00  177.24889   4.56651    0.000
 4620.00  152.16475   4.61018    0.000
 4621.00  115.31066   4.62431    0.000
 4622.00  109.16706   4.61809    0.000
 4623.00  121.95765   4.61301    0.000
 4624.00  153.25166   4.62367    0.000
 4625.00  194.51054   4.64005    0.000
 4626.00  183.69731   4.64341    0.000
 4627.00  148.52866   4.62969    0.000
 4628.00  162.80656   4.60578    0.000
 4629.00  197.01840   4.58316    0.000
 4630.00  204.04747   4.57217    0.000
 4631.00  201.72568   4.57343    0.000
 4632.00  209.84843   4.58307    0.000
 4633.00  220.99638   4.59951    0.000
 4634.00  196.91959   4.61539    0.000
 4635.00  164.40598   4.60970    0.000
 4636.00  181.71541   4.56707    0.000
 4637.00  208.64740   4.50078    0.000
 4638.00  185.06470   4.43525    0.000
 4639.00  153.89970   4.37496    0.000
 4640.00  179.11150   4.30938    0.000
 4641.00  210.52831   4.23765    0.000
 4642.00  192.71782   4.18235    0.000
 4643.00  171.32751   4.17194    0.000
 4644.00  202.04117   4.21134    0.000
 4645.00  234.72472   4.26937    0.000
 4646.00  195.18994   4.29114    0.000
 4647.00  157.03525   4.23875    0.000
 4648.00  183.61891   4.11871    0.000
 4649.00  207.63611   3.97693    0.000
 4650.00  189.70316   3.87779    0.000
 4651.00  174.61549   3.87216    0.000
 4652.00  188.64793   3.96664    0.000
 4653.00  199.90723   4.12329    0.000
 4654.00  190.90155   4.28554    0.000
 4655.00  181.85413   4.40282    0.000
 4656.00  172.57329   4.44656    0.000
 4657.00  165.92082   4.42084    0.000
 4658.00  170.99532   4.36772    0.000
 4659.00  175.07304   4.35474    0.000
 4660.00  175.49951   4.43144    0.000
 4661.00  175.20900   4.59273    0.000
 4662.00  172.71870   4.77599    0.000
 4663.00  178.03204   4.89651    0.000
 4664.00  203.69604   4.90198    0.000
 4665.00  215.18321   4.80057    0.000
 4666.00  194.89836   4.64323    0.000
 4667.00  161.46101   4.47467    0.000
 4668.00  102.48044   4.30233    0.000
 4669.00   80.84995   4.11861    0.000
 4670.00  122.47402   3.95128    0.000
 4671.00  161.62955   3.87113    0.000
 4672.00  197.12238   3.93115    0.000
 4673.00  207.40915   4.10723    0.000
 4674.00  184.82050   4.31108    0.000
 4675.00  166.41495   4.45988    0.000
 4676.00  152.81573   4.53023    0.000
 4677.00  142.30894   4.55647    0.000
 4678.00  134.93568   4.58398    0.000
 4679.00  145.89792   4.62284    0.000
 4680.00  173.24713   4.64310    0.000
 4681.00  176.67947   4.61089    0.000
 4682.00  161.27559   4.52858    0.000
 4683.00  192.92513   4.43522    0.000
 4684.00  257.16766   4.37811    0.000
 4685.00  231.99113   4.38461    0.000
 4686.00  152.50536   4.44867    0.000
 4687.00  153.39104   4.53490    0.000
 4688.00  196.89148   4.60130    0.000
 4689.00  166.67943   4.62578    0.000
 4690.00  102.54846   4.61422    0.000
 4691.00  119.73032   4.58889    0.000
 4692.00  169.12978   4.56910    0.000
 4693.00  198.58382   4.55973    0.000
 4694.00  221.30333   4.55872    0.000
 4695.00  188.76938   4.57216    0.000
 4696.00  140.55489   4.61248    0.000
 4697.00  119.54778   4.68190    0.000
 4698.00  104.91013   4.75855    0.000
 4699.00  106.64269   4.79993    0.000
 4700.00  111.45492   4.77015    0.000
 4701.00  153.61690   4.67260    0.000
 4702.00  201.21124   4.55326    0.000
 4703.00  205.60413   4.46165    0.000
 4704.00  205.42952   4.41308    0.000
 4705.00  218.80014   4.39752    0.000
 4706.00  233.10091   4.40913    0.000
 4707.00  225.81506   4.44902    0.000
 4708.00  217.79498   4.50177    0.000
 4709.00  239.73006   4.53502    0.000
 4710.00  258.88568   4.53165    0.000
 4711.00  186.13010   4.51315    0.000
 4712.00  119.70309   4.52202    0.000
 4713.00  150.38031   4.58200    0.000
 4714.00  176.40623   4.67227    0.000
 4715.00  156.82426   4.74024    0.000
 4716.00  138.02910   4.75106    0.000
 4717.00  124.79715   4.72566    0.000
 4718.00  120.55697   4.72826    0.000
 4719.00  165.23676   4.80809    0.000
 4720.00  200.14372   4.95716    0.000
 4721.00  192.45799   5.12763    0.000
 4722.00  168.50359   5.27180    0.000
 4723.00   86.18659   5.36231    0.000
 4724.00   35.97901   5.39407    0.000
 4725.00   82.43552   5.38486    0.000
 4726.00  117.50895   5.36836    0.000
 4727.00  123.41413   5.36242    0.000
 4728.00  150.54816   5.33923    0.000
 4729.00  224.47952   5.24552    0.000
 4730.00  275.52530   5.06113    0.000
 4731.00  282.81830   4.83724    0.000
 4732.00  260.98676   4.66292    0.000
 4733.00  190.57060   4.59870    0.000
 4734.00  154.95653   4.64384    0.000
 4735.00  170.22809   4.75352    0.000
 4736.00  199.27103   4.87475    0.000
 4737.00  246.01932   4.96984    0.000
 4738.00  238.06274   5.02494    0.000
 4739.00  168.13750   5.05045    0.000
 4740.00  147.69427   5.07937    0.000
 4741.00  176.68735   5.13665    0.000
 4742.00  188.15471   5.20920    0.000
 4743.00  184.17938   5.26309    0.000
 4744.00  187.36597   5.28399    0.000
 4745.00  196.11269   5.29127    0.000
 4746.00  205.94896   5.30930    0.000
 4747.00  216.52898   5.34156    0.000
 4748.00  239.83786   5.38311    0.000
 4749.00  270.76215   5.43452    0.000
 4750.00  248.58208   5.49092    0.000
 4751.00  198.68193   5.53832    0.000
 4752.00  182.14951   5.56246    0.000
 4753.00  180.72122   5.55623    0.000
 4754.00  172.90269   5.51792    0.000
 4755.00  162.59602   5.44981    0.000
 4756.00  172.70981   5.36660    0.000
 4757.00  189.58998   5.29232    0.000
 4758.00  175.29356   5.24937    0.000
 4759.00  152.33018   5.24360    0.000
 4760.00  167.30830   5.26819    0.000
 4761.00  190.96550   5.30894    0.000
 4762.00  180.90451   5.34641    0.000
 4763.00  164.66780   5.35556    0.000
 4764.00  152.57980   5.31377    0.000
 4765.00  141.07608   5.22105    0.000
 4766.00  119.41818   5.10092    0.000
 4767.00   96.73043   4.98151    0.000
 4768.00  126.68094   4.88798    0.000
 4769.00  160.03441   4.84739    0.000
 4770.00  161.44379   4.88651    0.000
 4771.00  161.95810   5.00540    0.000
 4772.00  198.06622   5.16296    0.000
 4773.00  231.84065   5.29614    0.000
 4774.00  197.99112   5.36796    0.000
 4775.00  167.59883   5.39919    0.000
 4776.00  187.16849   5.43909    0.000
 4777.00  204.67279   5.51705    0.000
 4778.00  202.74620   5.61550    0.000
 4779.00  204.96103   5.69869    0.000
 4780.00  235.53154   5.74952    0.000
 4781.00  257.70190   5.76593    0.000
 4782.00  235.37466   5.75036    0.000
 4783.00  214.49777   5.70176    0.000
 4784.00  199.79738   5.62094    0.000
 4785.00  192.54758   5.51973    0.000
 4786.00  211.48091   5.42120    0.000
 4787.00  224.25066   5.35249    0.000
 4788.00  218.81064   5.32218    0.000
 4789.00  209.12865   5.31680    0.000
 4790.00  188.76492   5.32498    0.000
 4791.00  161.14890   5.33981    0.000
 4792.00  117.80595   5.36370    0.000
 4793.00  104.38820   5.40729    0.000
 4794.00  147.29419   5.48433    0.000
 4795.00  176.31050   5.60951    0.000
 4796.00  182.50270   5.77817    0.000
 4797.00  167.93102   5.95170    0.000
 4798.00  123.44057   6.07393    0.000
 4799.00  123.42197   6.10004    0.000
 4800.00  179.76466   6.02648    0.000
 4801.00  223.24895   5.89466    0.000
 4802.00  252.37262   5.77307    0.000
 4803.00  249.26871   5.72417    0.000
 4804.00  214.41896   5.77104    0.000
 4805.00  212.86714   5.87950    0.000
 4806.00  240.24188   5.97585    0.000
 4807.00  236.69556   5.99720    0.000
 4808.00  209.48628   5.93277    0.000
 4809.00  194.06958   5.82371    0.000
 4810.00  186.58536   5.72140    0.000
 4811.00  200.58238   5.66722    0.000
 4812.00  227.23836   5.67611    0.000
 4813.00  203.40465   5.73376    0.000
 4814.00  153.62675   5.80776    0.000
 4815.00  146.70959   5.86680    0.000
 4816.00  158.87566   5.90257    0.000
 4817.00  165.64008   5.93222    0.000
 4818.00  170.33795   5.97750    0.000
 4819.00  153.53253   6.04941    0.000
 4820.00  129.73595   6.14174    0.000
 4821.00  142.59019   6.23422    0.000
 4822.00  165.42265   6.30207    0.000
 4823.00  176.89217   6.31605    0.000
 4824.00  185.82275   6.25828    0.000
 4825.00  205.51755   6.13280    0.000
 4826.00  227.13084   5.97935    0.000
 4827.00  168.41629   5.86918    0.000
 4828.00   98.75729   5.84650    0.000
 4829.00  112.14107   5.89496    0.000
 4830.00  133.59264   5.95672    0.000
 4831.00  160.39058   5.98238    0.000
 4832.00  187.51282   5.96739    0.000
 4833.00  174.25348   5.93049    0.000
 4834.00  160.16946   5.88510    0.000
 4835.00  190.30217   5.85339    0.000
 4836.00  218.72644   5.86528    0.000
 4837.00  202.55055   5.92978    0.000
 4838.00  185.64703   6.02232    0.000
 4839.00  158.81061   6.09411    0.000
 4840.00  139.25105   6.11256    0.000
 4841.00  185.46579   6.07309    0.000
 4842.00  225.98529   5.99745    0.000
 4843.00  228.71628   5.92111    0.000
 4844.00  228.83740   5.87442    0.000
 4845.00  215.49120   5.86858    0.000
 4846.00  210.76038   5.90015    0.000
 4847.00  241.89339   5.96986    0.000
 4848.00  265.89542   6.06458    0.000
 4849.00  265.34299   6.14894    0.000
 4850.00  248.57661   6.18083    0.000
 4851.00  184.79105   6.15033    0.000
 4852.00  128.07777   6.10312    0.000
 4853.00   88.86784   6.08909    0.000
 4854.00   76.01456   6.10872    0.000
 4855.00  119.39211   6.12356    0.000
 4856.00  154.90129   6.08517    0.000
 4857.00  175.82967   5.97743    0.000
 4858.00  195.83913   5.83920    0.000
 4859.00  214.36104   5.72815    0.000
 4860.00  209.64362   5.66357    0.000
 4861.00  171.92552   5.59978    0.000
 4862.00  158.27492   5.46998    0.000
 4863.00  174.69240   5.26194    0.000
 4864.00  196.01509   5.05837    0.000
 4865.00  222.73897   4.97560    0.000
 4866.00  220.51131   5.05632    0.000
 4867.00  190.16515   5.25220    0.000
 4868.00  170.00369   5.48207    0.000
 4869.00  158.56502   5.67371    0.000
 4870.00  161.75751   5.79961    0.000
 4871.00  175.98668   5.84753    0.000
 4872.00  168.15469   5.80724    0.000
 4873.00  145.69960   5.68153    0.000
 4874.00  145.38846   5.51936    0.000
 4875.00  157.93024   5.41011    0.000
 4876.00  175.33073   5.41885    0.000
 4877.00  195.18874   5.54230    0.000
 4878.00  174.55424   5.71998    0.000
 4879.00  136.18834   5.89514    0.000
 4880.00  122.82197   6.05090    0.000
 4881.00  118.85175   6.19130    0.000
 4882.00  112.90309   6.30799    0.000
 4883.00  106.32343   6.36055    0.000
 4884.00  104.84857   6.33811    0.000
 4885.00  104.73445   6.27049    0.000
 4886.00  142.82304   6.18861    0.000
 4887.00  189.24634   6.09976    0.000
 4888.00  205.91536   5.99462    0.000
 4889.00  217.42659   5.88224    0.000
 4890.00  190.84708   5.79655    0.000
 4891.00  159.25092   5.74750    0.000
 4892.00  157.18083   5.70614    0.000
 4893.00  157.85417   5.65083    0.000
 4894.00  178.34619   5.62542    0.000
 4895.00  199.96190   5.72936    0.000
 4896.00  170.42972   5.99779    0.000
 4897.00  140.11325   6.37438    0.000
 4898.00  151.55884   6.74207    0.000
 4899.00  163.47888   6.99506    0.000
 4900.00  186.66147   7.10410    0.000
 4901.00  206.14923   7.09036    0.000
 4902.00  177.86264   6.99267    0.000
 4903.00  149.49539   6.86445    0.000
 4904.00  120.42693   6.75261    0.000
 4905.00   99.63842   6.67359    0.000
 4906.00  132.12759   6.63812    0.000
 4907.00  154.69781   6.65968    0.000
 4908.00  127.38658   6.73764    0.000
 4909.00  114.38812   6.83373    0.000
 4910.00  159.64653   6.87232    0.000
 4911.00  181.36209   6.80326    0.000
 4912.00  123.62825   6.64469    0.000
 4913.00   90.03324   6.47726    0.000
 4914.00  125.15928   6.39005    0.000
 4915.00  156.37383   6.41902    0.000
 4916.00  178.07257   6.54091    0.000
 4917.00  188.21773   6.69842    0.000
 4918.00  174.11015   6.82120    0.000
 4919.00  156.72896   6.83364    0.000
 4920.00  133.37465   6.67953    0.000
 4921.00  127.99878   6.35804    0.000
 4922.00  151.29436   5.96098    0.000
 4923.00  158.93298   5.64202    0.000
 4924.00  144.65953   5.52882    0.000
 4925.00  162.87080   5.63887    0.000
 4926.00  221.08987   5.87443    0.000
 4927.00  211.21893   6.12096    0.000
 4928.00  127.42766   6.33388    0.000
 4929.00   86.87019   6.53852    0.000
 4930.00   87.71294   6.75598    0.000
 4931.00   97.26440   6.98044    0.000
 4932.00  114.16914   7.17882    0.000
 4933.00  126.79353   7.30023    0.000
 4934.00  136.23543   7.32120    0.000
 4935.00  174.24100   7.23694    0.000
 4936.00  230.90231   7.07341    0.000
 4937.00  231.38675   6.90548    0.000
 4938.00  199.75771   6.78243    0.000
 4939.00  157.63773   6.67802    0.000
 4940.00  110.29507   6.54719    0.000
 4941.00  102.86086   6.39288    0.000
 4942.00  112.61224   6.29791    0.000
 4943.00  137.68709   6.35750    0.000
 4944.00  168.41930   6.57537    0.000
 4945.00  161.64108   6.86322    0.000
 4946.00  143.12865   7.12387    0.000
 4947.00  163.57887   7.29319    0.000
 4948.00  194.19496   7.36270    0.000
 4949.00  172.77530   7.37994    0.000
 4950.00  140.27464   7.40208    0.000
 4951.00  158.72520   7.45345    0.000
 4952.00  185.76111   7.52867    0.000
 4953.00  178.76584   7.60164    0.000
 4954.00  167.44194   7.64390    0.000
 4955.00  189.08600   7.62713    0.000
 4956.00  213.65466   7.53699    0.000
 4957.00  177.82933   7.36809    0.000
 4958.00  138.81723   7.11585    0.000
 4959.00  117.06024   6.79391    0.000
 4960.00   96.37564   6.46460    0.000
 4961.00  133.87791   6.27339    0.000
 4962.00  166.95540   6.32321    0.000
 4963.00  103.80173   6.57108    0.000
 4964.00   52.34820   6.87920    0.000
 4965.00  144.53337   7.10800    0.000
 4966.00  223.32753   7.19772    0.000
 4967.00  189.98853   7.15366    0.000
 4968.00  157.78152   7.01724    0.000
 4969.00  132.64296   6.86007    0.000
 4970.00  113.04269   6.74847    0.000
 4971.00  120.59742   6.71601    0.000
 4972.00  131.29549   6.76955    0.000
 4973.00  154.50722   6.88048    0.000
 4974.00  176.20952   7.02275    0.000
 4975.00  192.91847   7.17577    0.000
 4976.00  204.80367   7.31055    0.000
 4977.00  203.20486   7.40697    0.000
 4978.00  198.97626   7.43995    0.000
 4979.00  188.45808   7.39735    0.000
 4980.00  173.70161   7.28727    0.000
 4981.00  150.19057   7.12339    0.000
 4982.00  127.68720   6.93629    0.000
 4983.00  106.99430   6.74171    0.000
 4984.00  109.95291   6.53008    0.000
 4985.00  150.07265   6.30812    0.000
 4986.00  183.73689   6.13200    0.000
 4987.00  208.49689   6.07417    0.000
 4988.00  203.86380   6.16426    0.000
 4989.00  163.54378   6.37599    0.000
 4990.00  133.13048   6.63969    0.000
 4991.00  113.32104   6.86618    0.000
 4992.00  116.56453   7.00558    0.000
 4993.00  141.57323   7.05869    0.000
 4994.00  153.09618   7.05952    0.000
 4995.00  153.39337   7.06178    0.000
 4996.00  140.98622   7.07995    0.000
 4997.00  119.26883   7.10630    0.000
 4998.00  111.98595   7.14381    0.000
 4999.00  113.99210   7.17133    0.000
 5000.00  111.05099   7.16277    0.000
 5001.00  105.32474   7.09793    0.000
 5002.00  106.72477   6.96347    0.000
 5003.00  111.61625   6.79557    0.000
 5004.00  119.83522   6.64942    0.000
 5005.00  129.46315   6.54948    0.000
 5006.00  135.79326   6.48520    0.000
 5007.00  140.92754   6.41903    0.000
 5008.00  150.34134   6.33292    0.000
 5009.00  161.06793   6.26607    0.000
 5010.00  115.72997   6.28930    0.000
 5011.00   56.07762   6.42615    0.000
 5012.00   37.64005   6.60851    0.000
 5013.00   27.76577   6.73113    0.000
 5014.00   92.80177   6.72066    0.000
 5015.00  170.10030   6.57156    0.000
 5016.00  178.28236   6.36330    0.000
 5017.00  177.98221   6.19430    0.000
 5018.00  157.99997   6.13441    0.000
 5019.00  136.35385   6.18898    0.000
 5020.00  161.28249   6.29990    0.000
 5021.00  188.48697   6.41306    0.000
 5022.00  162.48813   6.50390    0.000
 5023.00  136.23224   6.56287    0.000
 5024.00  144.46945   6.59435    0.000
 5025.00  150.95070   6.61423    0.000
 5026.00  122.21471   6.65757    0.000
 5027.00   97.50349   6.74147    0.000
 5028.00  119.80832   6.83597    0.000
 5029.00  139.96388   6.90544    0.000
 5030.00  142.76791   6.93064    0.000
 5031.00  147.83839   6.94882    0.000
 5032.00  166.65140   7.02397    0.000
 5033.00  173.95410   7.16761    0.000
 5034.00  126.20860   7.35759    0.000
 5035.00   85.33712   7.54660    0.000
 5036.00   71.23912   7.66954    0.000
 5037.00   68.90805   7.67552    0.000
 5038.00  104.74269   7.54813    0.000
 5039.00  133.53801   7.33110    0.000
 5040.00  143.00981   7.10268    0.000
 5041.00  137.97874   6.88410    0.000
 5042.00   98.84465   6.65423    0.000
 5043.00   84.05001   6.42238    0.000
 5044.00  118.73061   6.25767    0.000
 5045.00  146.65605   6.27983    0.000
 5046.00  162.62933   6.53662    0.000
 5047.00  172.93965   6.94676    0.000
 5048.00  174.48341   7.37226    0.000
 5049.00  163.32527   7.67104    0.000
 5050.00  134.89891   7.75657    0.000
 5051.00  105.92010   7.63612    0.000
 5052.00   76.28007   7.40116    0.000
 5053.00   86.47890   7.17600    0.000
 5054.00  138.72095   7.05167    0.000
 5055.00  166.50281   7.05903    0.000
 5056.00  171.51529   7.18294    0.000
 5057.00  146.94353   7.37584    0.000
 5058.00   98.09405   7.58286    0.000
 5059.00   79.65855   7.75935    0.000
 5060.00   83.19090   7.88814    0.000
 5061.00  123.48308   7.98200    0.000
 5062.00  187.08234   8.05852    0.000
 5063.00  178.19629   8.12905    0.000
 5064.00  129.12553   8.18128    0.000
 5065.00  131.89206   8.16793    0.000
 5066.00  159.65121   8.04876    0.000
 5067.00  196.61015   7.82600    0.000
 5068.00  237.39900   7.56651    0.000
 5069.00  230.06105   7.37044    0.000
 5070.00  205.58640   7.27935    0.000
 5071.00  184.61766   7.27796    0.000
 5072.00  164.70335   7.33449    0.000
 5073.00  139.99367   7.40918    0.000
 5074.00  114.08621   7.46582    0.000
 5075.00  174.58745   7.49037    0.000
 5076.00  252.59854   7.50452    0.000
 5077.00  220.35109   7.52745    0.000
 5078.00  170.58022   7.55004    0.000
 5079.00  164.08574   7.55099    0.000
 5080.00  162.71031   7.50011    0.000
 5081.00  161.03259   7.36620    0.000
 5082.00  159.33060   7.14976    0.000
 5083.00  194.45131   6.92119    0.000
 5084.00  231.22874   6.77659    0.000
 5085.00  192.98401   6.76228    0.000
 5086.00  154.29402   6.86451    0.000
 5087.00  137.65671   7.03824    0.000
 5088.00  122.83268   7.23513    0.000
 5089.00  141.73088   7.41905    0.000
 5090.00  158.91156   7.57278    0.000
 5091.00  156.96304   7.69281    0.000
 5092.00  153.40674   7.78818    0.000
 5093.00  137.32344   7.87480    0.000
 5094.00  117.51098   7.96465    0.000
 5095.00   75.72836   8.06009    0.000
 5096.00   45.51851   8.14206    0.000
 5097.00   69.31541   8.16887    0.000
 5098.00  100.23506   8.10460    0.000
 5099.00  158.30414   7.94348    0.000
 5100.00  199.21483   7.71518    0.000
 5101.00  185.54845   7.48054    0.000
 5102.00  176.34685   7.31491    0.000
 5103.00  179.18307   7.28328    0.000
 5104.00  176.67622   7.38541    0.000
 5105.00  161.81491   7.54661    0.000
 5106.00  160.56459   7.67807    0.000
 5107.00  186.54385   7.72403    0.000
 5108.00  208.93848   7.68397    0.000
 5109.00  225.08687   7.59348    0.000
 5110.00  222.61035   7.48361    0.000
 5111.00  191.72517   7.38354    0.000
 5112.00  179.10278   7.32390    0.000
 5113.00  190.95235   7.31863    0.000
 5114.00  193.85110   7.38537    0.000
 5115.00  186.18779   7.52245    0.000
 5116.00  164.10149   7.69144    0.000
 5117.00  127.00788   7.86944    0.000
 5118.00  108.24441   8.04125    0.000
 5119.00  106.30412   8.19090    0.000
 5120.00  119.65589   8.31776    0.000
 5121.00  145.37881   8.40036    0.000
 5122.00  146.56773   8.40307    0.000
 5123.00  130.29146   8.30968    0.000
 5124.00  133.62788   8.12141    0.000
 5125.00  149.21545   7.86854    0.000
 5126.00  163.42305   7.59768    0.000
 5127.00  176.87730   7.36339    0.000
 5128.00  145.37747   7.21734    0.000
 5129.00   92.55080   7.16383    0.000
 5130.00  108.91554   7.17125    0.000
 5131.00  153.59702   7.21158    0.000
 5132.00  172.17372   7.27382    0.000
 5133.00  181.62405   7.36849    0.000
 5134.00  185.05690   7.50984    0.000
 5135.00  186.71579   7.68325    0.000
 5136.00  175.91518   7.85339    0.000
 5137.00  162.07095   7.99090    0.000
 5138.00  175.50362   8.07646    0.000
 5139.00  194.32486   8.08289    0.000
 5140.00  119.98554   7.99680    0.000
 5141.00   31.28054   7.85735    0.000
 5142.00   75.57610   7.71588    0.000
 5143.00  135.01843   7.62456    0.000
 5144.00  126.51497   7.60285    0.000
 5145.00  112.82803   7.59967    0.000
 5146.00   85.19728   7.59086    0.000
 5147.00   56.99278   7.58752    0.000
 5148.00   90.00003   7.57304    0.000
 5149.00  122.70118   7.54585    0.000
 5150.00  121.31165   7.52085    0.000
 5151.00  122.50573   7.50444    0.000
 5152.00  168.46910   7.50937    0.000
 5153.00  208.79785   7.52457    0.000
 5154.00  189.18250   7.52025    0.000
 5155.00  170.89168   7.49879    0.000
 5156.00  162.56982   7.49129    0.000
 5157.00  154.49727   7.54007    0.000
 5158.00  147.85251   7.67758    0.000
 5159.00  144.24034   7.89295    0.000
 5160.00  154.44312   8.13773    0.000
 5161.00  162.38979   8.35710    0.000
 5162.00  161.91858   8.50049    0.000
 5163.00  157.40816   8.54970    0.000
 5164.00  140.29578   8.50957    0.000
 5165.00  129.21579   8.36968    0.000
 5166.00  134.11266   8.12420    0.000
 5167.00  148.14923   7.76597    0.000
 5168.00  182.96878   7.28010    0.000
 5169.00  195.20786   6.70924    0.000
 5170.00  162.98415   6.16579    0.000
 5171.00  129.68365   5.78379    0.000
 5172.00   94.53526   5.63160    0.000
 5173.00   88.43943   5.64128    0.000
 5174.00  126.00873   5.66630    0.000
 5175.00  159.89214   5.63091    0.000
 5176.00  188.90724   5.62153    0.000
 5177.00  189.90839   5.79410    0.000
 5178.00  158.31955   6.19890    0.000
 5179.00  145.13657   6.72725    0.000
 5180.00  150.83618   7.21155    0.000
 5181.00  136.21756   7.53090    0.000
 5182.00  103.21333   7.63311    0.000
 5183.00   99.35815   7.51345    0.000
 5184.00  118.74938   7.18918    0.000
 5185.00  141.96982   6.72042    0.000
 5186.00  167.87677   6.24507    0.000
 5187.00  167.67418   5.96584    0.000
 5188.00  151.40424   6.04779    0.000
 5189.00  121.04485   6.48041    0.000
 5190.00   83.11246   7.08944    0.000
 5191.00   93.63210   7.65973    0.000
 5192.00  126.76776   8.03679    0.000
 5193.00  134.26677   8.18003    0.000
 5194.00  131.45294   8.11544    0.000
 5195.00  129.73795   7.91477    0.000
 5196.00  128.40007   7.71410    0.000
 5197.00  139.46036   7.62996    0.000
 5198.00  154.10257   7.68644    0.000
 5199.00  166.85002   7.85566    0.000
 5200.00  179.14494   8.09280    0.000
 5201.00  155.73582   8.33904    0.000
 5202.00  125.45355   8.54968    0.000
 5203.00  139.09081   8.69102    0.000
 5204.00  159.29471   8.72714    0.000
 5205.00  136.20348   8.63618    0.000
 5206.00  108.37066   8.41907    0.000
 5207.00  128.79276   8.09419    0.000
 5208.00  152.69939   7.70060    0.000
 5209.00  164.83452   7.31904    0.000
 5210.00  176.53021   7.04177    0.000
 5211.00  140.20605   6.91253    0.000
 5212.00  104.75198   6.95279    0.000
 5213.00  109.09879   7.18202    0.000
 5214.00  114.83963   7.56563    0.000
 5215.00  143.18253   8.02056    0.000
 5216.00  167.07915   8.43155    0.000
 5217.00  145.71806   8.69271    0.000
 5218.00  126.92809   8.77748    0.000
 5219.00  126.84833   8.75319    0.000
 5220.00  127.19179   8.73793    0.000
 5221.00  129.89316   8.81466    0.000
 5222.00  124.29528   8.98436    0.000
 5223.00   81.77817   9.17618    0.000
 5224.00   54.13267   9.30167    0.000
 5225.00   80.81913   9.29446    0.000
 5226.00  107.57029   9.11711    0.000
 5227.00  134.51945   8.77819    0.000
 5228.00  148.34520   8.34939    0.000
 5229.00  128.02269   7.96019    0.000
 5230.00  106.63905   7.74742    0.000
 5231.00   82.88218   7.80685    0.000
 5232.00   86.54020   8.12148    0.000
 5233.00  143.33517   8.52797    0.000
 5234.00  187.50703   8.85186    0.000
 5235.00  210.34135   9.00592    0.000
 5236.00  213.46744   8.99913    0.000
 5237.00  187.40509   8.95158    0.000
 5238.00  161.67252   8.99138    0.000
 5239.00  136.36935   9.15475    0.000
 5240.00  147.52376   9.40105    0.000
 5241.00  200.49265   9.64072    0.000
 5242.00  225.80363   9.79951    0.000
 5243.00  223.13857   9.86750    0.000
 5244.00  194.12575   9.88232    0.000
 5245.00  141.60696   9.88910    0.000
 5246.00  126.61909   9.90166    0.000
 5247.00  141.13640   9.90126    0.000
 5248.00  173.21257   9.84925    0.000
 5249.00  217.42915   9.70005    0.000
 5250.00  222.06075   9.44972    0.000
 5251.00  202.69539   9.17640    0.000
 5252.00  169.11223   8.97676    0.000
 5253.00  128.00519   8.87087    0.000
 5254.00   93.46813   8.84488    0.000
 5255.00   61.94807   8.89711    0.000
 5256.00   71.42932   8.99755    0.000
 5257.00   97.12064   9.11323    0.000
 5258.00  143.26888   9.23985    0.000
 5259.00  196.30811   9.40906    0.000
 5260.00  184.90952   9.65304    0.000
 5261.00  155.27090   9.91610    0.000
 5262.00  137.67859  10.08398    0.000
 5263.00  122.89829  10.06055    0.000
 5264.00  122.55890   9.80784    0.000
 5265.00  124.92717   9.36625    0.000
 5266.00  115.33998   8.82622    0.000
 5267.00  104.02087   8.29972    0.000
 5268.00  155.80884   7.88832    0.000
 5269.00  214.23471   7.62897    0.000
 5270.00  185.83324   7.49936    0.000
 5271.00  151.51332   7.44912    0.000
 5272.00  148.52399   7.40243    0.000
 5273.00  146.58554   7.36894    0.000
 5274.00  149.12090   7.48692    0.000
 5275.00  152.71939   7.82360    0.000
 5276.00  190.22238   8.26814    0.000
 5277.00  224.02623   8.68650    0.000
 5278.00  201.50612   9.02551    0.000
 5279.00  179.92520   9.30077    0.000
 5280.00  167.50555   9.57930    0.000
 5281.00  152.77565   9.87025    0.000
 5282.00  121.77741  10.07962    0.000
 5283.00   99.62662  10.12433    0.000
 5284.00  125.44862   9.99906    0.000
 5285.00  142.35863   9.78460    0.000
 5286.00  120.54076   9.61217    0.000
 5287.00  106.16393   9.58706    0.000
 5288.00  118.41199   9.75671    0.000
 5289.00  132.27789  10.08834    0.000
 5290.00  151.00270  10.46033    0.000
 5291.00  158.14250  10.75251    0.000
 5292.00  135.66168  10.92955    0.000
 5293.00  122.39309  11.02270    0.000
 5294.00  129.39030  11.06514    0.000
 5295.00  132.61969  11.05800    0.000
 5296.00  128.65987  10.98239    0.000
 5297.00  130.61214  10.82213    0.000
 5298.00  142.40816  10.57220    0.000
 5299.00  133.12328  10.23632    0.000
 5300.00   93.07162   9.85602    0.000
 5301.00   65.02851   9.52895    0.000
 5302.00   52.39656   9.37061    0.000
 5303.00   53.91222   9.42861    0.000
 5304.00   71.42557   9.63306    0.000
 5305.00  118.42963   9.89991    0.000
 5306.00  194.84497  10.21032    0.000
 5307.00  218.98079  10.54685    0.000
 5308.00  197.13277  10.85916    0.000
 5309.00  170.38826  11.09237    0.000
 5310.00  139.84920  11.22033    0.000
 5311.00  138.30925  11.27027    0.000
 5312.00  156.52824  11.30525    0.000
 5313.00  144.12251  11.35298    0.000
 5314.00  113.42930  11.38658    0.000
 5315.00  139.44812  11.37767    0.000
 5316.00  195.01208  11.31996    0.000
 5317.00  200.79729  11.22698    0.000
 5318.00  184.09633  11.12817    0.000
 5319.00  184.77873  11.04128    0.000
 5320.00  192.21475  10.96807    0.000
 5321.00  197.82297  10.91992    0.000
 5322.00  202.82693  10.89585    0.000
 5323.00  178.61075  10.86850    0.000
 5324.00  146.29260  10.81360    0.000
 5325.00  161.58537  10.71003    0.000
 5326.00  187.73727  10.54743    0.000
 5327.00  167.32742  10.32525    0.000
 5328.00  138.41829  10.04877    0.000
 5329.00  144.46681   9.73712    0.000
 5330.00  155.41820   9.39019    0.000
 5331.00  146.75986   9.03483    0.000
 5332.00  136.12318   8.81481    0.000
 5333.00  118.57742   8.90095    0.000
 5334.00  100.58846   9.28024    0.000
 5335.00  136.36292   9.78084    0.000
 5336.00  173.63211  10.25029    0.000
 5337.00  167.44345  10.62565    0.000
 5338.00  161.47380  10.91015    0.000
 5339.00  161.76465  11.09395    0.000
 5340.00  161.52412  11.14682    0.000
 5341.00  153.66013  11.06023    0.000
 5342.00  147.07962  10.86168    0.000
 5343.00  152.51295  10.60403    0.000
 5344.00  157.71468  10.38338    0.000
 5345.00  161.33685  10.32272    0.000
 5346.00  159.74977  10.43804    0.000
 5347.00  130.65945  10.61420    0.000
 5348.00  117.80542  10.74909    0.000
 5349.00  173.89864  10.78782    0.000
 5350.00  209.83682  10.74290    0.000
 5351.00  175.12701  10.68459    0.000
 5352.00  149.11861  10.65167    0.000
 5353.00  148.75763  10.69205    0.000
 5354.00  149.60115  10.85860    0.000
 5355.00  153.47118  11.12799    0.000
 5356.00  153.96150  11.42828    0.000
 5357.00  147.13786  11.70827    0.000
 5358.00  141.06924  11.95758    0.000
 5359.00  136.41895  12.15917    0.000
 5360.00  141.83392  12.28646    0.000
 5361.00  163.75746  12.34378    0.000
 5362.00  177.92810  12.33104    0.000
 5363.00  180.94795  12.24678    0.000
 5364.00  175.19394  12.10555    0.000
 5365.00  158.34035  11.91896    0.000
 5366.00  153.56824  11.71612    0.000
 5367.00  162.26512  11.53582    0.000
 5368.00  181.82626  11.37604   -2.000
 5369.00  212.07031  11.22896   -2.000
 5370.00  228.51787  11.09382   -2.000
 5371.00  233.00140  10.92607   -2.000
 5372.00  241.10545  10.69415   -2.000
 5373.00  251.97517  10.42081   -2.000
 5374.00  243.27272  10.18553   -2.000
 5375.00  221.42885  10.12549   -2.000
 5376.00  207.55293  10.34008   -2.000
 5377.00  198.36365  10.76971   -2.000
 5378.00  180.54788  11.23503   -2.000
 5379.00  158.30817  11.60071   -2.000
 5380.00  133.28926  11.81109   -2.000
 5381.00  107.03552  11.88990   -2.000
 5382.00  119.15060  11.91320   -2.000
 5383.00  145.91216  11.90701    0.000
 5384.00  146.81531  11.85610    0.000
 5385.00  139.33144  11.77825    0.000
 5386.00  159.99831  11.70554    0.000
 5387.00  188.30902  11.66141    0.000
 5388.00  195.81854  11.67276    0.000
 5389.00  198.69408  11.71914    0.000
 5390.00  154.21057  11.73160    0.000
 5391.00  101.31532  11.67152    0.000
 5392.00   91.44694  11.53789    0.000
 5393.00   87.41625  11.35021    0.000
 5394.00  125.79528  11.15775    0.000
 5395.00  168.27191  11.00862    0.000
 5396.00  136.59413  10.91037    0.000
 5397.00  100.45525  10.82808    0.000
 5398.00  144.62312  10.72436    0.000
 5399.00  190.57985  10.60221    0.000
 5400.00  186.14529  10.48322    0.000
 5401.00  181.30699  10.42957    0.000
 5402.00  166.05814  10.53403    0.000
 5403.00  152.36278  10.76325    0.000
 5404.00  159.72806  10.97692    0.000
 5405.00  164.43097  11.08090    0.000
 5406.00  145.18752  11.02562    0.000
 5407.00  128.22285  10.78933    0.000
 5408.00  126.31976  10.44497    0.000
 5409.00  125.72665  10.14005    0.000
 5410.00  131.87138   9.99640    0.000
 5411.00  135.48380  10.04406    0.000
 5412.00  128.58464  10.21089    0.000
 5413.00  132.77202  10.40885    0.000
 5414.00  175.03752  10.63223    0.000
 5415.00  199.14400  10.92014    0.000
 5416.00  170.71283  11.24709    0.000
 5417.00  157.06686  11.54829    0.000
 5418.00  179.93420  11.79068    0.000
 5419.00  182.92215  11.98002    0.000
 5420.00  143.58456  12.13265    0.000
 5421.00  133.87248  12.23087    0.000
 5422.00  178.95262  12.24550    0.000
 5423.00  202.80421  12.18433    0.000
 5424.00  192.35590  12.07857    0.000
 5425.00  184.49792  11.97389    0.000
 5426.00  180.31163  11.90691    0.000
 5427.00  167.45444  11.86984    0.000
 5428.00  143.78387  11.86688    0.000
 5429.00  130.26613  11.92045    0.000
 5430.00  127.90796  11.97479    0.000
 5431.00  132.96762  11.93814    0.000
 5432.00  145.21890  11.76608    0.000
 5433.00  142.33398  11.49216    0.000
 5434.00  126.50861  11.25197    0.000
 5435.00  129.35695  11.13063    0.000
 5436.00  146.26591  11.05877    0.000
 5437.00  141.31456  10.98365    0.000
 5438.00  121.90002  10.94540    0.000
 5439.00  137.87340  11.01334    0.000
 5440.00  174.34778  11.23738    0.000
 5441.00  181.79720  11.60740    0.000
 5442.00  174.59508  12.05359    0.000
 5443.00  166.77435  12.47459    0.000
 5444.00  158.68335  12.78610    0.000
 5445.00  165.48323  12.94366    0.000
 5446.00  177.86743  12.92890    0.000
 5447.00  175.57672  12.73576    0.000
 5448.00  168.61684  12.38211    0.000
 5449.00  151.70744  11.94488    0.000
 5450.00  132.15300  11.55341    0.000
 5451.00  135.39915  11.35482    0.000
 5452.00  143.60477  11.42278    0.000
 5453.00  161.76213  11.66733    0.000
 5454.00  181.63852  11.91376    0.000
 5455.00  178.99129  12.02847    0.000
 5456.00  173.39040  11.95971    0.000
 5457.00  159.76656  11.74553    0.000
 5458.00  145.40149  11.48759    0.000
 5459.00  161.83038  11.30852    0.000
 5460.00  179.98997  11.31968    0.000
 5461.00  195.29286  11.53436    0.000
 5462.00  210.12964  11.82758    0.000
 5463.00  183.06398  12.03920    0.000
 5464.00  156.59143  12.08602    0.000
 5465.00  144.03845  12.00044    0.000
 5466.00  131.94574  11.87334    0.000
 5467.00  125.76536  11.78932    0.000
 5468.00  118.62222  11.81290    0.000
 5469.00  103.14790  11.93274    0.000
 5470.00   97.88455  12.06531    0.000
 5471.00  158.07498  12.15399    0.000
 5472.00  209.35411  12.18808    0.000
 5473.00  215.96231  12.15829    0.000
 5474.00  218.24077  12.06880    0.000
 5475.00  202.94499  11.95828    0.000
 5476.00  186.26929  11.84214    0.000
 5477.00  164.94844  11.68813    0.000
 5478.00  152.71063  11.50241   -2.000
 5479.00  166.27200  11.33485   -2.000
 5480.00  159.32854  11.21582   -2.000
 5481.00  102.60831  11.18976   -2.000
 5482.00   80.66514  11.29050   -2.000
 5483.00  131.57625  11.45132   -2.000
 5484.00  202.47095  11.56344   -2.000
 5485.00  309.75754  11.61736   -2.000
 5486.00  444.47885  11.70182   -2.000
 5487.00  622.87036  11.86919   -2.000
 5488.00  723.52582  12.07743   -2.000
 5489.00  715.58673  12.24675   -2.000
 5490.00  667.85333  12.31128   -2.000
 5491.00  571.19751  12.26678   -2.000
 5492.00  412.50891  12.19872   -2.000
 5493.00  186.59517  12.18970   -2.000
 5494.00   76.75409  12.23474   -2.000
 5495.00   77.86602  12.30047   -2.000
 5496.00  109.41417  12.36275   -2.000
 5497.00  166.61565  12.38804   -2.000
 5498.00  169.53513  12.37457   -2.000
 5499.00  132.16801  12.36109   -2.000
 5500.00  100.49980  12.36201   -2.000
 5501.00   72.54678  12.36798   -2.000
 5502.00   89.69319  12.39365    0.000
 5503.00  132.57137  12.43733    0.000
 5504.00  131.14787  12.44071    0.000
 5505.00  107.71389  12.36743    0.000
 5506.00  122.20682  12.25650    0.000
 5507.00  152.99767  12.15542    0.000
 5508.00  157.92188  12.07969    0.000
 5509.00  153.31767  12.03218    0.000
 5510.00  133.56219  12.01730    0.000
 5511.00  109.07856  12.05665    0.000
 5512.00  146.09067  12.14518    0.000
 5513.00  199.10452  12.20521    0.000
 5514.00  166.17513  12.16717    0.000
 5515.00  115.00014  12.03698    0.000
 5516.00  142.47491  11.87145    0.000
 5517.00  183.15472  11.75631    0.000
 5518.00  154.96315  11.76367    0.000
 5519.00  118.05020  11.90693    0.000
 5520.00  124.53772  12.15198    0.000
 5521.00  134.85252  12.44686    0.000
 5522.00  147.52161  12.73818    0.000
 5523.00  160.31377  12.97097    0.000
 5524.00  106.45134  13.10560    0.000
 5525.00   52.49113  13.14938    0.000
 5526.00   85.25113  13.13532    0.000
 5527.00  116.14361  13.07779    0.000
 5528.00  106.84470  12.96743    0.000
 5529.00   99.58608  12.79481    0.000
 5530.00  117.21707  12.58272    0.000
 5531.00  135.86884  12.38697    0.000
 5532.00  163.02876  12.27422    0.000
 5533.00  187.53680  12.29959    0.000
 5534.00  195.54727  12.45419    0.000
 5535.00  192.51067  12.64095    0.000
 5536.00  135.47865  12.76365    0.000
 5537.00   92.88097  12.80661    0.000
 5538.00  107.58851  12.79983    0.000
 5539.00  123.87549  12.77731    0.000
 5540.00  145.37445  12.78237    0.000
 5541.00  155.46727  12.84320    0.000
 5542.00  133.74901  12.94936    0.000
 5543.00  121.49319  13.07992    0.000
 5544.00  131.81999  13.20969    0.000
 5545.00  141.58569  13.29803    0.000
 5546.00  150.19469  13.31551    0.000
 5547.00  151.10803  13.27283    0.000
 5548.00  138.22121  13.22340    0.000
 5549.00  139.52454  13.22122    0.000
 5550.00  163.08186  13.27851    0.000
 5551.00  169.87422  13.39121    0.000
 5552.00  153.58401  13.54938    0.000
 5553.00  142.45566  13.70162    0.000
 5554.00  137.58325  13.78530    0.000
 5555.00  125.01087  13.78084    0.000
 5556.00  104.21129  13.70478    0.000
 5557.00   87.91809  13.58786    0.000
 5558.00   75.87201  13.47125    0.000
 5559.00   70.35622  13.39343    0.000
 5560.00   70.26665  13.36657    0.000
 5561.00   77.09856  13.36753    0.000
 5562.00   88.99361  13.36783    0.000
 5563.00  106.50193  13.35691    0.000
 5564.00  127.61584  13.32687    0.000
 5565.00  160.47824  13.26994    0.000
 5566.00  199.94197  13.19097    0.000
 5567.00  184.17734  13.10571    0.000
 5568.00  141.40845  13.03439    0.000
 5569.00  137.43051  12.97814    0.000
 5570.00  149.84300  12.92154    0.000
 5571.00  134.65637  12.88020    0.000
 5572.00  109.48486  12.88131    0.000
 5573.00  117.35555  12.90771    0.000
 5574.00  135.33740  12.93883    0.000
 5575.00  123.31904  12.98526    0.000
 5576.00  103.66197  13.03691    0.000
 5577.00  108.29388  13.07841    0.000
 5578.00  117.95670  13.15222    0.000
 5579.00  146.69635  13.27304    0.000
 5580.00  178.54736  13.38477    0.000
 5581.00  190.90173  13.46759    0.000
 5582.00  200.87428  13.53423    0.000
 5583.00  161.03568  13.56950    0.000
 5584.00  117.01206  13.57152    0.000
 5585.00  102.88898  13.54360    0.000
 5586.00   90.21240  13.45982    0.000
 5587.00  102.40927  13.30479    0.000
 5588.00  114.61008  13.07818    0.000
 5589.00  104.90034  12.77839    0.000
 5590.00   97.16565  12.44024    0.000
 5591.00  128.65733  12.14159    0.000
 5592.00  160.17441  11.96581    0.000
 5593.00  191.98643  11.95753    0.000
 5594.00  216.40273  12.09187    0.000
 5595.00  181.38036  12.30184    0.000
 5596.00  151.94992  12.52344    0.000
 5597.00  156.30215  12.72812    0.000
 5598.00  155.55626  12.91668    0.000
 5599.00  130.50371  13.08617    0.000
 5600.00  107.20745  13.22032    0.000
 5601.00   90.73315  13.26740    0.000
 5602.00   83.60319  13.17404    0.000
 5603.00  106.70691  12.98436    0.000
 5604.00  126.05418  12.80286    0.000
 5605.00  135.11298  12.69731    0.000
 5606.00  135.74500  12.70843    0.000
 5607.00  116.60360  12.87239    0.000
 5608.00  107.23686  13.18088    0.000
 5609.00  117.69945  13.56598    0.000
 5610.00  126.28089  13.92257    0.000
 5611.00  131.54036  14.17637    0.000
 5612.00  142.11305  14.31558    0.000
 5613.00  160.89560  14.37031    0.000
 5614.00  158.69653  14.37577    0.000
 5615.00  128.02458  14.32857    0.000
 5616.00  109.83772  14.18856    0.000
 5617.00  106.56805  13.92917    0.000
 5618.00  117.17195  13.57602    0.000
 5619.00  142.39110  13.20905    0.000
 5620.00  167.20766  12.95387    0.000
 5621.00  191.65013  12.91617    0.000
 5622.00  193.70468  13.05678    0.000
 5623.00  177.41982  13.23976    0.000
 5624.00  164.60379  13.38207    0.000
 5625.00  154.28873  13.45556    0.000
 5626.00  142.20178  13.44427    0.000
 5627.00  128.99347  13.34633    0.000
 5628.00  133.22040  13.19791    0.000
 5629.00  147.09450  13.08705    0.000
 5630.00  146.63771  13.11837    0.000
 5631.00  139.28542  13.31398    0.000
 5632.00  135.00908  13.59114    0.000
 5633.00  132.01053  13.86654    0.000
 5634.00  117.82096  14.09449    0.000
 5635.00   99.65565  14.23127    0.000
 5636.00   90.12089  14.25518    0.000
 5637.00   83.17534  14.18216    0.000
 5638.00  104.87910  14.04489    0.000
 5639.00  133.71895  13.88171    0.000
 5640.00  135.00365  13.73542    0.000
 5641.00  130.72221  13.63193    0.000
 5642.00  112.38869  13.57596    0.000
 5643.00   91.83022  13.56218    0.000
 5644.00   97.34875  13.56889    0.000
 5645.00  105.93740  13.56952    0.000
 5646.00  140.11115  13.57273    0.000
 5647.00  176.32864  13.61626    0.000
 5648.00  182.51108  13.70366    0.000
 5649.00  187.35672  13.80655    0.000
 5650.00  166.07666  13.90432    0.000
 5651.00  144.51212  13.98272    0.000
 5652.00  123.57100  14.04239    0.000
 5653.00  104.72971  14.09339    0.000
 5654.00  124.58589  14.14687    0.000
 5655.00  142.71468  14.20766    0.000
 5656.00  141.71637  14.25743    0.000
 5657.00  139.71487  14.26038    0.000
 5658.00  129.93161  14.18564    0.000
 5659.00  124.20817  14.02440    0.000
 5660.00  142.31767  13.81567    0.000
 5661.00  156.83492  13.61281    0.000
 5662.00  154.63905  13.42578    0.000
 5663.00  148.50601  13.28403    0.000
 5664.00  127.40624  13.26839    0.000
 5665.00  113.52605  13.38351    0.000
 5666.00  122.55404  13.54099    0.000
 5667.00  129.38036  13.70023    0.000
 5668.00  130.28391  13.87404    0.000
 5669.00  126.60841  14.03940    0.000
 5670.00  112.36732  14.14286    0.000
 5671.00  103.71409  14.16669    0.000
 5672.00  106.21741  14.14690    0.000
 5673.00  116.25471  14.15195    0.000
 5674.00  139.39484  14.22915    0.000
 5675.00  149.61594  14.37569    0.000
 5676.00  140.16806  14.56187    0.000
 5677.00  140.63995  14.75824    0.000
 5678.00  154.38022  14.92582    0.000
 5679.00  150.02542  15.02593    0.000
 5680.00  124.35623  15.05881    0.000
 5681.00  111.82264  15.05341    0.000
 5682.00  112.93260  15.01156    0.000
 5683.00  114.07899  14.91326    0.000
 5684.00  115.25877  14.77064    0.000
 5685.00  108.04942  14.62201    0.000
 5686.00   94.06548  14.49113    0.000
 5687.00   87.30695  14.38769    0.000
 5688.00   85.68266  14.32758    0.000
 5689.00   86.52551  14.30442    0.000
 5690.00   88.90660  14.28337    0.000
 5691.00   83.63234  14.25644    0.000
 5692.00   74.18717  14.26890    0.000
 5693.00   91.53242  14.37361    0.000
 5694.00  121.56162  14.57164    0.000
 5695.00  135.67415  14.80769    0.000
 5696.00  143.28674  15.01310    0.000
 5697.00  146.57878  15.14781    0.000
 5698.00  148.36383  15.19478    0.000
 5699.00  166.67451  15.15437    0.000
 5700.00  189.84476  15.05132    0.000
 5701.00  172.17859  14.91048    0.000
 5702.00  144.56488  14.73436    0.000
 5703.00  149.88557  14.53201    0.000
 5704.00  161.69156  14.34920    0.000
 5705.00  169.83711  14.22429    0.000
 5706.00  177.42036  14.16152    0.000
 5707.00  182.77277  14.15315    0.000
 5708.00  187.87231  14.16795    0.000
 5709.00  175.44679  14.14262    0.000
 5710.00  161.69330  14.02611    0.000
 5711.00  156.01025  13.83415    0.000
 5712.00  150.65540  13.63854    0.000
 5713.00  159.58772  13.50640    0.000
 5714.00  168.21030  13.48618    0.000
 5715.00  159.45277  13.60376    0.000
 5716.00  150.66747  13.83430    0.000
 5717.00  141.40518  14.13704    0.000
 5718.00  132.15054  14.47838    0.000
 5719.00  122.97703  14.79758    0.000
 5720.00  112.27525  15.04543    0.000
 5721.00   90.12006  15.22492    0.000
 5722.00   71.76893  15.35979    0.000
 5723.00   75.12978  15.47855    0.000
 5724.00   82.25891  15.60573    0.000
 5725.00  106.50298  15.73719    0.000
 5726.00  121.95380  15.85134    0.000
 5727.00  104.68232  15.92063    0.000
 5728.00   87.35478  15.91399    0.000
 5729.00   69.85279  15.82724    0.000
 5730.00   66.52203  15.69854    0.000
 5731.00  100.64066  15.57165    0.000
 5732.00  127.12280  15.47621    0.000
 5733.00  136.27644  15.43416    0.000
 5734.00  142.81972  15.43849    0.000
 5735.00  144.23315  15.45572    0.000
 5736.00  144.96095  15.48182    0.000
 5737.00  144.51434  15.54854    0.000
 5738.00  140.86050  15.65606    0.000
 5739.00  132.39520  15.75279    0.000
 5740.00  124.09594  15.79685    0.000
 5741.00  116.01553  15.79004    0.000
 5742.00  116.80076  15.75947    0.000
 5743.00  127.88143  15.73055    0.000
 5744.00  135.74408  15.71195    0.000
 5745.00  140.31120  15.70537    0.000
 5746.00  144.68349  15.71874    0.000
 5747.00  148.87978  15.75738    0.000
 5748.00  150.16891  15.81266    0.000
 5749.00  149.14375  15.86166    0.000
 5750.00  149.19139  15.87722    0.000
 5751.00  149.99033  15.84608    0.000
 5752.00  157.92545  15.78229    0.000
 5753.00  170.24379  15.71882    0.000
 5754.00  181.93224  15.67408    0.000
 5755.00  193.28273  15.62110    0.000
 5756.00  182.60182  15.52382    0.000
 5757.00  161.65820  15.40571    0.000
 5758.00  153.14259  15.34747    0.000
 5759.00  149.61557  15.41715    0.000
 5760.00  145.00679  15.60560    0.000
 5761.00  140.02763  15.81583    0.000
 5762.00  142.49197  15.92505    0.000
 5763.00  147.10132  15.87175    0.000
 5764.00  149.16687  15.68712    0.000
 5765.00  150.62659  15.47146    0.000
 5766.00  158.30991  15.34097    0.000
 5767.00  167.18736  15.36891    0.000
 5768.00  176.36717  15.56058    0.000
 5769.00  185.59201  15.85514    0.000
 5770.00  162.01645  16.14773    0.000
 5771.00  134.86655  16.34942    0.000
 5772.00  138.76646  16.43738    0.000
 5773.00  144.89270  16.43381    0.000
 5774.00  138.39304  16.36960    0.000
 5775.00  131.42807  16.27754    0.000
 5776.00  135.77974  16.18751    0.000
 5777.00  140.73883  16.12262    0.000
 5778.00  165.74001  16.09836    0.000
 5779.00  189.55855  16.11042    0.000
 5780.00  194.35698  16.12991    0.000
 5781.00  197.16510  16.11052    0.000
 5782.00  179.82414  15.99605    0.000
 5783.00  162.21376  15.75607    0.000
 5784.00  142.65062  15.41986    0.000
 5785.00  126.19537  15.05439    0.000
 5786.00  126.99597  14.73522    0.000
 5787.00  131.63005  14.53542    0.000
 5788.00  153.26715  14.49087    0.000
 5789.00  170.10567  14.58009    0.000
 5790.00  169.45897  14.76760    0.000
 5791.00  166.78384  15.03074   -2.000
 5792.00  157.91486  15.32553   -2.000
 5793.00  154.31137  15.57992   -2.000
 5794.00  164.37891  15.75686   -2.000
 5795.00  167.80023  15.88069   -2.000
 5796.00  156.38823  16.00010   -2.000
 5797.00  150.51021  16.14812   -2.000
 5798.00  155.33733  16.30378   -2.000
 5799.00  159.04276  16.40738   -2.000
 5800.00  160.85574  16.43912   -2.000
 5801.00  160.96715  16.43615   -2.000
 5802.00  158.56306  16.45478   -2.000
 5803.00  156.90031  16.54740   -2.000
 5804.00  156.20099  16.72110   -2.000
 5805.00  157.71588  16.90569   -2.000
 5806.00  161.76584  16.99942   -2.000
 5807.00  154.87672  16.96349   -2.000
 5808.00  136.94228  16.83456   -2.000
 5809.00  119.27575  16.67899   -2.000
 5810.00  101.84782  16.56498   -2.000
 5811.00  102.35738  16.53654    0.000
 5812.00  116.94331  16.58514    0.000
 5813.00  129.76134  16.67223    0.000
 5814.00  141.35927  16.76167    0.000
 5815.00  144.10103  16.82663    0.000
 5816.00  141.48418  16.84289    0.000
 5817.00  145.17981  16.79324    0.000
 5818.00  152.20937  16.69112    0.000
 5819.00  159.96341  16.58608    0.000
 5820.00  168.04945  16.53465    0.000
 5821.00  164.07324  16.57713    0.000
 5822.00  155.33856  16.72147    0.000
 5823.00  149.38104  16.92633    0.000
 5824.00  144.35681  17.11521    0.000
 5825.00  143.65942  17.22874    0.000
 5826.00  144.18365  17.26467    0.000
 5827.00  138.45181  17.25696    0.000
 5828.00  131.26378  17.24081    0.000
 5829.00  131.90327  17.24096    0.000
 5830.00  134.00555  17.26450    0.000
 5831.00  144.83109  17.30321    0.000
 5832.00  156.91522  17.34163    0.000
 5833.00  151.42850  17.37137    0.000
 5834.00  144.10307  17.38765    0.000
 5835.00  146.23663  17.38006    0.000
 5836.00  149.01018  17.33781    0.000
 5837.00  149.40991  17.27092    0.000
 5838.00  149.73114  17.20581    0.000
 5839.00  139.33643  17.15460    0.000
 5840.00  129.28273  17.12171    0.000
 5841.00  130.21173  17.12463    0.000
 5842.00  131.35556  17.17239    0.000
 5843.00  135.74605  17.25154    0.000
 5844.00  140.10497  17.35505    0.000
 5845.00  144.15775  17.48001    0.000
 5846.00  150.46968  17.58853    0.000
 5847.00  172.62566  17.62885    0.000
 5848.00  186.32993  17.57957    0.000
 5849.00  154.36122  17.45534    0.000
 5850.00  127.19537  17.29231    0.000
 5851.00  120.84005  17.13410    0.000
 5852.00  114.11309  17.01165    0.000
 5853.00  106.05980  16.92449    0.000
 5854.00  105.25199  16.84971    0.000
 5855.00  126.15361  16.75779    0.000
 5856.00  142.46973  16.63900    0.000
 5857.00  147.08727  16.50292    0.000
 5858.00  149.81062  16.35981    0.000
 5859.00  148.37558  16.21959    0.000
 5860.00  151.43051  16.09760    0.000
 5861.00  163.03575  16.00426    0.000
 5862.00  174.01524  15.95708    0.000
 5863.00  183.95479  15.99004    0.000
 5864.00  182.08926  16.11719    0.000
 5865.00  163.02631  16.29996    0.000
 5866.00  149.17967  16.46993    0.000
 5867.00  142.01537  16.58334    0.000
 5868.00  143.54222  16.63438    0.000
 5869.00  154.87936  16.65705    0.000
 5870.00  155.85037  16.69145    0.000
 5871.00  146.50150  16.75440    0.000
 5872.00  129.78802  16.85102    0.000
 5873.00  106.60834  16.98014    0.000
 5874.00  106.99531  17.11379    0.000
 5875.00  125.61246  17.20489    0.000
 5876.00  145.15686  17.23694    0.000
 5877.00  165.33191  17.22706    0.000
 5878.00  160.29085  17.19766    0.000
 5879.00  140.22049  17.15803    0.000
 5880.00  126.46517  17.09974    0.000
 5881.00  115.99331  16.99879    0.000
 5882.00  112.38501  16.84819    0.000
 5883.00  111.87074  16.68287    0.000
 5884.00  119.45198  16.54589    0.000
 5885.00  130.17149  16.45381    0.000
 5886.00  135.79741  16.40216    0.000
 5887.00  139.74353  16.37024    0.000
 5888.00  130.62514  16.29790    0.000
 5889.00  117.89371  16.08638    0.000
 5890.00  116.26158  15.63658    0.000
 5891.00  117.15359  14.89780    0.000
 5892.00  119.30135  13.93004    0.000
 5893.00  121.67756  12.92760    0.000
 5894.00  127.02285  12.14286    0.000
 5895.00  132.78284  11.75711    0.000
 5896.00  139.81201  11.78390    0.000
 5897.00  146.96852  12.03709    0.000
 5898.00  142.18765  12.27090    0.000
 5899.00  136.64703  12.39664    0.000
 5900.00  131.86380  12.52041    0.000
 5901.00  127.15993  12.80884    0.000
 5902.00  142.21935  13.36980    0.000
 5903.00  157.05705  14.16176    0.000
 5904.00  165.64201  14.98955    0.000
 5905.00  172.80653  15.67170    0.000
 5906.00  159.74017  16.15577    0.000
 5907.00  145.33791  16.46362    0.000
 5908.00  118.49445  16.63612    0.000
 5909.00   95.09874  16.72939    0.000
 5910.00   95.12251  16.79429    0.000
 5911.00   98.99721  16.86057    0.000
 5912.00  123.13656  16.94303    0.000
 5913.00  145.37949  17.03782    0.000
 5914.00  159.59236  17.11436    0.000
 5915.00  170.51306  17.13378    0.000
 5916.00  169.92342  17.07761    0.000
 5917.00  162.54128  16.95820    0.000
 5918.00  135.18509  16.81058    0.000
 5919.00  113.90299  16.68777    0.000
 5920.00  107.84985  16.64316    0.000
 5921.00  104.02518  16.70153    0.000
 5922.00  105.01324  16.83912    0.000
 5923.00  108.62788  16.99948    0.000
 5924.00  117.16679  17.13152    0.000
 5925.00  121.71265  17.21604    0.000
 5926.00  119.72159  17.26564    0.000
 5927.00  119.88442  17.30379    0.000
 5928.00  123.13948  17.34888    0.000
 5929.00  119.12325  17.40045    0.000
 5930.00  105.92481  17.43431    0.000
 5931.00   96.39772  17.42190    0.000
 5932.00   90.95634  17.36420    0.000
 5933.00   92.74210  17.29555    0.000
 5934.00  101.62178  17.25433    0.000
 5935.00  106.63759  17.25456    0.000
 5936.00  108.30870  17.28171    0.000
 5937.00  109.36610  17.31306    0.000
 5938.00  109.95551  17.33376    0.000
 5939.00  108.04870  17.34546    0.000
 5940.00  104.46891  17.37497    0.000
 5941.00  102.57771  17.44410    0.000
 5942.00  101.67783  17.52958    0.000
 5943.00   97.46616  17.58040    0.000
 5944.00   91.55943  17.57246    0.000
 5945.00   89.63125  17.52982    0.000
 5946.00   89.46713  17.49904    0.000
 5947.00   95.09908  17.52109    0.000
 5948.00  102.93863  17.60815    0.000
 5949.00   98.53926  17.72417    0.000
 5950.00   90.17980  17.80386    0.000
 5951.00   90.95449  17.80774    0.000
 5952.00   94.20288  17.74608    0.000
 5953.00  110.09957  17.65335    0.000
 5954.00  128.80560  17.56115    0.000
 5955.00  139.09009  17.49452    0.000
 5956.00  147.88393  17.46560    0.000
 5957.00  137.04410  17.45877    0.000
 5958.00  123.55164  17.44858    0.000
 5959.00  105.58396  17.43326    0.000
 5960.00   87.18626  17.43250    0.000
 5961.00   93.66344  17.46062    0.000
 5962.00  101.62471  17.52647    0.000
 5963.00  116.65846  17.64406    0.000
 5964.00  131.68756  17.81269    0.000
 5965.00  117.98640  17.99706    0.000
 5966.00  105.00164  18.14572    0.000
 5967.00  110.26347  18.22314    0.000
 5968.00  115.95344  18.23201    0.000
 5969.00  127.40762  18.20919    0.000
 5970.00  137.19917  18.19771    0.000
 5971.00  132.10939  18.22818    0.000
 5972.00  125.93505  18.30817    0.000
 5973.00  112.62024  18.42297    0.000
 5974.00  103.50325  18.53925    0.000
 5975.00  115.90725  18.61883    0.000
 5976.00  125.85803  18.63613    0.000
 5977.00  125.65434  18.57735    0.000
 5978.00  126.87852  18.44198    0.000
 5979.00  132.99451  18.25377    0.000
 5980.00  137.62367  18.05961    0.000
 5981.00  137.96114  17.91320    0.000
 5982.00  139.04657  17.85359    0.000
 5983.00  141.97520  17.88112    0.000
 5984.00  140.68083  17.94945    0.000
 5985.00  130.41354  17.98617    0.000
 5986.00  119.04611  17.94259    0.000
 5987.00  105.64790  17.83185    0.000
 5988.00   95.29391  17.71065    0.000
 5989.00   89.84940  17.64523    0.000
 5990.00   90.59802  17.67941    0.000
 5991.00  100.10903  17.81063    0.000
 5992.00  109.51122  17.99234    0.000
 5993.00  118.77795  18.15895    0.000
 5994.00  123.18517  18.27736    0.000
 5995.00  122.26044  18.36375    0.000
 5996.00  120.25490  18.43992    0.000
 5997.00  117.20333  18.50741    0.000
 5998.00  122.70425  18.54951    0.000
 5999.00  135.50400  18.54485    0.000
 6000.00  142.61281  18.48276    0.000
 6001.00  145.44429  18.37638    0.000
 6002.00  135.29654  18.26809    0.000
 6003.00  116.57733  18.19979    0.000
 6004.00  105.65448  18.17888    0.000
 6005.00   99.23960  18.18837    0.000
 6006.00   98.99551  18.20466    0.000
 6007.00  101.86021  18.20168    0.000
 6008.00  108.04234  18.16351    0.000
 6009.00  115.67108  18.08583    0.000
 6010.00  115.00408  17.98346    0.000
 6011.00  111.23299  17.89685    0.000
 6012.00  109.41357  17.86379    0.000
 6013.00  108.21365  17.90245    0.000
 6014.00   98.90307  17.99790    0.000
 6015.00   87.44207  18.10131    0.000
 6016.00   99.52160  18.16777    0.000
 6017.00  116.70609  18.17245    0.000
 6018.00  119.13270  18.12167    0.000
 6019.00  119.01908  18.05823    0.000
 6020.00  114.46294  18.01884    0.000
 6021.00  109.32672  18.00251    0.000
 6022.00  100.85645  17.98757    0.000
 6023.00   92.07992  17.96648    0.000
 6024.00   81.99844  17.95564    0.000
 6025.00   71.84425  17.97436    0.000
 6026.00   72.26017  18.03139    0.000
 6027.00   72.83569  18.13534    0.000
 6028.00   66.28306  18.28147    0.000
 6029.00   60.14405  18.44800    0.000
 6030.00   63.60355  18.61822    0.000
 6031.00   67.68070  18.78172    0.000
 6032.00   79.63940  18.93121    0.000
 6033.00   92.01951  19.06066    0.000
 6034.00  108.02905  19.17140    0.000
 6035.00  122.14827  19.27004    0.000
 6036.00  124.19614  19.35560    0.000
 6037.00  126.76543  19.42664    0.000
 6038.00  131.94011  19.48614    0.000
 6039.00  136.35316  19.53343    0.000
 6040.00  137.68340  19.56096    0.000
 6041.00  138.40770  19.56158    0.000
 6042.00  137.09741  19.53733    0.000
 6043.00  131.72934  19.49944    0.000
 6044.00  114.86210  19.46372    0.000
 6045.00  105.45825  19.45408    0.000
 6046.00  114.13345  19.48854    0.000
 6047.00  127.92197  19.56946    0.000
 6048.00  152.40071  19.68421    0.000
 6049.00  166.30879  19.80466    0.000
 6050.00  161.00401  19.90278    0.000
 6051.00  148.38000  19.96326    0.000
 6052.00  124.12707  19.99090    0.000
 6053.00  109.44725  19.99518    0.000
 6054.00  108.11640  19.97831    0.000
 6055.00  120.38796  19.93509    0.000
 6056.00  149.35217  19.86081    0.000
 6057.00  163.62698  19.75450    0.000
 6058.00  162.01105  19.62290    0.000
 6059.00  148.42012  19.49130    0.000
 6060.00  123.40263  19.39618    0.000
 6061.00  103.64131  19.36568    0.000
 6062.00   88.30231  19.40217    0.000
 6063.00   88.22387  19.47997    0.000
 6064.00   99.45087  19.55382    0.000
 6065.00  110.58369  19.57388    0.000
 6066.00  121.65521  19.50769    0.000
 6067.00  124.35371  19.36401    0.000
 6068.00  122.28406  19.21068    0.000
 6069.00  118.62410  19.13829    0.000
 6070.00  114.17561  19.20382    0.000
 6071.00  109.93169  19.40898    0.000
 6072.00  105.77551  19.70225    0.000
 6073.00  109.32969  20.00839    0.000
 6074.00  115.71772  20.26308    0.000
 6075.00  124.18174  20.43330    0.000
 6076.00  133.29202  20.52440    0.000
 6077.00  133.36517  20.55603    0.000
 6078.00  131.09314  20.53538    0.000
 6079.00  130.82770  20.45756    0.000
 6080.00  130.98697  20.31683    0.000
 6081.00  132.70171  20.12707    0.000
 6082.00  134.67668  19.91984    0.000
 6083.00  127.73100  19.71897    0.000
 6084.00  119.66066  19.54462    0.000
 6085.00  113.47763  19.41870    0.000
 6086.00  107.46005  19.34859    0.000
 6087.00  114.34060  19.32734    0.000
 6088.00  121.88908  19.34645    0.000
 6089.00  122.56323  19.39621    0.000
 6090.00  123.02326  19.46163    0.000
 6091.00  116.97440  19.51401    0.000
 6092.00  111.25848  19.52359    0.000
 6093.00  112.63364  19.48841    0.000
 6094.00  113.22343  19.42893    0.000
 6095.00  104.29260  19.37533    0.000
 6096.00   95.74237  19.36810    0.000
 6097.00   90.34960  19.43379    0.000
 6098.00   86.07233  19.55963    0.000
 6099.00   88.70886  19.70925    0.000
 6100.00   93.13678  19.84428    0.000
 6101.00  106.29304  19.94094    0.000
 6102.00  118.75823  19.98475    0.000
 6103.00  128.48741  19.94721    0.000
 6104.00  133.72383  19.79423    0.000
 6105.00  124.17140  19.54285    0.000
 6106.00  115.20831  19.27728    0.000
 6107.00  107.88508  19.09251    0.000
 6108.00  103.52161  19.05951    0.000
 6109.00  106.20676  19.18777    0.000
 6110.00  109.59895  19.42155    0.000
 6111.00  114.44574  19.68417    0.000
 6112.00  117.64970  19.90470    0.000
 6113.00  117.91326  20.04521    0.000
 6114.00  118.76374  20.12749    0.000
 6115.00  120.53291  20.19493    0.000
 6116.00  120.51067  20.27020    0.000
 6117.00  118.02640  20.34999    0.000
 6118.00  116.15527  20.41056    0.000
 6119.00  115.02589  20.43257    0.000
 6120.00  120.95512  20.40534    0.000
 6121.00  134.41290  20.30917    0.000
 6122.00  145.64677  20.13223    0.000
 6123.00  154.78836  19.87915    0.000
 6124.00  153.62230  19.57731    0.000
 6125.00  143.90652  19.30486    0.000
 6126.00  138.63922  19.14826    0.000
 6127.00  136.62015  19.14389    0.000
 6128.00  135.46790  19.27796    0.000
 6129.00  134.87137  19.48423    0.000
 6130.00  129.00240  19.67519    0.000
 6131.00  120.17661  19.81188    0.000
 6132.00  112.69384  19.90907    0.000
 6133.00  105.86644  20.00414    0.000
 6134.00  112.25768  20.12537    0.000
 6135.00  124.22237  20.25414    0.000
 6136.00  128.37398  20.31594    0.000
 6137.00  129.70538  20.22316    0.000
 6138.00  116.84212  19.92329    0.000
 6139.00   99.64591  19.44940    0.000
 6140.00   84.57356  18.94875    0.000
 6141.00   70.04053  18.60866    0.000
 6142.00   73.20630  18.54221    0.000
 6143.00   80.02655  18.74316    0.000
 6144.00  100.18516  19.11663    0.000
 6145.00  122.51123  19.54406    0.000
 6146.00  120.78363  19.93565    0.000
 6147.00  116.13091  20.25123    0.000
 6148.00  100.38679  20.49007    0.000
 6149.00   83.71658  20.65435    0.000
 6150.00   85.90780  20.72987    0.000
 6151.00   89.00231  20.69956    0.000
 6152.00   78.84039  20.57461    0.000
 6153.00   68.77122  20.40728    0.000
 6154.00   75.20024  20.26470    0.000
 6155.00   82.83344  20.18572    0.000
 6156.00  114.15276  20.16111    0.000
 6157.00  143.49768  20.15895    0.000
 6158.00  150.05626  20.15084    0.000
 6159.00  154.40195  20.11453    0.000
 6160.00  141.04256  20.03813    0.000
 6161.00  128.42751  19.90825    0.000
 6162.00  120.29286  19.68255    0.000
 6163.00  114.08105  19.30888    0.000
 6164.00  117.00862  18.79020    0.000
 6165.00  117.00070  18.21467    0.000
 6166.00  105.62154  17.73366    0.000
 6167.00   95.19742  17.48561    0.000
 6168.00   87.85583  17.52434    0.000
 6169.00   83.27482  17.79595    0.000
 6170.00   86.23765  18.15655    0.000
 6171.00   90.13103  18.43984    0.000
 6172.00   96.20331  18.56768    0.000
 6173.00  100.80672  18.58421    0.000
 6174.00  102.43629  18.58797    0.000
 6175.00  106.76877  18.66204    0.000
 6176.00  115.86530  18.83703    0.000
 6177.00  123.98044  19.07781    0.000
 6178.00  130.58199  19.31546    0.000
 6179.00  129.25992  19.50150    0.000
 6180.00  117.20464  19.63164    0.000
 6181.00  110.42891  19.72795    0.000
 6182.00  109.94994  19.81534    0.000
 6183.00  115.76238  19.91340    0.000
 6184.00  128.19086  20.02420    0.000
 6185.00  130.81609  20.13254    0.000
 6186.00  124.34802  20.22139    0.000
 6187.00  112.22464  20.26799    0.000
 6188.00   95.47689  20.24258    0.000
 6189.00   90.64919  20.13150    0.000
 6190.00   94.40002  19.94431    0.000
 6191.00  104.90759  19.70490    0.000
 6192.00  119.68322  19.43713    0.000
 6193.00  141.49731  19.15740    0.000
 6194.00  167.19839  18.90634    0.000
 6195.00  212.60992  18.75297    0.000
 6196.00  267.48630  18.75041   -2.000
 6197.00  279.25928  18.91511   -2.000
 6198.00  273.16461  19.21531   -2.000
 6199.00  201.68297  19.56792   -2.000
 6200.00  107.02516  19.86650   -2.000
 6201.00   27.33406  20.02832   -2.000
 6202.00  -47.87811  20.03737   -2.000
 6203.00  -13.98721  19.95478   -2.000
 6204.00   47.00416  19.87764   -2.000
 6205.00   80.21725  19.88039   -2.000
 6206.00  107.83690  19.98302   -2.000
 6207.00  109.98301  20.15310   -2.000
 6208.00  108.11086  20.33458    0.000
 6209.00  115.34863  20.48023    0.000
 6210.00  123.65389  20.56889    0.000
 6211.00  129.64452  20.60131    0.000
 6212.00  135.45145  20.58092    0.000
 6213.00  127.41856  20.50377    0.000
 6214.00  118.77638  20.35676    0.000
 6215.00  108.97275  20.12066    0.000
 6216.00   99.04469  19.79563    0.000
 6217.00   83.79118  19.42137    0.000
 6218.00   69.54684  19.06675    0.000
 6219.00   73.73264  18.80668    0.000
 6220.00   78.81050  18.68305    0.000
 6221.00   93.70860  18.67731    0.000
 6222.00  108.33475  18.73509    0.000
 6223.00  120.86067  18.81026    0.000
 6224.00  134.23230  18.88594    0.000
 6225.00  152.55099  18.96871    0.000
 6226.00  166.17088  19.06949    0.000
 6227.00  157.99585  19.19171    0.000
 6228.00  144.68910  19.32440    0.000
 6229.00  111.92697  19.44301    0.000
 6230.00   83.58334  19.51557    0.000
 6231.00   69.22589  19.50335    0.000
 6232.00   61.59203  19.37201    0.000
 6233.00   72.00502  19.13383    0.000
 6234.00   80.78434  18.86600    0.000
 6235.00   85.80206  18.67588    0.000
 6236.00   91.50214  18.66113    0.000
 6237.00   98.56192  18.85860    0.000
 6238.00  104.39816  19.21016    0.000
 6239.00  108.11050  19.59280    0.000
 6240.00  108.63157  19.88010    0.000
 6241.00  104.30296  19.98861    0.000
 6242.00   97.14165  19.90597    0.000
 6243.00   86.19827  19.69202    0.000
 6244.00   83.65786  19.42743    0.000
 6245.00   90.99777  19.16865    0.000
 6246.00  103.00213  18.95823    0.000
 6247.00  119.84270  18.82604    0.000
 6248.00  124.94684  18.78484    0.000
 6249.00  119.31756  18.85074    0.000
 6250.00  104.89453  19.03108    0.000
 6251.00   83.38289  19.28961    0.000
 6252.00   65.29323  19.55527    0.000
 6253.00   49.63071  19.74578    0.000
 6254.00   54.55384  19.79081    0.000
 6255.00   72.28786  19.67306    0.000
 6256.00  100.17746  19.44015    0.000
 6257.00  133.58943  19.16481    0.000
 6258.00  145.54243  18.90222    0.000
 6259.00  147.35628  18.67520    0.000
 6260.00  129.38194  18.48673    0.000
 6261.00  103.34404  18.35284    0.000
 6262.00   77.45503  18.31867    0.000
 6263.00   51.61785  18.42706    0.000
 6264.00   51.33330  18.69086    0.000
 6265.00   58.54389  19.07759    0.000
 6266.00   75.41463  19.50163    0.000
 6267.00   94.63192  19.85883    0.000
 6268.00  103.34361  20.09157    0.000
 6269.00  109.99325  20.20574    0.000
 6270.00  121.58810  20.24033    0.000
 6271.00  133.93971  20.24102    0.000
 6272.00  140.63365  20.24423    0.000
 6273.00  146.68948  20.26767    0.000
 6274.00  138.32617  20.31633    0.000
 6275.00  128.87764  20.39038    0.000
 6276.00  112.19930  20.48079    0.000
 6277.00   95.23040  20.57153    0.000
 6278.00   89.65093  20.64960    0.000
 6279.00   84.06272  20.70579    0.000
 6280.00   74.73907  20.73380    0.000
 6281.00   65.86484  20.72778    0.000
 6282.00   64.64668  20.67913    0.000
 6283.00   63.68435  20.59310    0.000
 6284.00   65.41335  20.50174    0.000
 6285.00   67.22176  20.44991    0.000
 6286.00   69.62279  20.47342    0.000
 6287.00   71.80059  20.57782    0.000
 6288.00   72.70876  20.74173    0.000
 6289.00   73.72231  20.93710    0.000
 6290.00   75.21313  21.13907    0.000
 6291.00   79.10979  21.32623    0.000
 6292.00   91.93556  21.47338    0.000
 6293.00  101.74990  21.55113    0.000
 6294.00  102.21394  21.54271    0.000
 6295.00   98.36311  21.45680    0.000
 6296.00   83.13499  21.32648    0.000
 6297.00   71.02089  21.18809    0.000
 6298.00   65.95836  21.05226    0.000
 6299.00   69.30139  20.91112    0.000
 6300.00   89.13017  20.76676    0.000
 6301.00  104.74736  20.63803    0.000
 6302.00  113.16419  20.54357    0.000
 6303.00  112.93519  20.48497    0.000
 6304.00   99.75965  20.45127    0.000
 6305.00   89.11195  20.43951    0.000
 6306.00   81.79096  20.45989    0.000
 6307.00   84.87806  20.52695    0.000
 6308.00  100.03033  20.65353    0.000
 6309.00  107.61862  20.84554    0.000
 6310.00  107.47448  21.08832    0.000
 6311.00   99.11577  21.33860    0.000
 6312.00   83.35022  21.53962    0.000
 6313.00   75.12865  21.64335    0.000
 6314.00   72.90185  21.63195    0.000
 6315.00   72.54843  21.52680    0.000
 6316.00   73.50455  21.36804    0.000
 6317.00   78.77280  21.18746    0.000
 6318.00   86.68469  21.00775    0.000
 6319.00   96.17867  20.84220    0.000
 6320.00  106.51971  20.68783    0.000
 6321.00  108.40651  20.55400    0.000
 6322.00  106.36320  20.47986    0.000
 6323.00  100.16190  20.49907    0.000
 6324.00   92.29520  20.61479    0.000
 6325.00   93.61157  20.80901    0.000
 6326.00   98.06492  21.05214    0.000
 6327.00  104.28464  21.30694    0.000
 6328.00  111.01208  21.53967    0.000
 6329.00  112.80672  21.73168    0.000
 6330.00  113.42992  21.87791    0.000
 6331.00  113.77792  21.98474    0.000
 6332.00  114.07329  22.05843    0.000
 6333.00  118.73458  22.10270    0.000
 6334.00  124.04354  22.12940    0.000
 6335.00  115.42547  22.14201    0.000
 6336.00  105.29730  22.12045    0.000
 6337.00   90.20383  22.02779    0.000
 6338.00   74.75687  21.84378    0.000
 6339.00   81.22195  21.60242    0.000
 6340.00   88.48415  21.38068    0.000
 6341.00   86.56169  21.25107    0.000
 6342.00   84.59426  21.25142    0.000
 6343.00   82.25792  21.36877    0.000
 6344.00   80.00130  21.53469    0.000
 6345.00   79.01672  21.66215    0.000
 6346.00   77.38995  21.69969    0.000
 6347.00   69.29703  21.65986    0.000
 6348.00   62.30624  21.60530    0.000
 6349.00   63.26944  21.60040    0.000
 6350.00   64.27267  21.67922    0.000
 6351.00   65.49743  21.83639    0.000
 6352.00   64.60117  22.03070    0.000
 6353.00   54.32505  22.21187    0.000
 6354.00   46.60880  22.34462    0.000
 6355.00   48.19591  22.40713    0.000
 6356.00   53.05848  22.38293    0.000
 6357.00   67.89885  22.26863    0.000
 6358.00   80.05225  22.08622    0.000
 6359.00   85.24467  21.86985    0.000
 6360.00   86.66115  21.63585    0.000
 6361.00   79.66776  21.38420    0.000
 6362.00   73.59536  21.12219    0.000
 6363.00   69.30106  20.86475    0.000
 6364.00   72.22672  20.62987    0.000
 6365.00   87.31050  20.45023    0.000
 6366.00   98.28533  20.36833    0.000
 6367.00  103.19708  20.41290    0.000
 6368.00  100.94492  20.58803    0.000
 6369.00   89.39944  20.87524    0.000
 6370.00   84.43251  21.23923    0.000
 6371.00   86.98390  21.63034    0.000
 6372.00   93.05540  21.99420    0.000
 6373.00  102.67491  22.29593    0.000
 6374.00  108.35936  22.53606    0.000
 6375.00  110.54563  22.73340    0.000
 6376.00  105.46928  22.90154    0.000
 6377.00   94.70384  23.03989    0.000
 6378.00   80.71291  23.14062    0.000
 6379.00   64.50000  23.19422    0.000
 6380.00   59.99258  23.18914    0.000
 6381.00   62.55447  23.12257    0.000
 6382.00   69.01055  23.01459    0.000
 6383.00   77.51933  22.89822    0.000
 6384.00   78.91444  22.80498    0.000
 6385.00   77.05632  22.75969    0.000
 6386.00   81.78508  22.76434    0.000
 6387.00   89.10665  22.80248    0.000
 6388.00   86.16037  22.86360    0.000
 6389.00   79.77154  22.94422    0.000
 6390.00   70.78286  23.03667    0.000
 6391.00   61.06205  23.12858    0.000
 6392.00   55.13294  23.20406    0.000
 6393.00   50.08383  23.23615    0.000
 6394.00   60.45834  23.18846    0.000
 6395.00   73.70554  23.03718    0.000
 6396.00   78.63596  22.80651    0.000
 6397.00   82.37123  22.58311    0.000
 6398.00   79.28121  22.46288    0.000
 6399.00   75.48065  22.48490    0.000
 6400.00   83.42722  22.61179    0.000
 6401.00   92.16264  22.74369    0.000
 6402.00   95.76680  22.77657    0.000
 6403.00   99.20370  22.69623    0.000
 6404.00   87.04227  22.60324    0.000
 6405.00   74.97765  22.60984    0.000
 6406.00   66.02435  22.75707    0.000
 6407.00   58.41148  23.00900    0.000
 6408.00   70.90021  23.26872    0.000
 6409.00   82.53584  23.43472    0.000
 6410.00   85.93690  23.45744    0.000
 6411.00   88.24374  23.36551    0.000
 6412.00   82.90739  23.23806    0.000
 6413.00   78.45530  23.12716    0.000
 6414.00   78.76565  23.04285    0.000
 6415.00   79.01409  22.99451    0.000
 6416.00   78.99511  22.98673    0.000
 6417.00   78.55392  23.01553    0.000
 6418.00   76.60984  23.08435    0.000
 6419.00   78.71753  23.18487    0.000
 6420.00   92.93674  23.27687    0.000
 6421.00  103.59952  23.30935    0.000
 6422.00  105.20892  23.24889    0.000
 6423.00  104.89260  23.10526    0.000
 6424.00  100.35729  22.94768    0.000
 6425.00   99.35101  22.87573    0.000
 6426.00  105.05193  22.95130    0.000
 6427.00  106.05664  23.15771    0.000
 6428.00   99.27154  23.43271    0.000
 6429.00   90.77801  23.70902    0.000
 6430.00   79.80022  23.92522    0.000
 6431.00   76.15166  24.03408    0.000
 6432.00   81.87526  24.00485    0.000
 6433.00   83.59460  23.83693    0.000
 6434.00   80.80213  23.58781    0.000
 6435.00   73.81218  23.36700    0.000
 6436.00   62.65086  23.26487    0.000
 6437.00   58.08670  23.31178    0.000
 6438.00   59.30464  23.46950    0.000
 6439.00   59.90635  23.64905    0.000
 6440.00   60.03221  23.75605    0.000
 6441.00   63.90167  23.73975    0.000
 6442.00   70.31252  23.63977    0.000
 6443.00   74.98458  23.56798    0.000
 6444.00   78.62225  23.61553    0.000
 6445.00   78.80187  23.80134    0.000
 6446.00   77.18707  24.08230    0.000
 6447.00   70.43827  24.38033    0.000
 6448.00   61.37990  24.62057    0.000
 6449.00   54.05379  24.74833    0.000
 6450.00   47.39772  24.72062    0.000
 6451.00   53.13541  24.49998    0.000
 6452.00   62.95070  24.08482    0.000
 6453.00   67.37000  23.57000    0.000
 6454.00   70.30093  23.13001    0.000
 6455.00   77.88484  22.91025    0.000
 6456.00   86.52380  22.95574    0.000
 6457.00   89.51160  23.20033    0.000
 6458.00   91.47485  23.51238    0.000
 6459.00   88.46069  23.79409    0.000
 6460.00   84.75417  24.02641    0.000
 6461.00   80.36761  24.23188    0.000
 6462.00   75.91315  24.42111    0.000
 6463.00   85.59430  24.56354    0.000
 6464.00   96.16801  24.59174    0.000
 6465.00   86.00301  24.46065    0.000
 6466.00   75.24830  24.21945    0.000
 6467.00   67.02333  23.99558    0.000
 6468.00   58.98328  23.90004    0.000
 6469.00   56.08929  23.97587    0.000
 6470.00   53.71668  24.18761    0.000
 6471.00   58.71657  24.44139    0.000
 6472.00   65.07961  24.63750    0.000
 6473.00   84.07369  24.72437    0.000
 6474.00  101.55267  24.71103    0.000
 6475.00  108.78068  24.65067    0.000
 6476.00  112.83725  24.60403    0.000
 6477.00  100.25976  24.59379    0.000
 6478.00   90.60947  24.61211    0.000
 6479.00   93.31841  24.65132    0.000
 6480.00   96.91196  24.70155    0.000
 6481.00  103.59052  24.74165    0.000
 6482.00  105.39722  24.74742    0.000
 6483.00   92.91114  24.69430    0.000
 6484.00   82.17850  24.55766    0.000
 6485.00   75.83252  24.34529    0.000
 6486.00   75.41023  24.11964    0.000
 6487.00   87.75505  23.96485    0.000
 6488.00   98.70647  23.93531    0.000
 6489.00  107.05064  24.03214    0.000
 6490.00  104.00645  24.20881    0.000
 6491.00   82.35375  24.39272    0.000
 6492.00   72.24535  24.50727    0.000
 6493.00   78.68009  24.49673    0.000
 6494.00   82.16420  24.33533    0.000
 6495.00   81.92895  24.01465    0.000
 6496.00   80.16923  23.52978    0.000
 6497.00   76.71599  22.90098    0.000
 6498.00   78.09649  22.21850    0.000
 6499.00   84.21320  21.62678    0.000
 6500.00   87.50060  21.25569    0.000
 6501.00   88.34319  21.16954    0.000
 6502.00   95.50916  21.35277    0.000
 6503.00  107.48809  21.73751    0.000
 6504.00  119.37713  22.23985    0.000
 6505.00  131.20604  22.77876    0.000
 6506.00  130.51031  23.29550    0.000
 6507.00  122.47573  23.75527    0.000
 6508.00  113.71194  24.13827    0.000
 6509.00  104.57563  24.43333    0.000
 6510.00   93.29647  24.63288    0.000
 6511.00   81.06915  24.73885    0.000
 6512.00   74.69879  24.77640    0.000
 6513.00   70.55430  24.78991    0.000
 6514.00   72.91454  24.81658    0.000
 6515.00   77.37445  24.86621    0.000
 6516.00   86.95338  24.92503    0.000
 6517.00   97.91497  24.96519    0.000
 6518.00  100.47610  24.95651    0.000
 6519.00  101.17691  24.88740    0.000
 6520.00  100.06339  24.77419    0.000
 6521.00   98.62984  24.65079    0.000
 6522.00   93.50396  24.56200    0.000
 6523.00   87.88132  24.55441    0.000
 6524.00   83.20044  24.64586    0.000
 6525.00   78.60954  24.81221    0.000
 6526.00   85.30537  25.00496    0.000
 6527.00   92.66898  25.17695    0.000
 6528.00   90.81765  25.29336    0.000
 6529.00   88.73962  25.33377    0.000
 6530.00   87.34777  25.30263    0.000
 6531.00   86.11502  25.23717    0.000
 6532.00   88.88600  25.18220    0.000
 6533.00   91.57915  25.15764    0.000
 6534.00   93.23154  25.15247    0.000
 6535.00   94.16317  25.14263    0.000
 6536.00   88.67505  25.12191    0.000
 6537.00   84.46780  25.11557    0.000
 6538.00   88.66110  25.15727    0.000
 6539.00   92.96432  25.25588    0.000
 6540.00   97.82928  25.38898    0.000
 6541.00   97.39187  25.52802    0.000
 6542.00   75.06850  25.65801    0.000
 6543.00   58.29246  25.76727    0.000
 6544.00   60.47315  25.83236    0.000
 6545.00   64.52267  25.82583    0.000
 6546.00   73.95415  25.73188    0.000
 6547.00   85.16142  25.55500    0.000
 6548.00  100.73531  25.31762    0.000
 6549.00  107.95920  25.05837    0.000
 6550.00   97.47721  24.83344    0.000
 6551.00   85.45045  24.70214    0.000
 6552.00   70.57773  24.68260    0.000
 6553.00   60.07016  24.73791    0.000
 6554.00   56.58918  24.80089    0.000
 6555.00   59.65223  24.81121    0.000
 6556.00   71.95723  24.74145    0.000
 6557.00   82.17754  24.59585    0.000
 6558.00   89.80737  24.40616    0.000
 6559.00   95.35972  24.22340    0.000
 6560.00   98.63671  24.09140    0.000
 6561.00  108.44186  24.01071    0.000
 6562.00  124.55371  23.92091    0.000
 6563.00  133.32901  23.72050    0.000
 6564.00  135.85432  23.31173    0.000
 6565.00  125.02562  22.66164    0.000
 6566.00  104.17811  21.88255    0.000
 6567.00   89.40756  21.25830    0.000
 6568.00   78.64279  21.08381    0.000
 6569.00   66.11169  21.43600    0.000
 6570.00   52.56119  22.16621    0.000
 6571.00   51.15549  23.02058    0.000
 6572.00   55.85604  23.74741    0.000
 6573.00   70.15604  24.20794    0.000
 6574.00   88.63323  24.40725    0.000
 6575.00   91.62332  24.42131    0.000
 6576.00   88.83141  24.33011    0.000
 6577.00   83.65477  24.21053    0.000
 6578.00   77.72306  24.13691    0.000
 6579.00   77.43015  24.16972    0.000
 6580.00   78.62830  24.33644    0.000
 6581.00   86.77532  24.60329    0.000
 6582.00   96.42471  24.88814    0.000
 6583.00   91.55658  25.10691    0.000
 6584.00   84.19839  25.21719    0.000
 6585.00   80.52896  25.24138    0.000
 6586.00   77.33909  25.24319    0.000
 6587.00   81.32291  25.27273    0.000
 6588.00   85.96191  25.34359    0.000
 6589.00   84.67516  25.44418    0.000
 6590.00   83.06123  25.55704    0.000
 6591.00   82.51286  25.67304    0.000
 6592.00   82.00456  25.76993    0.000
 6593.00   83.13766  25.80184    0.000
 6594.00   84.23750  25.72299    0.000
 6595.00   84.57411  25.50272    0.000
 6596.00   84.96092  25.15931    0.000
 6597.00   85.98428  24.78885    0.000
 6598.00   85.80791  24.52996    0.000
 6599.00   75.34791  24.46238    0.000
 6600.00   68.27065  24.56548    0.000
 6601.00   82.71381  24.76711    0.000
 6602.00   94.91085  24.99873    0.000
 6603.00   95.91999  25.22759    0.000
 6604.00   98.44691  25.45017    0.000
 6605.00  107.09999  25.65361    0.000
 6606.00  112.33247  25.80451    0.000
 6607.00  106.10793  25.86862    0.000
 6608.00   97.04754  25.82750    0.000
 6609.00   79.96913  25.68918    0.000
 6610.00   66.80903  25.48853    0.000
 6611.00   63.12021  25.27190    0.000
 6612.00   61.48145  25.08783    0.000
 6613.00   64.12002  24.98883    0.000
 6614.00   64.02734  25.02226    0.000
 6615.00   58.98001  25.18971    0.000
 6616.00   54.02565  25.43362    0.000
 6617.00   49.21872  25.68238    0.000
 6618.00   49.82246  25.89695    0.000
 6619.00   57.95726  26.07089    0.000
 6620.00   63.31595  26.20267    0.000
 6621.00   65.27395  26.29452    0.000
 6622.00   63.95110  26.35942    0.000
 6623.00   59.08539  26.40847    0.000
 6624.00   62.88334  26.43596    0.000
 6625.00   74.93352  26.41986    0.000
 6626.00   85.10677  26.33406    0.000
 6627.00   93.70368  26.17049    0.000
 6628.00   92.83330  25.95734    0.000
 6629.00   84.96199  25.75846    0.000
 6630.00   78.14796  25.63717    0.000
 6631.00   72.02064  25.60533    0.000
 6632.00   73.13510  25.62370    0.000
 6633.00   78.36562  25.63678    0.000
 6634.00   78.24123  25.59991    0.000
 6635.00   75.46697  25.49653    0.000
 6636.00   71.71324  25.34285    0.000
 6637.00   67.54038  25.18346    0.000
 6638.00   65.29980  25.08248    0.000
 6639.00   63.76781  25.09336    0.000
 6640.00   71.69195  25.22059    0.000
 6641.00   82.55258  25.41664    0.000
 6642.00   87.09422  25.61282    0.000
 6643.00   90.00046  25.75464    0.000
 6644.00   76.05523  25.82476    0.000
 6645.00   58.55437  25.83634    0.000
 6646.00   73.04996  25.80529    0.000
 6647.00   92.87902  25.74509    0.000
 6648.00  100.69066  25.68801    0.000
 6649.00  106.99400  25.67237    0.000
 6650.00   97.77560  25.70679    0.000
 6651.00   87.20467  25.77078    0.000
 6652.00   69.69702  25.84207    0.000
 6653.00   51.83355  25.90627    0.000
 6654.00   39.46760  25.95084    0.000
 6655.00   27.44226  25.96738    0.000
 6656.00   32.62637  25.96146    0.000
 6657.00   37.41873  25.94887    0.000
 6658.00   33.95296  25.94304    0.000
 6659.00   30.09678  25.94871    0.000
 6660.00   21.53733  25.95971    0.000
 6661.00   17.38662  25.96352    0.000
 6662.00   49.64528  25.94929    0.000
 6663.00   77.57027  25.90388    0.000
 6664.00   78.73427  25.81168    0.000
 6665.00   79.18767  25.66949    0.000
 6666.00   76.18958  25.49285    0.000
 6667.00   72.67677  25.31169    0.000
 6668.00   67.13167  25.16985    0.000
 6669.00   64.35373  25.10948    0.000
 6670.00   70.66196  25.14106    0.000
 6671.00   79.53558  25.24799    0.000
 6672.00   95.53150  25.41329    0.000
 6673.00  106.99340  25.62265    0.000
 6674.00  107.68063  25.85414    0.000
 6675.00  104.63065  26.07360    0.000
 6676.00   93.90771  26.24507    0.000
 6677.00   80.85219  26.34284    0.000
 6678.00   63.62989  26.35105    0.000
 6679.00   55.53274  26.25949    0.000
 6680.00   61.69306  26.06861    0.000
 6681.00   61.83917  25.80425    0.000
 6682.00   53.73474  25.53130    0.000
 6683.00   47.25011  25.34536    0.000
 6684.00   42.72159  25.31768    0.000
 6685.00   39.85425  25.43627    0.000
 6686.00   38.75553  25.63459    0.000
 6687.00   47.80350  25.85328    0.000
 6688.00   66.38052  26.05122    0.000
 6689.00   71.01526  26.20267    0.000
 6690.00   64.10624  26.29974    0.000
 6691.00   67.48858  26.35063    0.000
 6692.00   78.37189  26.37293    0.000
 6693.00   83.92849  26.38664    0.000
 6694.00   86.07629  26.40582    0.000
 6695.00  105.73386  26.42607    0.000
 6696.00  135.19217  26.42777    0.000
 6697.00  140.77359  26.38924    0.000
 6698.00  134.72707  26.29686    0.000
 6699.00  116.33662  26.15459    0.000
 6700.00   92.75256  25.98864    0.000
 6701.00   75.73009  25.85014    0.000
 6702.00   61.07072  25.79708    0.000
 6703.00   55.98206  25.85035    0.000
 6704.00   53.80766  25.98252    0.000
 6705.00   51.83004  26.13503    0.000
 6706.00   49.90224  26.24386    0.000
 6707.00   56.36383  26.28054    0.000
 6708.00   64.55225  26.26233    0.000
 6709.00   62.62341  26.23390    0.000
 6710.00   59.05659  26.23608    0.000
 6711.00   64.18272  26.27495    0.000
 6712.00   70.36112  26.32372    0.000
 6713.00   81.33298  26.35032    0.000
 6714.00   92.70258  26.33377    0.000
 6715.00   98.30619  26.26584    0.000
 6716.00  103.63646  26.15091    0.000
 6717.00   84.64687  25.99115    0.000
 6718.00   65.49152  25.78507    0.000
 6719.00   56.29615  25.54833    0.000
 6720.00   48.50576  25.32072    0.000
 6721.00   68.08772  25.15782    0.000
 6722.00   86.32644  25.11133    0.000
 6723.00   89.15636  25.20472    0.000
 6724.00   91.36871  25.41440    0.000
 6725.00   88.66212  25.67329    0.000
 6726.00   86.10970  25.91461    0.000
 6727.00   84.48186  26.10413    0.000
 6728.00   82.84119  26.23545    0.000
 6729.00   81.13959  26.31218    0.000
 6730.00   79.70529  26.34521    0.000
 6731.00   79.30363  26.36222    0.000
 6732.00   75.92468  26.39744    0.000
 6733.00   62.95978  26.46611    0.000
 6734.00   56.54353  26.55538    0.000
 6735.00   67.98244  26.63909    0.000
 6736.00   72.74375  26.69380    0.000
 6737.00   61.90210  26.70960    0.000
 6738.00   62.29146  26.69371    0.000
 6739.00   85.37363  26.66069    0.000
 6740.00   94.66849  26.61752    0.000
 6741.00   79.70898  26.55930    0.000
 6742.00   68.32120  26.48037    0.000
 6743.00   62.43190  26.39022    0.000
 6744.00   60.71748  26.31273    0.000
 6745.00   64.64802  26.26731    0.000
 6746.00   72.62583  26.25272    0.000
 6747.00   85.42210  26.25320    0.000
 6748.00   91.69576  26.25641    0.000
 6749.00   91.12239  26.25948    0.000
 6750.00  101.44717  26.25732    0.000
 6751.00  121.86289  26.23781    0.000
 6752.00  110.20454  26.19826    0.000
 6753.00   72.36617  26.15146    0.000
 6754.00   45.60977  26.11423    0.000
 6755.00   26.81424  26.09910    0.000
 6756.00   28.24647  26.11523    0.000
 6757.00   42.43223  26.17099    0.000
 6758.00   56.28492  26.27094    0.000
 6759.00   69.95403  26.42208    0.000
 6760.00  123.21289  26.62692    0.000
 6761.00  195.44405  26.86486    0.000
 6762.00  185.71257  27.10338    0.000
 6763.00  142.07770  27.31008    0.000
 6764.00  128.19049  27.45693    0.000
 6765.00  124.82307  27.53328    0.000
 6766.00  147.35651  27.54561    0.000
 6767.00  177.62167  27.50603    0.000
 6768.00  174.67767  27.42619    0.000
 6769.00  163.50763  27.31453    0.000
 6770.00  147.20879  27.17519    0.000
 6771.00  129.88049  27.02125    0.000
 6772.00  125.14253  26.88070    0.000
 6773.00  122.38314  26.78668    0.000
 6774.00  108.88505  26.76245    0.000
 6775.00   94.13455  26.81096    0.000
 6776.00   81.74777  26.92400    0.000
 6777.00   69.54736  27.09659    0.000
 6778.00   86.82589  27.31888    0.000
 6779.00  105.38799  27.56059    0.000
 6780.00   77.73345  27.78143    0.000
 6781.00   50.68491  27.95107    0.000
 6782.00   74.46376  28.05581    0.000
 6783.00   95.17374  28.08789    0.000
 6784.00   60.33718  28.03754    0.000
 6785.00   28.77399  27.89179    0.000
 6786.00   33.03807  27.64781    0.000
 6787.00   41.08588  27.33564    0.000
 6788.00   78.23008  27.02024    0.000
 6789.00  107.75865  26.78107    0.000
 6790.00   92.89670  26.67836    0.000
 6791.00   78.49102  26.72560    0.000
 6792.00   66.19523  26.88348    0.000
 6793.00   55.02183  27.08412    0.000
 6794.00   48.09221  27.26291    0.000
 6795.00   43.15441  27.37792    0.000
 6796.00   44.50615  27.42101    0.000
 6797.00   53.45576  27.40869    0.000
 6798.00   82.75329  27.36696    0.000
 6799.00  106.90173  27.32570    0.000
 6800.00  119.21899  27.31469    0.000
 6801.00  130.30566  27.35024    0.000
 6802.00  138.94514  27.42808    0.000
 6803.00  118.53680  27.53205    0.000
 6804.00   47.80208  27.64321    0.000
 6805.00    8.08266  27.74310    0.000
 6806.00   15.40908  27.81883    0.000
 6807.00   26.72462  27.86409    0.000
 6808.00   43.35660  27.87829    0.000
 6809.00   60.89685  27.86773    0.000
 6810.00   79.50316  27.84392    0.000
 6811.00  101.69540  27.81940    0.000
 6812.00  127.59908  27.80137    0.000
 6813.00  123.08698  27.79044    0.000
 6814.00   90.80787  27.78768    0.000
 6815.00   84.15641  27.79321    0.000
 6816.00   98.12634  27.79990    0.000
 6817.00  108.47456  27.80337    0.000
 6818.00  116.25861  27.80857    0.000
 6819.00  112.28088  27.82546    0.000
 6820.00  100.99723  27.86611    0.000
 6821.00   89.55170  27.93438    0.000
 6822.00   78.01832  28.01917    0.000
 6823.00   85.01134  28.10185    0.000
 6824.00  100.74013  28.17021    0.000
 6825.00   98.20264  28.23327    0.000
 6826.00   88.23774  28.31233    0.000
 6827.00   57.65068  28.41605    0.000
 6828.00   19.90381  28.52566    0.000
 6829.00   26.28377  28.60395    0.000
 6830.00   45.57440  28.61963    0.000
 6831.00   42.89680  28.56955    0.000
 6832.00   34.89792  28.48130    0.000
 6833.00   63.80529  28.39933    0.000
 6834.00   99.93329  28.36192    0.000
 6835.00  112.92830  28.38591    0.000
 6836.00  122.39702  28.46199    0.000
 6837.00  103.17766  28.56175    0.000
 6838.00   80.73837  28.65160    0.000
 6839.00   89.53680  28.70327    0.000
 6840.00  100.67029  28.69505    0.000
 6841.00  115.55235  28.60941    0.000
 6842.00  130.58325  28.43772    0.000
 6843.00  129.43185  28.19206    0.000
 6844.00  128.41100  27.91461    0.000
 6845.00  137.00801  27.67062    0.000
 6846.00  143.24850  27.52660    0.000
 6847.00  109.68212  27.52649    0.000
 6848.00   77.80049  27.67293    0.000
 6849.00   63.54367  27.92527    0.000
 6850.00   53.71402  28.21604    0.000
 6851.00   76.78246  28.47987    0.000
 6852.00   88.89684  28.67498    0.000
 6853.00   38.92393  28.78947    0.000
 6854.00   -1.37825  28.83271    0.000
 6855.00    1.98054  28.81867    0.000
 6856.00   16.26215  28.75421    0.000
 6857.00   70.97605  28.63990    0.000
 6858.00  102.19186  28.48193    0.000
 6859.00   60.62275  28.30112    0.000
 6860.00   28.91708  28.13227    0.000
 6861.00   23.16129  28.00941    0.000
 6862.00   25.69629  27.94587    0.000
 6863.00   46.96634  27.93168    0.000
 6864.00   74.45793  27.94723    0.000
 6865.00  114.12767  27.98190    0.000
 6866.00  132.73399  28.04569    0.000
 6867.00  115.39761  28.15407    0.000
 6868.00  107.58569  28.29638    0.000
 6869.00  114.00972  28.42974    0.000
 6870.00  106.83235  28.50430    0.000
 6871.00   81.78735  28.49545    0.000
 6872.00   68.03378  28.42290    0.000
 6873.00   67.34607  28.33795    0.000
 6874.00   64.06696  28.28669    0.000
 6875.00   58.14343  28.28338    0.000
 6876.00   46.19246  28.31525    0.000
 6877.00   28.81638  28.36683    0.000
 6878.00   32.81408  28.43469    0.000
 6879.00   53.76586  28.52628    0.000
 6880.00   66.25645  28.64822    0.000
 6881.00   72.84332  28.79304    0.000
 6882.00   60.07435  28.93443    0.000
 6883.00   35.46114  29.03620    0.000
 6884.00   29.72210  29.07082    0.000
 6885.00   34.06865  29.03589    0.000
 6886.00   57.43949  28.95938    0.000
 6887.00   89.63606  28.89022    0.000
 6888.00   82.27109  28.87667    0.000
 6889.00   59.09490  28.94454    0.000
 6890.00   51.26131  29.08970    0.000
 6891.00   48.65661  29.28755    0.000
 6892.00   58.11040  29.50782    0.000
 6893.00   71.02140  29.72252    0.000
 6894.00   62.11989  29.90751    0.000
 6895.00   48.05322  30.04424    0.000
 6896.00   56.46372  30.12261    0.000
 6897.00   69.15875  30.14358    0.000
 6898.00   75.91210  30.12098    0.000
 6899.00   81.78750  30.07855    0.000
 6900.00   40.63612  30.04055    0.000
 6901.00   -5.58871  30.02316    0.000
 6902.00   17.68037  30.03120    0.000
 6903.00   45.86162  30.06053    0.000
 6904.00   51.63064  30.10416    0.000
 6905.00   56.59502  30.15896    0.000
 6906.00   45.65923  30.22427    0.000
 6907.00   35.96384  30.29673    0.000
 6908.00   71.05084  30.37013    0.000
 6909.00  102.99007  30.44035    0.000
 6910.00   85.10497  30.50915    0.000
 6911.00   67.30751  30.57921    0.000
 6912.00   50.38773  30.64619    0.000
 6913.00   33.88597  30.69535    0.000
 6914.00   20.38855  30.70570    0.000
 6915.00   10.11515  30.66059    0.000
 6916.00   17.62050  30.55805    0.000
 6917.00   31.18896  30.41607    0.000
 6918.00   71.49178  30.26928    0.000
 6919.00  102.80298  30.15719    0.000
 6920.00  101.52136  30.11005    0.000
 6921.00   92.48427  30.13893    0.000
 6922.00   59.87822  30.23600    0.000
 6923.00   44.59794  30.37705    0.000
 6924.00   74.10331  30.52599    0.000
 6925.00   99.51109  30.63946    0.000
 6926.00  115.81149  30.67612    0.000
 6927.00  116.99754  30.61322    0.000
 6928.00   89.06091  30.46247    0.000
 6929.00   61.83527  30.27286    0.000
 6930.00   35.80465  30.11296    0.000
 6931.00   40.00660  30.03944    0.000
 6932.00   88.73726  30.06975    0.000
 6933.00  120.91797  30.17570    0.000
 6934.00  131.66811  30.30407    0.000
 6935.00  112.52035  30.40565    0.000
 6936.00   59.26421  30.46031    0.000
 6937.00   29.46561  30.48055    0.000
 6938.00   23.26863  30.49773    0.000
 6939.00   30.77518  30.53967    0.000
 6940.00   50.44222  30.61633    0.000
 6941.00   61.47152  30.71945    0.000
 6942.00   65.74673  30.83372    0.000
 6943.00   92.40724  30.94326    0.000
 6944.00  134.46033  31.02998    0.000
 6945.00  117.13448  31.06968    0.000
 6946.00   64.01546  31.03766    0.000
 6947.00   33.48064  30.92710    0.000
 6948.00   14.82702  30.76554    0.000
 6949.00   26.75261  30.61129    0.000
 6950.00   52.63406  30.52826    0.000
 6951.00   52.08496  30.55031    0.000
 6952.00   41.15467  30.66088    0.000
 6953.00   43.93415  30.80127    0.000
 6954.00   51.29932  30.90263    0.000
 6955.00   44.75109  30.92444    0.000
 6956.00   34.29486  30.87156    0.000
 6957.00   40.27263  30.78859    0.000
 6958.00   50.05350  30.73310    0.000
 6959.00   23.08620  30.74782    0.000
 6960.00  -10.70261  30.84376    0.000
 6961.00   34.63388  31.00134    0.000
 6962.00   91.29523  31.18439    0.000
 6963.00   70.71258  31.36025    0.000
 6964.00   42.13021  31.51137    0.000
 6965.00   18.46749  31.63492    0.000
 6966.00   -4.86735  31.73462    0.000
 6967.00   33.92471  31.81289    0.000
 6968.00   74.70004  31.87029    0.000
 6969.00   62.59613  31.91125    0.000
 6970.00   51.03498  31.94740    0.000
 6971.00   56.10909  31.99290    0.000
 6972.00   58.79989  32.05273    0.000
 6973.00   26.01780  32.11697    0.000
 6974.00   -0.32396  32.16662    0.000
 6975.00   35.17745  32.18682    0.000
 6976.00   65.90623  32.17227    0.000
 6977.00   63.43263  32.11790    0.000
 6978.00   62.61990  32.00613    0.000
 6979.00   70.72257  31.80959    0.000
 6980.00   71.25879  31.51411    0.000
 6981.00   39.19951  31.14416    0.000
 6982.00   28.57590  30.77502    0.000
 6983.00   94.05819  30.51332    0.000
 6984.00  132.33102  30.45487    0.000
 6985.00   89.46078  30.63763    0.000
 6986.00   58.24397  31.02154    0.000
 6987.00   56.62772  31.50654    0.000
 6988.00   46.57240  31.97687    0.000
 6989.00   18.06640  32.34394    0.000
 6990.00   -4.86082  32.56785    0.000
 6991.00  -17.20589  32.65391    0.000
 6992.00  -22.90354  32.63776    0.000
 6993.00  -17.59563  32.57047    0.000
 6994.00   -9.95834  32.50417    0.000
 6995.00    1.05993  32.47759   -1.000
 6996.00    8.87266  32.50364   -1.000
 6997.00   12.59370  32.56649   -1.000
 6998.00   20.52778  32.63465   -1.000
 6999.00   33.20050  32.67829   -1.000
 7000.00   35.37661  32.67982   -1.000
 7001.00   27.13986  32.63389   -1.000
 7002.00   11.41869  32.54346    0.000
 7003.00  -10.85057  32.42178    0.000
 7004.00  -23.26655  32.29469    0.000
 7005.00  -28.08784  32.19415    0.000
 7006.00    2.18268  32.14022    0.000
 7007.00   56.23192  32.12909    0.000
 7008.00   73.18737  32.13876    0.000
 7009.00   68.11781  32.15052    0.000
 7010.00   57.50790  32.16533    0.000
 7011.00   44.02865  32.20055    0.000
 7012.00   41.97786  32.27128    0.000
 7013.00   45.05761  32.37367    0.000
 7014.00   35.01318  32.48403    0.000
 7015.00   19.90345  32.56900    0.000
 7016.00   32.85770  32.59775    0.000
 7017.00   55.02314  32.54818    0.000
 7018.00   82.82633  32.41393    0.000
 7019.00  112.18050  32.21639    0.000
 7020.00   99.11506  32.01469    0.000
 7021.00   76.45937  31.89270    0.000
 7022.00   59.82182  31.92128    0.000
 7023.00   44.27165  32.11013    0.000
 7024.00   49.84925  32.39200    0.000
 7025.00   58.35360  32.65491    0.000
 7026.00   27.11381  32.80123    0.000
 7027.00   -8.07168  32.79865    0.000
 7028.00   46.73461  32.69139    0.000
 7029.00  107.17832  32.56855    0.000
 7030.00   71.80756  32.51474    0.000
 7031.00   33.65820  32.57032    0.000
 7032.00  -20.34423  32.72214    0.000
 7033.00  -71.38039  32.92309    0.000
 7034.00  -40.94641  33.12041    0.000
 7035.00  -10.50776  33.27860    0.000
 7036.00   19.99675  33.38619    0.000
 7037.00   41.23742  33.45012    0.000
 7038.00  -22.93081  33.48271    0.000
 7039.00  -71.25338  33.49002    0.000
 7040.00  -12.78831  33.47048    0.000
 7041.00   34.38039  33.42850    0.000
 7042.00   22.49467  33.39345    0.000
 7043.00   24.13948  33.42224    0.000
 7044.00   82.75007  33.56936    0.000
 7045.00  119.80609  33.84656    0.000
 7046.00   81.88621  34.19971    0.000
 7047.00   56.68630  34.53540    0.000
 7048.00   68.71657  34.77607    0.000
 7049.00   72.56163  34.90424    0.000
 7050.00   55.97369  34.96320   -2.000
 7051.00   47.30894  35.01257   -2.000
 7052.00   55.68579  35.07755   -2.000
 7053.00   64.07629  35.12397   -2.000
 7054.00   72.49226  35.07463   -2.000
 7055.00   74.23364  34.85531   -2.000
 7056.00   65.08928  34.44068   -2.000
 7057.00   64.05004  33.87550   -2.000
 7058.00   74.60435  33.26167   -2.000
 7059.00   91.01212  32.71233   -2.000
 7060.00  114.78514  32.30426   -2.000
 7061.00  123.95294  32.04541   -2.000
 7062.00  116.92471  31.88525   -2.000
 7063.00   99.08083  31.75815   -2.000
 7064.00   70.65823  31.62677   -2.000
 7065.00   56.75576  31.49987   -2.000
 7066.00   55.37767  31.41199   -2.000
 7067.00   43.50467  31.38560   -2.000
 7068.00   23.65800  31.40521   -2.000
 7069.00   46.22282  31.42389   -2.000
 7070.00   97.10699  31.39523   -2.000
 7071.00   75.27467  31.31034   -2.000
 7072.00   10.91483  31.21235   -2.000
 7073.00   29.23359  31.17583   -2.000
 7074.00   89.70200  31.26325   -2.000
 7075.00   91.10076  31.48564   -2.000
 7076.00   66.41753  31.79654   -2.000
 7077.00   62.55326  32.11855   -2.000
 7078.00   66.58347  32.38694   -2.000
 7079.00   78.82977  32.57558   -2.000
 7080.00   93.72176  32.69831   -2.000
 7081.00   74.46433  32.78783   -2.000
 7082.00   46.00743  32.87136   -2.000
 7083.00   33.28524  32.95161   -2.000
 7084.00   24.03714  33.00152   -2.000
 7085.00   34.72624  32.97269   -2.000
 7086.00   48.91985  32.81770   -2.000
 7087.00   43.09739  32.51797   -2.000
 7088.00   34.59349  32.10224   -2.000
 7089.00   35.80183  31.63898   -2.000
 7090.00   37.93306  31.20773   -2.000
 7091.00   24.15482  30.85951   -2.000
 7092.00    9.44319  30.60390   -2.000
 7093.00   36.63017  30.42101   -2.000
 7094.00   64.70174  30.28774   -2.000
 7095.00   72.63284  30.19433   -2.000
 7096.00   78.61472  30.14307   -2.000
 7097.00   36.13167  30.13801   -2.000
 7098.00   -3.16544  30.17809   -2.000
 7099.00   -0.15093  30.25828   -2.000
 7100.00    0.91452  30.37321   -2.000
 7101.00  -15.29538  30.51769   -2.000
 7102.00  -23.49296  30.68246   -2.000
 7103.00   20.65573  30.85017   -2.000
 7104.00   59.38879  30.99755   -2.000
 7105.00   70.53661  31.10496   -2.000
 7106.00   79.34944  31.16784   -2.000
 7107.00   78.55147  31.19901   -2.000
 7108.00   75.17754  31.21896   -2.000
 7109.00   63.02311  31.23952   -2.000
 7110.00   47.87023  31.25501   -2.000
 7111.00   24.10238  31.24932   -2.000
 7112.00   32.38202  31.21010   -2.000
 7113.00  119.29547  31.13891   -2.000
 7114.00  152.59167  31.05304   -2.000
 7115.00   72.42525  30.97904   -2.000
 7116.00   29.75653  30.94665   -2.000
 7117.00   56.03645  30.97732   -2.000
 7118.00   61.82833  31.07449   -2.000
 7119.00   34.70234  31.21855   -2.000
 7120.00   55.20915  31.37313   -2.000
 7121.00  142.86397  31.50076   -2.000
 7122.00  155.26108  31.57635   -2.000
 7123.00   74.30878  31.59386   -2.000
 7124.00   22.51954  31.56261   -2.000
 7125.00    2.61483  31.49935   -2.000
 7126.00   12.21471  31.41908   -2.000
 7127.00   50.26777  31.32863   -2.000
 7128.00 -535.67432  31.22437   -2.000
 7129.00 **********  31.09641   -2.000
 7130.00 **********  30.93756   -2.000
 7131.00 -379.47696  30.75061   -2.000
 7132.00   63.48433  30.54914   -2.000
 7133.00   64.96429  30.35297   -2.000
 7134.00   47.15717  30.18724   -2.000
 7135.00   18.24042  30.08279   -2.000
 7136.00   27.64507  30.07174   -2.000
 7137.00   56.27898  30.17356   -2.000
 7138.00   56.98402  30.37889   -2.000
 7139.00   45.56120  30.64745   -2.000
 7140.00   48.39327  30.92101   -2.000
 7141.00   56.53539  31.14664   -2.000
 7142.00   55.44780  31.29717   -2.000
 7143.00   51.44483  31.37694   -2.000
 7144.00   51.81655  31.41469   -2.000
 7145.00   53.34196  31.44434   -2.000
 7146.00   56.11005  31.48476   -2.000
 7147.00   59.14602  31.53078   -2.000
 7148.00   52.45670  31.55833   -2.000
 7149.00   44.10522  31.54034   -2.000
 7150.00   44.24520  31.46227   -2.000
 7151.00   45.48428  31.33285   -2.000
 7152.00   36.15901  31.18719   -2.000
 7153.00   25.87446  31.07951   -2.000
 7154.00   35.65102  31.06380   -2.000
 7155.00   46.52538  31.16953   -2.000
 7156.00   38.94605  31.38593   -2.000
 7157.00   31.27257  31.66446   -2.000
 7158.00   50.29770  31.94316   -2.000
 7159.00   69.63134  32.17322   -2.000
 7160.00   95.96715  32.33435   -2.000
 7161.00  119.60114  32.42958   -2.000
 7162.00  109.20643  32.46923   -2.000
 7163.00   95.54341  32.46104   -2.000
 7164.00   53.99779  32.40891   -2.000
 7165.00   16.70758  32.31725   -2.000
 7166.00    6.38772  32.19121   -2.000
 7167.00    3.51732  32.03897   -2.000
 7168.00   37.63482  31.88019   -2.000
 7169.00   64.93048  31.75515   -2.000
 7170.00   64.76740  31.71750   -2.000
 7171.00   63.75505  31.80825   -2.000
 7172.00   59.90535  32.02792   -2.000
 7173.00   55.71648  32.33266   -2.000
 7174.00   50.57090  32.65638   -2.000
 7175.00   48.08064  32.94535   -2.000
 7176.00   51.99506  33.16944   -2.000
 7177.00   53.90290  33.31741   -2.000
 7178.00   51.63263  33.38720   -2.000
 7179.00   57.76597  33.38297   -2.000
 7180.00   79.11451  33.31934   -2.000
 7181.00   84.99327  33.21848   -2.000
 7182.00   66.38500  33.09857   -2.000
 7183.00   52.79360  32.96801   -2.000
 7184.00   46.17244  32.83577   -2.000
 7185.00   44.42889  32.72527   -2.000
 7186.00   48.64968  32.67325   -2.000
 7187.00   58.17481  32.70409   -2.000
 7188.00   73.41776  32.79732   -2.000
 7189.00   74.01006  32.88754   -2.000
 7190.00   60.67219  32.89909   -2.000
 7191.00   52.50579  32.79556   -2.000
 7192.00   48.67490  32.60665   -2.000
 7193.00   49.33293  32.40939   -2.000
 7194.00   53.30444  32.28313   -2.000
 7195.00   42.54342  32.26849   -2.000
 7196.00   22.23129  32.35515   -2.000
 7197.00   33.24211  32.50332   -2.000
 7198.00   62.02199  32.67023   -2.000
 7199.00   81.85038  32.82718   -2.000
 7200.00   97.25798  32.95974   -2.000
 7201.00   90.07020  33.06397   -2.000
 7202.00   73.23399  33.14277   -2.000
 7203.00   62.02290  33.20536   -2.000
 7204.00   52.86995  33.26487   -2.000
 7205.00   38.27910  33.33223   -2.000
 7206.00   22.00370  33.41039   -2.000
 7207.00   15.89792  33.48790   -2.000
 7208.00   12.41693  33.53584   -2.000
 7209.00   20.31360  33.51548   -2.000
 7210.00   30.60355  33.40140   -2.000
 7211.00   45.78805  33.20927   -2.000
 7212.00   61.78547  33.00600   -2.000
 7213.00   51.22337  32.88243   -2.000
 7214.00   37.34269  32.90239   -2.000
 7215.00   48.77149  33.06395   -2.000
 7216.00   62.39245  33.30151   -2.000
 7217.00   48.45390  33.52990   -2.000
 7218.00   33.11515  33.69578   -2.000
