###################################################################
## OUTPUT of StarlightChains_v04.for    [Cid@UFSC - 01/Apr/2007] ##
###################################################################

## Some input info
KUG0210-078._34_22.txt                   [arq_obs]
Base.CB07.vall.4m                        [arq_base]
Masks.EmLines.NEW.gm                     [arq_masks]
StCv04.C11.config                        [arq_config]
   66                                    [N_base]
    0                                    [N_YAV_components = # of components with extra extinction!]
    0                                    [i_FitPowerLaw (1/0 = Yes/No)]
-9.99                                    [alpha_PowerLaw]
CCM                                      [red_law_option]
 1.458241                                [q_norm = A(l_norm)/A(V)]

## (Re)Sampling Parameters
 3741.00                                 [l_ini (A)]
 7218.00                                 [l_fin (A)]
    1.00                                 [dl    (A)]     (OBS: dl_cushion =    50.00 A)

## Normalization info
 4020.00                                 [l_norm (A) - for base]
 4010.00                                 [llow_norm (A) - window for f_obs]
 4060.00                                 [lupp_norm (A) - window for f_obs]
8.890584E-18                             [fobs_norm (in input units)]

## S/N
 3691.00                                 [llow_SN (A) - window for S/N]
 7268.00                                 [lupp_SN (A) - window for S/N]
   3.627                                 [S/N in S/N window]
   4.489                                 [S/N in norm. window]
   0.009                                 [S/N_err in S/N window]
   0.011                                 [S/N_err in norm. window]
  1.0000                                 [fscale_chi2]

## etc...
    -2007527                             [idum_orig]
  2357                                   [NOl_eff]
  2013                                   [Nl_eff]
   344    NSIGMA                         [Ntot_cliped & clip_method]
 10448130                                [Nglobal_steps]
   7                                     [N_chains]
  35                                     [NEX0s_base = N_base in EX0s-fits]
 0   0   1      344   2.0   7.458E+03    [Clip-Bug, RC-Crash & Burn-In warning-flags, n_censored_weights, wei_nsig_threshold & wei_limit]
    78     77.258     76.443      0.815  [idt_all, wdt_TotTime, wdt_UsrTime & wdt_SysTime (sec)]

## Synthesis Results - Best model ##

 2.75354E-06                             [chi2/Nl_eff]
    11.91960                             [adev (%)]

    97.73257                             [sum-of-x (%)]
 3.28433E-18                             [Flux_tot (units of input spectrum!)]
 2.15355E-13                             [Mini_tot (???)]
 1.08577E-13                             [Mcor_tot (???)]

-113.72                                  [v0_min  (km/s)]
 218.79                                  [vd_min  (km/s)]
-0.7244                                  [AV_min  (mag)]
 0.0000                                  [YAV_min (mag)]

# j     x_j(%)      Mini_j(%)     Mcor_j(%)     age_j(yr)     Z_j      (L/M)_j    YAV?  Mstars   component_j        a/Fe...       SSP_chi2r SSP_adev(%)   SSP_AV   SSP_x(%)
  1      0.0000     0.0000E+00    0.0000E+00    1.000000E+06  0.00400  1.094E-02    0   1.0000   age020_m42            0.0000     3.2427E-06    12.5601   2.5707    90.2197
  2      0.0000     0.0000E+00    0.0000E+00    3.160000E+06  0.00400  4.007E-02    0   0.9999   age045_m42            0.0000     3.1973E-06    12.5375   1.9075    94.0088
  3      0.0000     0.0000E+00    0.0000E+00    5.010000E+06  0.00400  2.539E-02    0   0.9488   age055_m42            0.0000     3.2042E-06    12.5120   2.2003    92.7747
  4      0.0000     0.0000E+00    0.0000E+00    6.610000E+06  0.00400  2.620E-02    0   0.9220   age061_m42            0.0000     3.1719E-06    12.5300   1.8344    94.2971
  5      0.0000     0.0000E+00    0.0000E+00    1.000000E+07  0.00400  1.322E-02    0   0.8862   age070_m42            0.0000     3.1386E-06    12.6913   1.5315    97.8460
  6      0.0000     0.0000E+00    0.0000E+00    1.445000E+07  0.00400  7.883E-03    0   0.8571   age078_m42            0.0000     3.1683E-06    12.6746   1.8449    95.7690
  7      1.1952     3.5518E-03    5.7584E-03    2.512000E+07  0.00400  5.251E-03    0   0.8174   age090_m42            0.0000     3.1399E-06    12.7643   1.4022    98.5069
  8      0.0000     0.0000E+00    0.0000E+00    4.000000E+07  0.00400  3.649E-03    0   0.7851   age104_m42            0.0000     3.1078E-06    12.7150   1.1885    98.7265
  9      0.0000     0.0000E+00    0.0000E+00    5.500000E+07  0.00400  3.098E-03    0   0.7629   age110_m42            0.0000     3.1158E-06    12.6289   1.3615    97.6272
 10      0.0000     0.0000E+00    0.0000E+00    1.015200E+08  0.00400  2.228E-03    0   0.7207   age116_m42            0.0000     3.1173E-06    12.5671   1.3940    97.1244
 11      1.4204     2.0278E-02    2.6739E-02    2.861200E+08  0.00400  1.093E-03    0   0.6648   age125_m42            0.0000     3.1275E-06    12.9439   0.8257   100.1075
 12      0.0000     0.0000E+00    0.0000E+00    5.088000E+08  0.00400  6.597E-04    0   0.6365   age130_m42            0.0000     3.0810E-06    12.7122   0.8367    99.8098
 13      0.0000     0.0000E+00    0.0000E+00    1.434000E+09  0.00400  2.132E-04    0   0.5798   age139_m42            0.0000     2.8692E-06    12.2381  -0.0978   100.2010
 14      0.0000     0.0000E+00    0.0000E+00    4.250000E+09  0.00400  5.895E-05    0   0.5377   age158_m42            0.0000     2.8387E-06    12.0021  -0.5236    95.2309
 15      0.0000     0.0000E+00    0.0000E+00    7.500000E+09  0.00400  3.510E-05    0   0.5212   age171_m42            0.0000     2.8276E-06    11.9653  -0.7013    94.0057
 16      0.0000     0.0000E+00    0.0000E+00    1.300000E+10  0.00400  2.005E-05    0   0.5034   age193_m42            0.0000     2.8353E-06    11.9699  -0.8634    93.1932
 17      0.0000     0.0000E+00    0.0000E+00    1.800000E+10  0.00400  1.525E-05    0   0.4967   age213_m42            0.0000     2.8381E-06    11.9856  -0.8881    92.8749
 18      3.3015     4.1615E-03    8.2540E-03    1.000000E+06  0.00800  1.238E-02    0   1.0000   age020_m52            0.0000     3.2406E-06    12.5541   2.5675    90.3709
 19      1.0182     5.1687E-04    1.0217E-03    3.160000E+06  0.00800  3.074E-02    0   0.9966   age045_m52            0.0000     3.2326E-06    12.5193   2.4981    90.9156
 20      0.0000     0.0000E+00    0.0000E+00    5.010000E+06  0.00800  2.668E-02    0   0.9443   age055_m52            0.0000     3.1926E-06    12.4919   2.2742    92.2886
 21      0.0000     0.0000E+00    0.0000E+00    6.610000E+06  0.00800  2.136E-02    0   0.9177   age061_m52            0.0000     3.0093E-06    12.4146   1.0295    98.9679
 22      0.0000     0.0000E+00    0.0000E+00    1.000000E+07  0.00800  1.215E-02    0   0.8827   age070_m52            0.0000     3.1645E-06    12.8461   1.6946    98.3894
 23      0.0000     0.0000E+00    0.0000E+00    1.445000E+07  0.00800  8.717E-03    0   0.8552   age078_m52            0.0000     3.1498E-06    12.6633   1.8152    96.9498
 24      0.0000     0.0000E+00    0.0000E+00    2.512000E+07  0.00800  5.592E-03    0   0.8162   age090_m52            0.0000     3.1338E-06    12.8380   1.4730    99.4237
 25      1.6436     6.5832E-03    1.0238E-02    4.000000E+07  0.00800  3.896E-03    0   0.7841   age104_m52            0.0000     3.1331E-06    12.8527   1.4045    99.2319
 26      0.0000     0.0000E+00    0.0000E+00    1.015200E+08  0.00800  2.148E-03    0   0.7226   age116_m52            0.0000     3.1184E-06    12.7077   1.3615    98.0188
 27      0.0000     0.0000E+00    0.0000E+00    2.861200E+08  0.00800  9.925E-04    0   0.6683   age125_m52            0.0000     3.0525E-06    12.6932   0.9067   100.5548
 28      0.0000     0.0000E+00    0.0000E+00    9.047900E+08  0.00800  3.141E-04    0   0.6138   age135_m52            0.0000     2.9254E-06    12.4668   0.1781   101.3068
 29      0.0000     0.0000E+00    0.0000E+00    1.434000E+09  0.00800  1.719E-04    0   0.5853   age139_m52            0.0000     2.8646E-06    12.3605  -0.4083    99.3313
 30      0.0000     0.0000E+00    0.0000E+00    2.500000E+09  0.00800  7.872E-05    0   0.5600   age150_m52            0.0000     2.8033E-06    11.9873  -0.6506    95.3004
 31      0.0000     0.0000E+00    0.0000E+00    4.250000E+09  0.00800  4.336E-05    0   0.5426   age158_m52            0.0000     2.8189E-06    11.9948  -0.6671    94.4074
 32     10.4870     5.1803E+00    5.4651E+00    6.250000E+09  0.00800  3.159E-05    0   0.5319   age166_m52            0.0000     2.8109E-06    11.9443  -0.8526    93.5355
 33      0.0000     0.0000E+00    0.0000E+00    1.300000E+10  0.00800  1.361E-05    0   0.5073   age193_m52            0.0000     3.0159E-06    12.8910  -1.0000    83.3225
 34      0.8996     1.4199E+00    1.4053E+00    1.800000E+10  0.00800  9.886E-06    0   0.4990   age213_m52            0.0000     3.1781E-06    13.3908  -1.0000    79.6278
 35      0.0000     0.0000E+00    0.0000E+00    1.000000E+06  0.02000  1.544E-02    0   1.0000   age020_m62            0.0000     3.2428E-06    12.5524   2.5625    90.6322
 36      0.0000     0.0000E+00    0.0000E+00    3.160000E+06  0.02000  3.762E-02    0   0.9858   age045_m62            0.0000     3.2318E-06    12.5457   2.4990    91.4991
 37      0.0000     0.0000E+00    0.0000E+00    5.010000E+06  0.02000  3.296E-02    0   0.9342   age055_m62            0.0000     3.1750E-06    12.4717   2.1701    93.4934
 38      0.0000     0.0000E+00    0.0000E+00    8.710000E+06  0.02000  1.154E-02    0   0.8861   age067_m62            0.0000     3.2688E-06    13.8207   1.0766   105.6146
 39      0.0000     0.0000E+00    0.0000E+00    1.445000E+07  0.02000  7.663E-03    0   0.8472   age078_m62            0.0000     3.1643E-06    13.1976   1.3251   101.6579
 40      0.0000     0.0000E+00    0.0000E+00    2.512000E+07  0.02000  4.532E-03    0   0.8099   age090_m62            0.0000     3.1904E-06    13.3501   1.3200   101.3373
 41      0.0000     0.0000E+00    0.0000E+00    5.500000E+07  0.02000  2.733E-03    0   0.7595   age110_m62            0.0000     3.0959E-06    12.7780   1.3785    98.8734
 42      9.8503     1.1228E-01    1.5555E-01    1.609000E+08  0.02000  1.369E-03    0   0.6985   age120_m62            0.0000     3.0766E-06    12.6727   1.2534    99.7431
 43      0.0000     0.0000E+00    0.0000E+00    2.861200E+08  0.02000  9.013E-04    0   0.6714   age125_m62            0.0000     3.0321E-06    12.5569   1.0304   101.3475
 44      6.9106     2.1447E-01    2.7434E-01    5.088000E+08  0.02000  5.028E-04    0   0.6449   age130_m62            0.0000     2.9819E-06    12.3732   0.7012   101.5203
 45      2.6837     1.7248E-01    2.1139E-01    9.047900E+08  0.02000  2.428E-04    0   0.6179   age135_m62            0.0000     2.8648E-06    12.1914   0.1484    99.2140
 46      0.0000     0.0000E+00    0.0000E+00    1.434000E+09  0.02000  1.263E-04    0   0.5908   age139_m62            0.0000     2.8007E-06    12.0246  -0.2856    97.1909
 47      0.0000     0.0000E+00    0.0000E+00    2.500000E+09  0.02000  5.985E-05    0   0.5673   age150_m62            0.0000     2.7905E-06    11.8976  -0.6331    94.7826
 48      0.8600     4.1027E-01    4.4495E-01    4.250000E+09  0.02000  3.271E-05    0   0.5468   age158_m62            0.0000     2.7904E-06    11.8005  -0.9129    92.7226
 49      0.0754     8.6553E-02    8.8703E-02    1.000000E+10  0.02000  1.360E-05    0   0.5167   age181_m62            0.0000     2.9361E-06    12.2906  -1.0000    84.2445
 50     21.7049     4.7543E+01    4.7272E+01    1.800000E+10  0.02000  7.124E-06    0   0.5013   age213_m62            0.0000     3.2243E-06    13.2940  -1.0000    77.4435
 51      0.0000     0.0000E+00    0.0000E+00    1.000000E+06  0.05000  2.592E-02    0   0.9998   age020_m72            0.0000     3.2605E-06    12.5548   2.5506    90.8026
 52      0.0000     0.0000E+00    0.0000E+00    3.160000E+06  0.05000  4.845E-02    0   0.9577   age045_m72            0.0000     3.2114E-06    12.5143   2.4035    91.8714
 53      0.0342     1.7389E-05    3.1548E-05    5.010000E+06  0.05000  3.072E-02    0   0.9147   age055_m72            0.0000     3.2250E-06    13.1814   1.9070    97.2597
 54      0.0000     0.0000E+00    0.0000E+00    6.610000E+06  0.05000  1.455E-02    0   0.8877   age061_m72            0.0000     3.7321E-06    15.8390   1.0684   108.9385
 55      0.0000     0.0000E+00    0.0000E+00    1.000000E+07  0.05000  9.074E-03    0   0.8524   age070_m72            0.0000     3.3969E-06    14.0940   2.0701    97.3325
 56      0.0000     0.0000E+00    0.0000E+00    2.512000E+07  0.05000  4.250E-03    0   0.7902   age090_m72            0.0000     3.2898E-06    13.5866   1.8101    97.9416
 57      0.0000     0.0000E+00    0.0000E+00    4.000000E+07  0.05000  3.087E-03    0   0.7618   age104_m72            0.0000     3.2930E-06    13.6733   1.5905    99.4062
 58      0.3821     3.5071E-03    4.9361E-03    1.015200E+08  0.05000  1.700E-03    0   0.7096   age116_m72            0.0000     3.1465E-06    12.9232   1.3813   100.0615
 59      7.5007     1.5851E-01    2.0854E-01    2.861200E+08  0.05000  7.384E-04    0   0.6633   age125_m72            0.0000     3.0052E-06    12.4866   0.9350   100.9412
 60      0.0000     0.0000E+00    0.0000E+00    5.088000E+08  0.05000  3.819E-04    0   0.6372   age130_m72            0.0000     2.8792E-06    12.1564   0.4890   100.2515
 61     12.2636     1.1418E+00    1.3837E+00    9.047900E+08  0.05000  1.676E-04    0   0.6110   age135_m72            0.0000     2.7893E-06    11.8688  -0.1623    96.1859
 62      0.0000     0.0000E+00    0.0000E+00    1.434000E+09  0.05000  8.837E-05    0   0.5874   age139_m72            0.0000     2.7803E-06    11.9150  -0.6149    95.3951
 63      0.0000     0.0000E+00    0.0000E+00    2.500000E+09  0.05000  4.233E-05    0   0.5598   age150_m72            0.0000     2.7983E-06    11.8221  -0.8948    92.6735
 64      1.9296     2.0983E+00    2.1846E+00    6.250000E+09  0.05000  1.435E-05    0   0.5249   age166_m72            0.0000     3.0526E-06    12.7184  -1.0000    81.0531
 65      5.0991     1.2217E+01    1.2203E+01    1.300000E+10  0.05000  6.513E-06    0   0.5036   age193_m72            0.0000     3.5705E-06    14.5318  -1.0000    73.7907
 66      8.4730     2.9206E+01    2.8646E+01    1.800000E+10  0.05000  4.527E-06    0   0.4945   age213_m72            0.0000     3.9871E-06    15.8023  -1.0000    69.2281


## Synthesis Results - Average & Chains ##

# j      x_j: min, <> & last-chain-values for 1 ...  7 chains
  1      0.0000      0.2054      1.2574      0.0000      0.0000      0.0873      0.1095      0.3212      0.1594
  2      0.0000      0.1753      0.2667      0.2839      0.0432      0.0000      0.0000      0.7540      0.0589
  3      0.0000      0.1986      0.0000      0.0000      0.0000      0.0772      1.1832      0.3333      0.0000
  4      0.0000      0.1713      0.0630      0.0735      0.2999      0.2271      0.7921      0.0258      0.2649
  5      0.0000      0.1481      0.1001      0.0000      0.0000      0.3920      0.4907      0.1457      0.1482
  6      0.0000      0.1753      0.5925      0.4385      0.4708      0.3271      0.0368      0.4459      0.0000
  7      1.1952      0.3888      0.2055      1.8551      0.4521      0.3911      0.1889      0.9895      0.2050
  8      0.0000      0.1965      0.0424      0.1874      0.1471      0.6303      0.1949      0.4276      0.0435
  9      0.0000      0.2076      0.0421      0.2685      0.0118      0.8664      0.0000      0.6224      0.3210
 10      0.0000      0.2661      0.0788      0.2857      0.5478      1.1136      0.3638      0.5988      0.3966
 11      1.4204      0.1800      0.2468      0.4203      0.8353      0.2305      0.0000      1.0846      0.1447
 12      0.0000      0.2672      0.0000      1.6347      0.2867      0.7633      0.3606      0.2495      0.1501
 13      0.0000      0.1159      0.6632      0.7747      0.0000      0.4627      0.2322      0.9014      0.0000
 14      0.0000      0.2267      0.1304      0.1958      0.3929      0.6854      0.5285      0.4260      0.2990
 15      0.0000      0.1716      0.9777      0.4177      0.0000      0.2768      0.1774      0.0000      0.0000
 16      0.0000      0.1893      0.0949      0.1959      0.9781      0.8374      0.0000      0.1917      0.3723
 17      0.0000      0.1290      0.0000      0.1822      0.1037      0.0000      0.4584      0.4016      0.3412
 18      3.3015      0.1859      0.6005      0.0957      0.6844      0.1264      0.3256      0.4800      0.3814
 19      1.0182      0.1791      0.1959      0.2587      0.2832      0.1909      0.0933      0.4352      0.2233
 20      0.0000      0.1907      0.2449      0.2522      0.8274      0.4633      0.0000      0.0000      0.0000
 21      0.0000      0.2458      0.0000      0.2703      0.1837      0.5950      0.1230      1.5592      0.0000
 22      0.0000      0.1555      0.4127      0.3467      0.0539      1.0142      0.3111      0.2951      0.3423
 23      0.0000      0.2332      0.3601      0.0442      0.2428      0.2120      0.2394      0.2102      0.3643
 24      0.0000      0.1654      0.0000      0.0000      0.3614      0.5830      0.8707      0.6265      0.3217
 25      1.6436      0.2177      0.0000      0.2138      1.0045      0.0177      0.5758      0.5896      0.1799
 26      0.0000      0.1664      0.3941      0.0000      0.5737      0.1350      0.1053      0.0000      0.0990
 27      0.0000      0.1918      0.0000      0.0000      0.0883      0.2811      0.3100      0.0000      0.0000
 28      0.0000      0.1545      0.0892      0.2555      0.3401      0.2022      0.0175      0.0000      0.2338
 29      0.0000      0.1927      0.5016      0.3259      0.0000      0.0000      0.2429      0.3128      0.0000
 30      0.0000      0.2036      0.4009      0.5599      0.1651      0.5607      0.0000      0.3784      0.1041
 31      0.0000      0.2292      0.1452      0.1752      0.0000      0.5324      0.0759      0.9696      0.1440
 32     10.4870      0.1583      0.2068      0.1189      0.2628      0.0044      0.2211      1.0211      0.0328
 33      0.0000      0.1471      0.0576      0.0598      0.2123      0.4765      0.2923      0.6494      0.3145
 34      0.8996      0.1722      0.4146      0.0000      0.8204      0.6115      0.7968      0.1244      0.2413
 35      0.0000      0.2154      0.6103      0.2334      0.3031      0.9770      0.0889      0.6166      0.1814
 36      0.0000      0.2193      0.3717      0.2733      0.7591      0.0000      0.1852      0.1268      0.0549
 37      0.0000      0.1846      0.1327      0.6495      0.0283      0.2169      0.0730      0.1159      0.4561
 38      0.0000      0.2092      0.5364      0.0000      0.0712      0.2672      0.4083      0.0424      0.1800
 39      0.0000      0.1554      0.0000      0.5332      0.1610      0.8841      0.0592      0.0000      0.0000
 40      0.0000      0.1725      0.2082      0.5526      0.0218      0.0000      0.0000      0.1323      0.3932
 41      0.0000      0.1758      0.0000      0.1557      0.1861      0.7740      0.3756      0.2655      0.0351
 42      9.8503      0.2007      0.0000      0.2549      1.3129      0.2916      0.6299      0.2659      0.0000
 43      0.0000      0.1180      0.0000      0.2462      0.0000      0.4159      0.6119      0.0000      0.1339
 44      6.9106      1.0567      0.7895      0.1047      1.3292      0.9771      1.1210      0.2682      0.8517
 45      2.6837      0.1656      0.1490      0.4477      0.2495      0.0000      0.4249      0.0799      0.1179
 46      0.0000      0.1644      0.0000      0.6423      0.4421      0.1223      0.0000      0.0439      0.0365
 47      0.0000      0.2186      0.0000      0.4424      0.0000      0.0000      0.9135      0.0557      0.0000
 48      0.8600      0.1507      0.3947      0.0946      0.4463      0.1558      0.2033      0.3168      0.1482
 49      0.0754      0.2260      0.6344      0.0000      0.6572      0.1002      0.4438      0.0830      0.0932
 50     21.7049      6.4415      6.2664      5.5417      6.9225      5.8069      5.7604      6.2574      6.4804
 51      0.0000      0.2329      0.2763      0.2191      0.0000      0.6086      0.1244      0.0000      0.1149
 52      0.0000      0.1952      0.4614      0.0747      0.0000      0.5258      0.2034      0.0000      0.1869
 53      0.0342      0.2290      0.0931      0.8918      0.4675      0.0000      0.2109      0.6543      0.1464
 54      0.0000      0.1677      0.0000      0.4952      0.5859      0.3129      0.3251      0.6359      0.3221
 55      0.0000      0.1337      0.1228      0.1656      0.0340      0.0000      0.3111      0.0000      0.0532
 56      0.0000      0.1824      0.3600      0.0148      0.0000      0.5926      0.1046      0.0785      0.0000
 57      0.0000      0.2236      0.0000      0.0000      0.5099      0.3905      0.0000      0.4592      0.3743
 58      0.3821      0.2061      0.3623      0.3641      0.3302      0.0636      0.6841      0.0000      0.1078
 59      7.5007      0.1637      0.1077      1.2185      0.6999      0.0000      0.0000      0.3136      0.0184
 60      0.0000      0.2392      0.0000      0.5092      0.0749      0.3727      0.5648      0.1568      0.0827
 61     12.2636     63.9305     60.8195     58.8288     55.2073     54.2066     57.3068     54.6176     65.8450
 62      0.0000      0.1489      0.1557      0.1880      0.0000      0.4366      0.0000      0.1226      0.4912
 63      0.0000      0.2332      0.2305      0.0927      0.0539      1.0966      0.6109      0.2230      0.0492
 64      1.9296      1.7929      2.0080      1.7194      2.5166      1.4643      2.0196      1.5086      1.6133
 65      5.0991      2.4415      2.2365      1.7710      2.2600      2.4422      2.5433      2.5313      2.3264
 66      8.4730     19.1894     20.1032     19.3033     19.2841     19.6341     20.6479     20.8206     19.5681

# j      m_j: min, <> & last-chain-values for 1 ...  7 chains
  1  0.0000E+00  6.0660E-04  3.5970E-03  0.0000E+00  0.0000E+00  2.5613E-04  3.0683E-04  8.9826E-04  4.6467E-04
  2  0.0000E+00  1.4134E-04  2.0831E-04  2.3902E-04  3.3817E-05  0.0000E+00  0.0000E+00  5.7556E-04  4.6845E-05
  3  0.0000E+00  2.3982E-04  0.0000E+00  0.0000E+00  0.0000E+00  9.2577E-05  1.3551E-03  3.8103E-04  0.0000E+00
  4  0.0000E+00  1.9474E-04  6.9355E-05  8.7275E-05  3.3084E-04  2.5653E-04  8.5429E-04  2.7783E-05  2.9723E-04
  5  0.0000E+00  3.2077E-04  2.0998E-04  0.0000E+00  0.0000E+00  8.4355E-04  1.0081E-03  2.9882E-04  3.1676E-04
  6  0.0000E+00  6.1572E-04  2.0161E-03  1.6090E-03  1.6046E-03  1.1416E-03  1.2251E-04  1.4829E-03  0.0000E+00
  7  5.7584E-03  1.9558E-03  1.0011E-03  9.7441E-03  2.2064E-03  1.9542E-03  9.0137E-04  4.7118E-03  1.0177E-03
  8  0.0000E+00  1.3664E-03  2.8543E-04  1.3609E-03  9.9247E-04  4.3533E-03  1.2849E-03  2.8147E-03  2.9857E-04
  9  0.0000E+00  1.6522E-03  3.2451E-04  2.2314E-03  9.0935E-05  6.8482E-03  0.0000E+00  4.6887E-03  2.5207E-03
 10  0.0000E+00  2.7813E-03  7.9813E-04  3.1190E-03  5.5552E-03  1.1563E-02  3.6063E-03  5.9253E-03  4.0910E-03
 11  2.6739E-02  3.5385E-03  4.6971E-03  8.6260E-03  1.5927E-02  4.5003E-03  0.0000E+00  2.0181E-02  2.8060E-03
 12  0.0000E+00  8.3308E-03  0.0000E+00  5.3220E-02  8.6704E-03  2.3639E-02  1.0662E-02  7.3632E-03  4.6189E-03
 13  0.0000E+00  1.0182E-02  5.6441E-02  7.1093E-02  0.0000E+00  4.0392E-02  1.9350E-02  7.4988E-02  0.0000E+00
 14  0.0000E+00  6.6823E-02  3.7219E-02  6.0262E-02  1.1235E-01  2.0066E-01  1.4774E-01  1.1886E-01  8.6960E-02
 15  0.0000E+00  8.2352E-02  4.5436E-01  2.0929E-01  0.0000E+00  1.3195E-01  8.0710E-02  0.0000E+00  0.0000E+00
 16  0.0000E+00  1.5359E-01  7.4590E-02  1.6601E-01  7.6983E-01  6.7488E-01  0.0000E+00  1.4725E-01  2.9809E-01
 17  0.0000E+00  1.3573E-01  0.0000E+00  2.0019E-01  1.0591E-01  0.0000E+00  4.5759E-01  4.0013E-01  3.5439E-01
 18  8.2540E-03  4.8514E-04  1.5180E-03  2.6085E-04  1.7329E-03  3.2781E-04  8.0605E-04  1.1862E-03  9.8244E-04
 19  1.0217E-03  1.8767E-04  1.9873E-04  2.8296E-04  2.8778E-04  1.9863E-04  9.2697E-05  4.3158E-04  2.3088E-04
 20  0.0000E+00  2.1815E-04  2.7131E-04  3.0116E-04  9.1806E-04  5.2639E-04  0.0000E+00  0.0000E+00  0.0000E+00
 21  0.0000E+00  3.4124E-04  0.0000E+00  3.9191E-04  2.4740E-04  8.2058E-04  1.6200E-04  2.0493E-03  0.0000E+00
 22  0.0000E+00  3.6506E-04  9.3836E-04  8.4989E-04  1.2275E-04  2.3652E-03  6.9260E-04  6.5586E-04  7.9304E-04
 23  0.0000E+00  7.3917E-04  1.1057E-03  1.4622E-04  7.4668E-04  6.6756E-04  7.1990E-04  6.3078E-04  1.1396E-03
 24  0.0000E+00  7.7997E-04  0.0000E+00  0.0000E+00  1.6534E-03  2.7316E-03  3.8948E-03  2.7973E-03  1.4975E-03
 25  1.0238E-02  1.4155E-03  0.0000E+00  1.4520E-03  6.3376E-03  1.1408E-04  3.5515E-03  3.6298E-03  1.1545E-03
 26  0.0000E+00  1.8090E-03  4.1493E-03  0.0000E+00  6.0502E-03  1.4579E-03  1.0854E-03  0.0000E+00  1.0623E-03
 27  0.0000E+00  4.1743E-03  0.0000E+00  0.0000E+00  1.8637E-03  6.0767E-03  6.3969E-03  0.0000E+00  0.0000E+00
 28  0.0000E+00  9.7562E-03  5.4545E-03  1.6850E-02  2.0835E-02  1.2684E-02  1.0490E-03  0.0000E+00  1.4569E-02
 29  0.0000E+00  2.1196E-02  5.3455E-02  3.7443E-02  0.0000E+00  0.0000E+00  2.5344E-02  3.2578E-02  0.0000E+00
 30  0.0000E+00  4.6813E-02  8.9242E-02  1.3440E-01  3.6821E-02  1.2803E-01  0.0000E+00  8.2336E-02  2.3619E-02
 31  0.0000E+00  9.2670E-02  5.6851E-02  7.3993E-02  0.0000E+00  2.1385E-01  2.9109E-02  3.7117E-01  5.7446E-02
 32  5.4651E+00  8.6151E-02  1.0899E-01  6.7582E-02  1.3874E-01  2.3540E-03  1.1412E-01  5.2595E-01  1.7610E-02
 33  0.0000E+00  1.7714E-01  6.7146E-02  7.5275E-02  2.4802E-01  5.7015E-01  3.3395E-01  7.4042E-01  3.7383E-01
 34  1.4053E+00  2.8089E-01  6.5486E-01  0.0000E+00  1.2981E+00  9.9081E-01  1.2326E+00  1.9207E-01  3.8845E-01
 35  0.0000E+00  4.5086E-04  1.2371E-03  5.1013E-04  6.1541E-04  2.0311E-03  1.7652E-04  1.2216E-03  3.7462E-04
 36  0.0000E+00  1.8572E-04  3.0485E-04  2.4161E-04  6.2360E-04  0.0000E+00  1.4875E-04  1.0163E-04  4.5857E-05
 37  0.0000E+00  1.6907E-04  1.1770E-04  6.2118E-04  2.5108E-05  1.9731E-04  6.3425E-05  1.0053E-04  4.1221E-04
 38  0.0000E+00  5.1905E-04  1.2890E-03  0.0000E+00  1.7148E-04  6.5864E-04  9.6085E-04  9.9540E-05  4.4066E-04
 39  0.0000E+00  5.5516E-04  0.0000E+00  1.9891E-03  5.5805E-04  3.1376E-03  2.0073E-04  0.0000E+00  0.0000E+00
 40  0.0000E+00  9.9617E-04  1.1645E-03  3.3321E-03  1.2231E-04  0.0000E+00  0.0000E+00  7.2321E-04  2.2410E-03
 41  0.0000E+00  1.5787E-03  0.0000E+00  1.4604E-03  1.6217E-03  6.9044E-03  3.1986E-03  2.2567E-03  3.1062E-04
 42  1.5555E-01  3.3086E-03  0.0000E+00  4.3887E-03  2.0999E-02  4.7757E-03  9.8494E-03  4.1503E-03  0.0000E+00
 43  0.0000E+00  2.8412E-03  0.0000E+00  6.1881E-03  0.0000E+00  9.9445E-03  1.3969E-02  0.0000E+00  3.1809E-03
 44  2.7434E-01  4.3794E-02  3.1691E-02  4.5298E-03  5.3446E-02  4.0228E-02  4.4066E-02  1.0525E-02  3.4836E-02
 45  2.1139E-01  1.3619E-02  1.1865E-02  3.8446E-02  1.9909E-02  0.0000E+00  3.3137E-02  6.2169E-03  9.5707E-03
 46  0.0000E+00  2.4850E-02  0.0000E+00  1.0139E-01  6.4824E-02  1.8365E-02  0.0000E+00  6.2859E-03  5.4506E-03
 47  0.0000E+00  6.6955E-02  0.0000E+00  1.4149E-01  0.0000E+00  0.0000E+00  2.6537E-01  1.6141E-02  0.0000E+00
 48  4.4495E-01  8.1424E-02  2.0647E-01  5.3367E-02  2.3387E-01  8.3602E-02  1.0414E-01  1.6203E-01  7.8981E-02
 49  8.8703E-02  2.7750E-01  7.5430E-01  0.0000E+00  7.8274E-01  1.2220E-01  5.1671E-01  9.6422E-02  1.1289E-01
 50  4.7272E+01  1.4647E+01  1.3800E+01  1.3159E+01  1.5270E+01  1.3116E+01  1.2423E+01  1.3470E+01  1.4542E+01
 51  0.0000E+00  2.9033E-04  3.3350E-04  2.8516E-04  0.0000E+00  7.5355E-04  1.4709E-04  0.0000E+00  1.4139E-04
 52  0.0000E+00  1.2467E-04  2.8544E-04  4.9798E-05  0.0000E+00  3.3363E-04  1.2320E-04  0.0000E+00  1.1780E-04
 53  3.1548E-05  2.2036E-04  8.6776E-05  8.9600E-04  4.3639E-04  0.0000E+00  1.9241E-04  5.9596E-04  1.3905E-04
 54  0.0000E+00  3.3065E-04  0.0000E+00  1.0196E-03  1.1206E-03  6.1268E-04  6.0789E-04  1.1867E-03  6.2669E-04
 55  0.0000E+00  4.0581E-04  3.6100E-04  5.2479E-04  1.0006E-04  0.0000E+00  8.9571E-04  0.0000E+00  1.5925E-04
 56  0.0000E+00  1.0960E-03  2.0950E-03  9.2863E-05  0.0000E+00  3.5370E-03  5.9625E-04  4.4665E-04  0.0000E+00
 57  0.0000E+00  1.7833E-03  0.0000E+00  0.0000E+00  3.9446E-03  3.0929E-03  0.0000E+00  3.4664E-03  2.9455E-03
 58  4.9361E-03  2.7802E-03  4.7324E-03  5.1278E-03  4.3210E-03  8.5191E-04  8.7521E-03  0.0000E+00  1.4350E-03
 59  2.0854E-01  4.7525E-03  3.0276E-03  3.6935E-02  1.9709E-02  0.0000E+00  0.0000E+00  8.6188E-03  5.2847E-04
 60  0.0000E+00  1.2898E-02  0.0000E+00  2.8666E-02  3.9196E-03  1.9960E-02  2.8881E-02  8.0013E-03  4.3995E-03
 61  1.3837E+00  7.5310E+00  6.9390E+00  7.2368E+00  6.3093E+00  6.3433E+00  6.4028E+00  6.0911E+00  7.6548E+00
 62  0.0000E+00  3.1979E-02  3.2382E-02  4.2171E-02  0.0000E+00  9.3147E-02  0.0000E+00  2.4929E-02  1.0412E-01
 63  0.0000E+00  9.9641E-02  9.5418E-02  4.1351E-02  2.2349E-02  4.6553E-01  2.4759E-01  9.0209E-02  2.0757E-02
 64  2.1846E+00  2.1192E+00  2.2987E+00  2.1222E+00  2.8858E+00  1.7193E+00  2.2641E+00  1.6881E+00  1.8818E+00
 65  1.2203E+01  6.1002E+00  5.4121E+00  4.6207E+00  5.4781E+00  6.0615E+00  6.0270E+00  5.9876E+00  5.7363E+00
 66  2.8646E+01  6.7732E+01  6.8723E+01  7.1150E+01  6.6035E+01  6.8843E+01  6.9124E+01  6.9573E+01  6.8163E+01

# AV, chi2 & Mass for <> & i_chain = 1 ...  7 solutions
AV      -0.7244     -0.9941     -0.9636     -0.8817     -0.9269     -0.9079     -0.9713     -0.9492     -0.9709
chi2 2.7535E-06  2.9783E-06  2.9524E-06  2.9294E-06  2.9147E-06  2.9370E-06  2.9611E-06  2.9437E-06  2.9670E-06
Mass 1.0858E-13  7.2393E-14  7.7868E-14  8.0621E-14  8.1664E-14  8.1820E-14  7.8703E-14  8.1218E-14  7.5679E-14
-113.72                                  [v0_min (km/s) before EX0s...]
 218.79                                  [vd_min (km/s) before EX0s...]


## Synthetic spectrum (Best Model) ##l_obs f_obs f_syn wei
 3478    [Nl_obs]
 3741.00   -1.65484   0.51816    0.000
 3742.00   -1.04468   0.50265    0.000
 3743.00   -0.60347   0.48055    0.000
 3744.00   -0.56515   0.45624    0.000
 3745.00   -0.76158   0.43428    0.000
 3746.00   -0.05882   0.41900    0.000
 3747.00    1.10055   0.41387   -1.000
 3748.00    1.02338   0.42081   -1.000
 3749.00    0.40248   0.43952   -1.000
 3750.00   -0.62627   0.46718    0.000
 3751.00   -1.80899   0.49870    0.000
 3752.00   -1.67461   0.52818    0.000
 3753.00   -1.11812   0.55059    0.000
 3754.00   -0.35944   0.56326    0.000
 3755.00    0.45342   0.56655   -1.000
 3756.00    0.28414   0.56346   -1.000
 3757.00   -0.10071   0.55801    0.000
 3758.00   -1.13029   0.55332    0.000
 3759.00   -2.27242   0.55067    0.000
 3760.00   -1.62648   0.54959    0.000
 3761.00   -0.74302   0.54857    0.000
 3762.00   -0.14957   0.54599    0.000
 3763.00    0.41663   0.54099   -1.000
 3764.00    0.00194   0.53412   -1.000
 3765.00   -0.46934   0.52704    0.000
 3766.00   -0.47199   0.52182    0.000
 3767.00   -0.45546   0.52030    0.000
 3768.00    0.53818   0.52373   -1.000
 3769.00    1.45903   0.53236   -1.000
 3770.00    0.61172   0.54578   -1.000
 3771.00   -0.19840   0.56294    0.000
 3772.00   -0.52109   0.58234    0.000
 3773.00   -0.73910   0.60277    0.000
 3774.00   -0.03807   0.62356    0.000
 3775.00    0.57311   0.64424   -1.000
 3776.00    0.60175   0.66428   -1.000
 3777.00    0.52054   0.68307   -1.000
 3778.00   -0.11666   0.69955    0.000
 3779.00   -0.64130   0.71213    0.000
 3780.00   -0.70517   0.71901    0.000
 3781.00   -0.61804   0.71878    0.000
 3782.00   -0.01878   0.71089    0.000
 3783.00    0.55441   0.69595   -1.000
 3784.00    1.05306   0.67577   -1.000
 3785.00    1.19165   0.65307   -1.000
 3786.00    0.45053   0.63054   -1.000
 3787.00    0.07413   0.60996   -1.000
 3788.00    0.46646   0.59171   -1.000
 3789.00    0.85015   0.57493   -1.000
 3790.00    1.21800   0.55800   -1.000
 3791.00    1.21601   0.53921   -1.000
 3792.00    0.62201   0.51819   -1.000
 3793.00    0.01934   0.49648   -1.000
 3794.00   -0.59554   0.47699    0.000
 3795.00   -0.70357   0.46328    0.000
 3796.00   -0.18516   0.45876    0.000
 3797.00    0.08795   0.46547   -1.000
 3798.00    0.09381   0.48318   -1.000
 3799.00    0.13416   0.50933   -1.000
 3800.00    0.20764   0.53986   -1.000
 3801.00    0.30273   0.57055   -1.000
 3802.00    0.41611   0.59802   -1.000
 3803.00    0.06934   0.62032   -1.000
 3804.00   -0.62080   0.63736    0.000
 3805.00   -1.14425   0.65035    0.000
 3806.00   -1.55842   0.66047    0.000
 3807.00   -1.22537   0.66786    0.000
 3808.00   -0.46354   0.67174    0.000
 3809.00   -0.35302   0.67099    0.000
 3810.00   -0.56802   0.66512    0.000
 3811.00   -0.96723   0.65473    0.000
 3812.00   -1.44611   0.64123    0.000
 3813.00   -0.83898   0.62673    0.000
 3814.00    0.17089   0.61327   -1.000
 3815.00    0.16560   0.60196   -1.000
 3816.00   -0.15881   0.59277    0.000
 3817.00   -0.46984   0.58493    0.000
 3818.00   -0.77735   0.57735    0.000
 3819.00   -0.48455   0.56926    0.000
 3820.00   -0.06313   0.56021    0.000
 3821.00   -0.28573   0.54987    0.000
 3822.00   -0.61764   0.53836    0.000
 3823.00    0.02965   0.52616   -1.000
 3824.00    0.80258   0.51355   -1.000
 3825.00    0.56186   0.50044   -1.000
 3826.00    0.23016   0.48662   -1.000
 3827.00    0.50304   0.47198   -1.000
 3828.00    0.80841   0.45622   -1.000
 3829.00    0.01446   0.43910   -1.000
 3830.00   -0.78305   0.42117    0.000
 3831.00   -0.02176   0.40406    0.000
 3832.00    0.70651   0.38996   -1.000
 3833.00    0.70141   0.38094   -1.000
 3834.00    0.62186   0.37844   -1.000
 3835.00   -0.38333   0.38330    0.000
 3836.00   -1.18470   0.39560    0.000
 3837.00   -0.26328   0.41459    0.000
 3838.00    0.55258   0.43899   -1.000
 3839.00    0.70432   0.46721   -1.000
 3840.00    0.58673   0.49730   -1.000
 3841.00   -0.85975   0.52725    0.000
 3842.00   -1.92841   0.55483    0.000
 3843.00   -1.48460   0.57807    0.000
 3844.00   -0.93040   0.59608    0.000
 3845.00   -0.00921   0.60909    0.000
 3846.00    0.72193   0.61800   -1.000
 3847.00    0.91941   0.62409    0.000
 3848.00    1.05881   0.62847    0.000
 3849.00    1.05871   0.63161    0.000
 3850.00    1.07010   0.63340    0.000
 3851.00    1.10528   0.63352    0.000
 3852.00    0.91560   0.63162    0.000
 3853.00    0.32032   0.62766    0.000
 3854.00   -0.46003   0.62216    0.000
 3855.00   -1.53225   0.61641    0.000
 3856.00   -1.58072   0.61232    0.000
 3857.00   -0.21194   0.61156    0.000
 3858.00    0.28951   0.61478    0.000
 3859.00   -0.26588   0.62159    0.000
 3860.00   -0.66631   0.63070    0.000
 3861.00   -0.90029   0.64029    0.000
 3862.00   -0.71429   0.64866    0.000
 3863.00   -0.13035   0.65437    0.000
 3864.00   -0.04537   0.65623    0.000
 3865.00   -0.37723   0.65398    0.000
 3866.00   -0.09321   0.64838    0.000
 3867.00    0.64379   0.64098    0.000
 3868.00    0.83187   0.63356    0.000
 3869.00    0.66538   0.62743    0.000
 3870.00    0.48062   0.62321    0.000
 3871.00    0.28552   0.62068    0.000
 3872.00    0.47594   0.61894    0.000
 3873.00    0.85600   0.61704    0.000
 3874.00    0.77374   0.61385    0.000
 3875.00    0.49489   0.60817    0.000
 3876.00    0.39898   0.59967    0.000
 3877.00    0.36971   0.58916    0.000
 3878.00    0.24811   0.57768    0.000
 3879.00    0.09803   0.56565    0.000
 3880.00    0.05160   0.55286    0.000
 3881.00    0.03178   0.53894   -1.000
 3882.00    0.47921   0.52323   -1.000
 3883.00    1.02433   0.50594   -1.000
 3884.00    0.91869   0.48944   -1.000
 3885.00    0.70576   0.47725   -1.000
 3886.00    0.18987   0.47208   -1.000
 3887.00   -0.36354   0.47540    0.000
 3888.00   -0.36733   0.48756    0.000
 3889.00   -0.32409   0.50729    0.000
 3890.00   -0.31698   0.53153    0.000
 3891.00   -0.31168   0.55687    0.000
 3892.00   -0.04497   0.58053    0.000
 3893.00    0.22276   0.60063   -1.000
 3894.00    0.27978   0.61674   -1.000
 3895.00    0.34040   0.62987   -1.000
 3896.00    0.47489   0.64107   -1.000
 3897.00    0.57764   0.65091   -1.000
 3898.00    0.30514   0.65964   -1.000
 3899.00    0.14055   0.66693   -1.000
 3900.00    0.85506   0.67234   -1.000
 3901.00    1.39988   0.67678   -1.000
 3902.00    0.90829   0.68192   -1.000
 3903.00    0.47360   0.68885   -1.000
 3904.00    0.31267   0.69807   -1.000
 3905.00    0.16172   0.71016   -1.000
 3906.00    0.04987   0.72517   -1.000
 3907.00   -0.13523   0.74143    0.000
 3908.00   -0.55907   0.75680    0.000
 3909.00   -0.68560   0.76949    0.000
 3910.00    0.00774   0.77767   -1.000
 3911.00    0.52016   0.78030   -1.000
 3912.00    0.60536   0.77781   -1.000
 3913.00    0.56707   0.77105   -1.000
 3914.00    0.27678   0.76066   -1.000
 3915.00    0.48568   0.74747   -1.000
 3916.00    1.58121   0.73294   -1.000
 3917.00    1.80637   0.71854   -1.000
 3918.00    0.67912   0.70526   -1.000
 3919.00    0.01165   0.69377   -1.000
 3920.00   -0.02845   0.68378    0.000
 3921.00    0.21961   0.67404   -1.000
 3922.00    0.81382   0.66301   -1.000
 3923.00    1.05985   0.64893   -1.000
 3924.00    0.93712   0.63026   -1.000
 3925.00    0.58558   0.60612   -1.000
 3926.00    0.02029   0.57687   -1.000
 3927.00   -0.44117   0.54393    0.000
 3928.00   -0.81712   0.50995    0.000
 3929.00   -0.78067   0.47848    0.000
 3930.00   -0.44528   0.45306    0.000
 3931.00   -0.09732   0.43666    0.000
 3932.00    0.25865   0.43124   -1.000
 3933.00    0.37137   0.43745   -1.000
 3934.00    0.34872   0.45450   -1.000
 3935.00    0.21664   0.47995   -1.000
 3936.00    0.03159   0.51025   -1.000
 3937.00    0.10924   0.54143   -1.000
 3938.00    0.29673   0.56994   -1.000
 3939.00    0.54330   0.59413   -1.000
 3940.00    0.81100   0.61457   -1.000
 3941.00    0.88250   0.63237   -1.000
 3942.00    0.89470   0.64807   -1.000
 3943.00    1.06008   0.66257   -1.000
 3944.00    1.26393   0.67714   -1.000
 3945.00    1.07050   0.69198   -1.000
 3946.00    0.79604   0.70614   -1.000
 3947.00    0.46780   0.71848   -1.000
 3948.00    0.13094   0.72837   -1.000
 3949.00   -0.31260   0.73561    0.000
 3950.00   -0.76887   0.73991    0.000
 3951.00   -0.44803   0.74101    0.000
 3952.00   -0.06390   0.73884    0.000
 3953.00    0.10494   0.73323   -1.000
 3954.00    0.26390   0.72392   -1.000
 3955.00    0.13106   0.71031   -1.000
 3956.00    0.00233   0.69130   -1.000
 3957.00    0.28191   0.66636   -1.000
 3958.00    0.55013   0.63644   -1.000
 3959.00    0.60321   0.60274   -1.000
 3960.00    0.62206   0.56554    0.000
 3961.00    0.25522   0.52496    0.000
 3962.00   -0.05135   0.48221    0.000
 3963.00    0.11589   0.43974    0.000
 3964.00    0.28624   0.40073    0.000
 3965.00    0.47507   0.36788    0.000
 3966.00    0.61924   0.34369    0.000
 3967.00    0.55370   0.33080    0.000
 3968.00    0.51275   0.33126    0.000
 3969.00    0.56602   0.34584    0.000
 3970.00    0.55378   0.37354    0.000
 3971.00    0.33216   0.41151    0.000
 3972.00    0.26558   0.45626    0.000
 3973.00    0.61892   0.50440    0.000
 3974.00    0.87238   0.55279    0.000
 3975.00    0.89394   0.59879    0.000
 3976.00    0.85974   0.64020    0.000
 3977.00    0.71355   0.67563    0.000
 3978.00    0.64155   0.70484    0.000
 3979.00    0.69931   0.72851    0.000
 3980.00    0.65246   0.74785    0.000
 3981.00    0.44545   0.76373   -1.000
 3982.00    0.34649   0.77744   -1.000
 3983.00    0.39286   0.79041   -1.000
 3984.00    0.48779   0.80290   -1.000
 3985.00    0.64022   0.81488   -1.000
 3986.00    0.56892   0.82635   -1.000
 3987.00    0.26400   0.83685   -1.000
 3988.00    0.64434   0.84570   -1.000
 3989.00    1.65583   0.85251   -1.000
 3990.00    1.94261   0.85705   -1.000
 3991.00    1.64099   0.85892   -1.000
 3992.00    1.68460   0.85874   -1.000
 3993.00    1.97486   0.85821   -1.000
 3994.00    1.60510   0.85880   -1.000
 3995.00    0.82151   0.86123   -1.000
 3996.00    0.57560   0.86548   -1.000
 3997.00    0.62435   0.87175   -1.000
 3998.00    0.56339   0.87918   -1.000
 3999.00    0.45017   0.88503   -1.000
 4000.00    0.88165   0.88688   -1.000
 4001.00    1.53701   0.88491   -1.000
 4002.00    1.31229   0.88067   -1.000
 4003.00    0.77846   0.87618   -1.000
 4004.00    0.79703   0.87375   -1.000
 4005.00    0.97927   0.87467   -1.000
 4006.00    0.79374   0.87904   -1.000
 4007.00    0.51787   0.88689   -1.000
 4008.00    0.38562   0.89783   -1.000
 4009.00    0.28193   0.90946   -1.000
 4010.00    1.05251   0.91937   -1.000
 4011.00    1.95894   0.92695   -1.000
 4012.00    1.70077   0.93241   -1.000
 4013.00    1.30868   0.93656   -1.000
 4014.00    1.16173   0.94037   -1.000
 4015.00    1.03373   0.94375   -1.000
 4016.00    1.63066   0.94579   -1.000
 4017.00    2.25811   0.94632   -1.000
 4018.00    1.57246   0.94521   -1.000
 4019.00    0.88861   0.94230   -1.000
 4020.00    0.80855   0.93863   -1.000
 4021.00    0.73889   0.93523   -1.000
 4022.00    0.85265   0.93215   -1.000
 4023.00    0.94300   0.92963   -1.000
 4024.00    0.78142   0.92682   -1.000
 4025.00    0.69721   0.92110   -1.000
 4026.00    1.20037   0.91098   -1.000
 4027.00    1.55939   0.89765   -1.000
 4028.00    1.08698   0.88257   -1.000
 4029.00    0.74489   0.86733   -1.000
 4030.00    1.00000   0.85533   -1.000
 4031.00    1.25777   0.85020   -1.000
 4032.00    1.52551   0.85421   -1.000
 4033.00    1.74632   0.86747   -1.000
 4034.00    1.82001   0.88636   -1.000
 4035.00    1.79787   0.90555   -1.000
 4036.00    1.52079   0.92150   -1.000
 4037.00    1.26198   0.93193   -1.000
 4038.00    1.04489   0.93464   -1.000
 4039.00    0.76519   0.92742   -1.000
 4040.00    0.36171   0.91041   -1.000
 4041.00    0.24971   0.88833   -1.000
 4042.00    0.63985   0.86830   -1.000
 4043.00    0.95581   0.85535   -1.000
 4044.00    1.15987   0.85047   -1.000
 4045.00    1.28217   0.85287   -1.000
 4046.00    1.29607   0.86192   -1.000
 4047.00    0.93069   0.87607   -1.000
 4048.00    0.12248   0.89186   -1.000
 4049.00   -0.18563   0.90440    0.000
 4050.00    0.02114   0.90954   -1.000
 4051.00    0.22842   0.90756   -1.000
 4052.00    0.43614   0.90103   -1.000
 4053.00    0.54471   0.89152   -1.000
 4054.00    0.57390   0.88154   -1.000
 4055.00    0.74260   0.87395   -1.000
 4056.00    1.00954   0.86873   -1.000
 4057.00    0.88495   0.86369   -1.000
 4058.00    0.51851   0.85652   -1.000
 4059.00    0.82138   0.84731   -1.000
 4060.00    1.48540   0.83946   -1.000
 4061.00    1.34346   0.83484   -1.000
 4062.00    0.82380   0.83193   -1.000
 4063.00    0.85171   0.83091   -1.000
 4064.00    1.10085   0.83404   -1.000
 4065.00    1.30064   0.84139   -1.000
 4066.00    1.48343   0.84957   -1.000
 4067.00    1.46632   0.85483   -1.000
 4068.00    1.39117   0.85683   -1.000
 4069.00    1.09764   0.85759   -1.000
 4070.00    0.75166   0.85675   -1.000
 4071.00    0.80511   0.85205   -1.000
 4072.00    0.93596   0.84341   -1.000
 4073.00    0.86851   0.83472   -1.000
 4074.00    0.77119   0.83076   -1.000
 4075.00    0.51791   0.83229   -1.000
 4076.00    0.24738   0.83747   -1.000
 4077.00    0.59588   0.84560   -1.000
 4078.00    0.98971   0.85607   -1.000
 4079.00    1.21008   0.86791   -1.000
 4080.00    1.42381   0.87993   -1.000
 4081.00    1.27288   0.89025   -1.000
 4082.00    1.11844   0.89821   -1.000
 4083.00    0.90763   0.90460   -1.000
 4084.00    0.73557   0.90998   -1.000
 4085.00    1.20216   0.91453   -1.000
 4086.00    1.60170   0.91797   -1.000
 4087.00    1.31125   0.91899   -1.000
 4088.00    1.03724   0.91625   -1.000
 4089.00    0.88392   0.90902   -1.000
 4090.00    0.80152   0.89586   -1.000
 4091.00    1.11695   0.87570   -1.000
 4092.00    1.30619   0.85047    0.000
 4093.00    0.93074   0.82283    0.000
 4094.00    0.67719   0.79387    0.000
 4095.00    0.87131   0.76383    0.000
 4096.00    1.01957   0.73263    0.000
 4097.00    1.02678   0.70263    0.000
 4098.00    1.14300   0.67956    0.000
 4099.00    1.54409   0.66675    0.000
 4100.00    1.78276   0.66385    0.000
 4101.00    1.65664   0.67037    0.000
 4102.00    1.51860   0.68546    0.000
 4103.00    1.35736   0.70698    0.000
 4104.00    1.39149   0.73194    0.000
 4105.00    1.75711   0.75610    0.000
 4106.00    1.73560   0.77645    0.000
 4107.00    1.13863   0.79307    0.000
 4108.00    0.88260   0.80698    0.000
 4109.00    1.07206   0.81937    0.000
 4110.00    1.17048   0.83117    0.000
 4111.00    1.16411   0.84267    0.000
 4112.00    0.99702   0.85375    0.000
 4113.00    0.66681   0.86296   -1.000
 4114.00    0.74380   0.86848   -1.000
 4115.00    1.18538   0.87075   -1.000
 4116.00    1.45216   0.87139   -1.000
 4117.00    1.58101   0.87071   -1.000
 4118.00    1.52848   0.86902   -1.000
 4119.00    1.35006   0.86770   -1.000
 4120.00    1.16523   0.86844   -1.000
 4121.00    0.97648   0.87131   -1.000
 4122.00    0.81268   0.87370   -1.000
 4123.00    0.66212   0.87320   -1.000
 4124.00    0.55753   0.86991   -1.000
 4125.00    0.47412   0.86494   -1.000
 4126.00    0.52792   0.85803   -1.000
 4127.00    0.63620   0.84843   -1.000
 4128.00    0.81180   0.83752   -1.000
 4129.00    1.01018   0.82917   -1.000
 4130.00    1.07241   0.82594   -1.000
 4131.00    1.09592   0.82881   -1.000
 4132.00    1.23187   0.83667   -1.000
 4133.00    1.39421   0.84699   -1.000
 4134.00    1.32712   0.85913   -1.000
 4135.00    1.21672   0.87160   -1.000
 4136.00    1.29847   0.88089   -1.000
 4137.00    1.40827   0.88386   -1.000
 4138.00    1.30755   0.87803   -1.000
 4139.00    1.18446   0.86504   -1.000
 4140.00    0.82930   0.85134   -1.000
 4141.00    0.45810   0.84120   -1.000
 4142.00    0.87443   0.83449   -1.000
 4143.00    1.31792   0.83077   -1.000
 4144.00    1.15177   0.83038   -1.000
 4145.00    0.98824   0.83322   -1.000
 4146.00    0.95144   0.83826   -1.000
 4147.00    0.91485   0.84281   -1.000
 4148.00    0.88140   0.84412   -1.000
 4149.00    0.87449   0.84236   -1.000
 4150.00    1.12921   0.83896   -1.000
 4151.00    1.34026   0.83593   -1.000
 4152.00    1.24129   0.83465   -1.000
 4153.00    1.12077   0.83583   -1.000
 4154.00    0.88256   0.84032   -1.000
 4155.00    0.67513   0.84777   -1.000
 4156.00    0.60222   0.85695   -1.000
 4157.00    0.53766   0.86703   -1.000
 4158.00    0.50317   0.87784   -1.000
 4159.00    0.54144   0.88787   -1.000
 4160.00    0.79927   0.89466   -1.000
 4161.00    0.94697   0.89748   -1.000
 4162.00    0.81187   0.89655   -1.000
 4163.00    0.70116   0.89230   -1.000
 4164.00    0.64431   0.88644   -1.000
 4165.00    0.60660   0.87978   -1.000
 4166.00    0.60554   0.87161   -1.000
 4167.00    0.75586   0.86103   -1.000
 4168.00    1.15918   0.84770   -1.000
 4169.00    1.32231   0.83423   -1.000
 4170.00    1.13360   0.82361   -1.000
 4171.00    0.83896   0.81556   -1.000
 4172.00    0.40787   0.80888   -1.000
 4173.00    0.23159   0.80385   -1.000
 4174.00    0.34447   0.80246   -1.000
 4175.00    0.54140   0.80617   -1.000
 4176.00    0.82246   0.81303   -1.000
 4177.00    0.99309   0.81954   -1.000
 4178.00    1.06623   0.82482   -1.000
 4179.00    1.10215   0.83050   -1.000
 4180.00    1.10910   0.83760   -1.000
 4181.00    1.05124   0.84498   -1.000
 4182.00    0.94904   0.84947   -1.000
 4183.00    0.84735   0.85018   -1.000
 4184.00    0.74598   0.85102   -1.000
 4185.00    0.69540   0.85437   -1.000
 4186.00    0.67140   0.85803   -1.000
 4187.00    0.81928   0.85990   -1.000
 4188.00    1.04511   0.86158   -1.000
 4189.00    1.23785   0.86532   -1.000
 4190.00    1.41766   0.86875   -1.000
 4191.00    1.33925   0.86726   -1.000
 4192.00    1.17506   0.86013   -1.000
 4193.00    0.90824   0.85003   -1.000
 4194.00    0.61281   0.83854   -1.000
 4195.00    0.59842   0.82639   -1.000
 4196.00    0.64850   0.81538   -1.000
 4197.00    0.66962   0.80697   -1.000
 4198.00    0.68541   0.80263   -1.000
 4199.00    0.62596   0.80404   -1.000
 4200.00    0.55587   0.81078   -1.000
 4201.00    0.81079   0.82121   -1.000
 4202.00    1.09884   0.83383   -1.000
 4203.00    1.09265   0.84758   -1.000
 4204.00    1.06730   0.86184   -1.000
 4205.00    0.95350   0.87430   -1.000
 4206.00    0.83678   0.88277   -1.000
 4207.00    0.58442   0.88822   -1.000
 4208.00    0.34889   0.89155   -1.000
 4209.00    0.60775   0.89165   -1.000
 4210.00    0.85212   0.88774   -1.000
 4211.00    0.88542   0.88117   -1.000
 4212.00    0.90196   0.87657   -1.000
 4213.00    0.76009   0.87777   -1.000
 4214.00    0.63283   0.88314   -1.000
 4215.00    0.60598   0.88935   -1.000
 4216.00    0.58165   0.89526   -1.000
 4217.00    0.57078   0.90023   -1.000
 4218.00    0.62424   0.90099   -1.000
 4219.00    0.95250   0.89308   -1.000
 4220.00    1.16534   0.87503   -1.000
 4221.00    0.97152   0.84910   -1.000
 4222.00    0.88142   0.81931   -1.000
 4223.00    1.09849   0.79189   -1.000
 4224.00    1.23358   0.77458   -1.000
 4225.00    1.16177   0.77064   -1.000
 4226.00    1.02367   0.77749   -1.000
 4227.00    0.74152   0.79186   -1.000
 4228.00    0.70487   0.81048   -1.000
 4229.00    1.13121   0.82953   -1.000
 4230.00    1.33558   0.84550   -1.000
 4231.00    1.17453   0.85540   -1.000
 4232.00    1.05877   0.85869   -1.000
 4233.00    1.00839   0.85839   -1.000
 4234.00    0.88461   0.85811    0.072
 4235.00    0.66767   0.86031    0.022
 4236.00    0.61192   0.86603    0.016
 4237.00    0.73651   0.87520    0.016
 4238.00    0.93734   0.88690    0.016
 4239.00    1.21340   0.89939    0.016
 4240.00    1.29169   0.91161    0.016
 4241.00    1.19786   0.92191    0.016
 4242.00    1.14307   0.92696    0.016
 4243.00    1.11820   0.92473    0.017
 4244.00    1.08040   0.91683    0.017
 4245.00    1.03387   0.90560    0.017
 4246.00    0.95280   0.89100    0.017
 4247.00    0.85134   0.87488    0.017
 4248.00    0.80025   0.86227    0.017
 4249.00    0.77509   0.85438    0.017
 4250.00    0.68439   0.84855    0.017
 4251.00    0.56445   0.84469    0.017
 4252.00    0.67747   0.84599    0.017
 4253.00    0.87981   0.85198    0.017
 4254.00    1.09337   0.85667    0.016
 4255.00    1.31058   0.85693    0.016
 4256.00    1.28726   0.85614    0.016
 4257.00    1.19828   0.85861    0.016
 4258.00    1.28197   0.86558    0.016
 4259.00    1.40434   0.87554    0.016
 4260.00    1.08814   0.88673    0.016
 4261.00    0.69349   0.89887    0.016
 4262.00    0.61666   0.91098    0.016
 4263.00    0.58332   0.91933    0.016
 4264.00    0.64622   0.91949    0.016
 4265.00    0.71853   0.91004    0.016
 4266.00    0.62415   0.89196    0.016
 4267.00    0.51957   0.86697    0.016
 4268.00    0.64167   0.83961    0.016
 4269.00    0.76854   0.81691    0.016
 4270.00    0.63464   0.80206    0.016
 4271.00    0.51078   0.79439    0.015
 4272.00    0.65231   0.79556    0.015
 4273.00    0.78509   0.80754    0.015
 4274.00    0.79746   0.82686    0.016
 4275.00    0.81577   0.84613    0.016
 4276.00    0.88797   0.86097    0.016
 4277.00    0.95328   0.87209    0.016
 4278.00    0.97269   0.88003    0.016
 4279.00    0.97836   0.88315    0.016
 4280.00    0.91289   0.88090    0.016
 4281.00    0.86517   0.87407    0.016
 4282.00    0.89163   0.86493   -2.000
 4283.00    0.93677   0.85581   -2.000
 4284.00    1.04644   0.84621   -2.000
 4285.00    1.12447   0.83408   -2.000
 4286.00    1.11050   0.82000   -2.000
 4287.00    0.97297   0.80920   -2.000
 4288.00    0.52895   0.80524   -2.000
 4289.00    0.21987   0.80523   -2.000
 4290.00    0.19926   0.80460   -2.000
 4291.00    0.37479   0.80311   -2.000
 4292.00    0.91452   0.80270   -2.000
 4293.00    1.29870   0.80053   -2.000
 4294.00    1.43060   0.79158   -2.000
 4295.00    1.37836   0.77483   -2.000
 4296.00    1.06417   0.75456   -2.000
 4297.00    0.91160   0.73611   -2.000
 4298.00    0.96132   0.72031    0.017
 4299.00    0.94144   0.70590    0.017
 4300.00    0.84479   0.69417    0.017
 4301.00    0.78654   0.68704    0.017
 4302.00    0.76565   0.68330    0.016
 4303.00    0.74172   0.68004    0.016
 4304.00    0.71517   0.67664    0.016
 4305.00    0.76486   0.67575    0.016
 4306.00    0.87215   0.67990    0.016
 4307.00    0.86236   0.68999    0.016
 4308.00    0.77480   0.70647    0.016
 4309.00    0.67123   0.72934    0.016
 4310.00    0.55834   0.75838    0.016
 4311.00    0.68139   0.79264    0.016
 4312.00    0.92401   0.83097    0.016
 4313.00    0.96154   0.86984    0.016
 4314.00    0.90906   0.90313    0.015
 4315.00    0.88370   0.92735    0.016
 4316.00    0.86855   0.94230    0.016
 4317.00    0.73825   0.94718    0.016
 4318.00    0.57114   0.94045    0.016
 4319.00    0.67810   0.92326    0.016
 4320.00    0.85832   0.89840    0.016
 4321.00    0.77537   0.87014    0.016
 4322.00    0.63483   0.84477    0.016
 4323.00    0.66945   0.82956    0.016
 4324.00    0.73455   0.82727    0.016
 4325.00    0.49030   0.83411    0.016
 4326.00    0.20514   0.84580    0.016
 4327.00    0.42803   0.86128    0.016
 4328.00    0.69839   0.87975    0.017
 4329.00    0.74394   0.89536    0.016
 4330.00    0.77662   0.90155    0.000
 4331.00    0.76141   0.89764    0.000
 4332.00    0.74439   0.88529    0.000
 4333.00    0.64879   0.86372    0.000
 4334.00    0.56699   0.83335    0.000
 4335.00    0.81682   0.79977    0.000
 4336.00    1.03640   0.76797    0.000
 4337.00    0.86237   0.74097    0.000
 4338.00    0.71332   0.72435    0.000
 4339.00    0.78262   0.72196    0.000
 4340.00    0.84698   0.73136    0.000
 4341.00    0.87947   0.74987    0.000
 4342.00    0.86938   0.77651    0.000
 4343.00    0.64442   0.80554    0.000
 4344.00    0.49424   0.83070    0.000
 4345.00    0.64930   0.85186    0.000
 4346.00    0.75006   0.86849    0.000
 4347.00    0.66708   0.87551    0.000
 4348.00    0.62111   0.87322    0.000
 4349.00    0.68073   0.87085    0.000
 4350.00    0.68831   0.87324    0.000
 4351.00    0.56904   0.87621    0.016
 4352.00    0.47474   0.87900    0.016
 4353.00    0.43293   0.88738    0.016
 4354.00    0.55991   0.90163    0.016
 4355.00    0.99544   0.91504    0.016
 4356.00    1.24489   0.92600    0.016
 4357.00    1.19700   0.93897    0.016
 4358.00    1.16513   0.95344    0.020
 4359.00    1.15573   0.96444    0.055
 4360.00    1.18262   0.97214   -1.000
 4361.00    1.25430   0.98082   -1.000
 4362.00    1.31640   0.98856   -1.000
 4363.00    1.36811   0.98935   -1.000
 4364.00    1.31783   0.98332   -1.000
 4365.00    1.16972   0.97579   -1.000
 4366.00    1.01246   0.96809    0.056
 4367.00    0.84746   0.95745    0.020
 4368.00    0.76504   0.94515    0.015
 4369.00    0.74412   0.93459    0.015
 4370.00    0.66455   0.92528    0.015
 4371.00    0.54660   0.91557    0.015
 4372.00    0.52105   0.90811    0.015
 4373.00    0.54843   0.90599    0.015
 4374.00    0.69087   0.90669    0.015
 4375.00    0.89070   0.90482    0.015
 4376.00    0.92470   0.89884    0.015
 4377.00    0.88713   0.89055    0.015
 4378.00    0.75230   0.87914    0.015
 4379.00    0.58147   0.86005    0.015
 4380.00    0.62984   0.83414    0.015
 4381.00    0.74695   0.81174    0.015
 4382.00    0.68133   0.80078    0.015
 4383.00    0.56790   0.79871    0.015
 4384.00    0.50682   0.80080    0.015
 4385.00    0.45693   0.80905    0.015
 4386.00    0.76090   0.82472    0.015
 4387.00    1.12472   0.84250    0.015
 4388.00    0.99196   0.85828    0.015
 4389.00    0.79577   0.87257    0.015
 4390.00    0.69668   0.88526    0.015
 4391.00    0.60627   0.89490    0.015
 4392.00    0.73945   0.90361    0.015
 4393.00    0.88453   0.91455    0.015
 4394.00    0.84521   0.92510    0.015
 4395.00    0.80132   0.92993    0.015
 4396.00    0.67956   0.92829    0.015
 4397.00    0.56833   0.92293    0.015
 4398.00    0.68872   0.91699    0.015
 4399.00    0.79741   0.90956    0.015
 4400.00    0.76175   0.89550    0.015
 4401.00    0.72253   0.87639    0.015
 4402.00    0.65344   0.86375    0.015
 4403.00    0.62099   0.86226    0.015
 4404.00    0.81827   0.86361    0.015
 4405.00    0.95758   0.86542    0.016
 4406.00    0.81170   0.87557    0.015
 4407.00    0.70629   0.89395    0.015
 4408.00    0.76239   0.91112    0.015
 4409.00    0.80621   0.92357    0.015
 4410.00    0.80925   0.93243    0.015
 4411.00    0.82725   0.93541    0.015
 4412.00    0.88716   0.93353    0.015
 4413.00    0.94361   0.93296    0.015
 4414.00    0.99179   0.93419    0.015
 4415.00    1.02688   0.93536    0.015
 4416.00    1.03491   0.93896    0.015
 4417.00    1.01624   0.94573    0.015
 4418.00    0.94953   0.95092    0.015
 4419.00    0.93065   0.95225    0.015
 4420.00    0.98707   0.95314    0.015
 4421.00    1.12634   0.95452    0.015
 4422.00    1.38011   0.95291    0.015
 4423.00    1.44154   0.94879    0.016
 4424.00    1.26903   0.94683    0.015
 4425.00    1.12296   0.94810    0.015
 4426.00    1.00524   0.94730    0.015
 4427.00    0.92350   0.94192    0.015
 4428.00    0.87579   0.93757    0.015
 4429.00    0.96947   0.93611    0.016
 4430.00    1.18106   0.93247    0.016
 4431.00    1.17310   0.92585    0.016
 4432.00    1.00395   0.92242    0.016
 4433.00    1.11556   0.92576    0.016
 4434.00    1.40818   0.93258    0.016
 4435.00    1.39902   0.93917    0.016
 4436.00    1.21965   0.94561    0.016
 4437.00    1.06271   0.95161    0.016
 4438.00    0.91678   0.95532    0.016
 4439.00    0.98178   0.95600    0.016
 4440.00    1.13629   0.95570    0.016
 4441.00    1.05521   0.95777    0.016
 4442.00    0.88851   0.96308    0.016
 4443.00    0.96922   0.96875    0.016
 4444.00    1.12601   0.97391    0.016
 4445.00    1.22629   0.98130    0.016
 4446.00    1.31211   0.98762    0.016
 4447.00    0.97992   0.98655    0.016
 4448.00    0.56062   0.98009    0.016
 4449.00    0.54493   0.97211    0.016
 4450.00    0.59554   0.96011    0.016
 4451.00    0.90767   0.94203    0.016
 4452.00    1.25204   0.92306    0.016
 4453.00    1.11158   0.90863    0.016
 4454.00    0.92987   0.89646    0.016
 4455.00    1.12965   0.88423    0.016
 4456.00    1.34825   0.87593    0.016
 4457.00    1.05007   0.87422    0.015
 4458.00    0.74714   0.87507    0.015
 4459.00    0.66300   0.87794    0.015
 4460.00    0.57891   0.88682    0.015
 4461.00    0.49604   0.89797    0.000
 4462.00    0.44791   0.90615    0.000
 4463.00    0.80796   0.91401    0.000
 4464.00    1.13303   0.92401    0.000
 4465.00    1.17434   0.93237    0.000
 4466.00    1.20665   0.93737    0.000
 4467.00    1.18423   0.94369    0.000
 4468.00    1.19545   0.95316    0.000
 4469.00    1.36806   0.96443    0.000
 4470.00    1.41107   0.97734    0.000
 4471.00    0.94788   0.99077    0.000
 4472.00    0.59205   1.00173    0.000
 4473.00    0.58525   1.00997    0.000
 4474.00    0.68533   1.01611    0.000
 4475.00    1.07948   1.01704    0.000
 4476.00    1.31255   1.01084    0.000
 4477.00    1.16601   1.00086    0.000
 4478.00    1.06370   0.99189    0.000
 4479.00    1.05147   0.98619    0.000
 4480.00    1.07584   0.98454    0.000
 4481.00    1.16508   0.98595    0.000
 4482.00    1.17932   0.98954    0.015
 4483.00    1.07724   0.99502    0.015
 4484.00    1.00366   1.00001    0.015
 4485.00    0.96890   1.00067    0.015
 4486.00    0.87583   0.99646    0.015
 4487.00    0.71286   0.99028    0.015
 4488.00    0.64210   0.98477    0.015
 4489.00    0.66883   0.97977    0.015
 4490.00    0.82503   0.97426    0.015
 4491.00    1.10197   0.96913    0.015
 4492.00    1.15584   0.96807    0.015
 4493.00    1.02634   0.97142    0.016
 4494.00    0.98634   0.97649    0.016
 4495.00    1.01112   0.98355    0.015
 4496.00    1.03650   0.99444    0.015
 4497.00    1.06228   1.00721    0.015
 4498.00    1.10267   1.01890    0.015
 4499.00    1.15118   1.03193    0.015
 4500.00    1.07247   1.04738    0.015
 4501.00    0.93231   1.06018    0.015
 4502.00    0.93226   1.06807    0.015
 4503.00    0.99067   1.07407    0.015
 4504.00    1.05091   1.07882    0.015
 4505.00    1.11182   1.07966    0.015
 4506.00    1.04351   1.07695    0.015
 4507.00    0.93623   1.07265    0.015
 4508.00    1.10089   1.06666    0.015
 4509.00    1.33366   1.05868    0.015
 4510.00    1.63182   1.04990    0.015
 4511.00    1.94328   1.04123    0.015
 4512.00    1.62266   1.03380    0.015
 4513.00    1.20121   1.02845    0.015
 4514.00    1.16158   1.02414    0.015
 4515.00    1.16733   1.02025    0.015
 4516.00    1.10614   1.01887    0.015
 4517.00    1.03952   1.01976    0.015
 4518.00    0.93410   1.01866    0.015
 4519.00    0.82691   1.01217    0.015
 4520.00    1.12266   1.00245    0.015
 4521.00    1.41692   0.99184    0.015
 4522.00    1.38242   0.97781    0.015
 4523.00    1.32808   0.95935    0.015
 4524.00    0.90119   0.94053    0.015
 4525.00    0.52658   0.92533    0.015
 4526.00    0.73761   0.91340    0.015
 4527.00    0.91100   0.90452    0.015
 4528.00    0.78983   0.89986    0.015
 4529.00    0.69834   0.90109    0.014
 4530.00    0.78236   0.90637    0.014
 4531.00    0.87139   0.91273    0.014
 4532.00    0.98389   0.92057    0.015
 4533.00    1.04476   0.93272    0.015
 4534.00    0.90825   0.94784    0.015
 4535.00    0.76678   0.96071    0.014
 4536.00    0.60947   0.97030    0.014
 4537.00    0.51435   0.97837    0.014
 4538.00    0.58725   0.98480    0.015
 4539.00    0.74135   0.98871    0.015
 4540.00    1.08360   0.98988    0.015
 4541.00    1.28210   0.98721    0.015
 4542.00    1.19243   0.98199    0.015
 4543.00    1.04299   0.97866    0.015
 4544.00    0.78920   0.97688    0.015
 4545.00    0.71188   0.97214    0.015
 4546.00    0.90423   0.96475    0.014
 4547.00    0.97803   0.96062    0.014
 4548.00    0.89269   0.96037    0.014
 4549.00    0.81718   0.95920    0.014
 4550.00    0.75327   0.95763    0.000
 4551.00    0.76933   0.95968    0.000
 4552.00    0.86873   0.96537    0.000
 4553.00    1.02120   0.97302    0.000
 4554.00    1.22244   0.98321    0.000
 4555.00    1.13637   0.99443    0.000
 4556.00    0.81745   1.00423    0.000
 4557.00    0.67328   1.01209    0.000
 4558.00    0.65374   1.01820    0.000
 4559.00    0.81224   1.02122    0.000
 4560.00    1.08216   1.01989    0.000
 4561.00    1.14205   1.01578    0.000
 4562.00    1.08707   1.01250    0.000
 4563.00    1.02685   1.01200    0.000
 4564.00    0.96416   1.01277    0.000
 4565.00    0.96577   1.01352    0.000
 4566.00    0.99375   1.01584    0.000
 4567.00    0.95354   1.01956    0.000
 4568.00    0.88943   1.02077    0.000
 4569.00    1.13838   1.02050    0.000
 4570.00    1.47985   1.02286    0.000
 4571.00    1.35308   1.02436    0.000
 4572.00    1.11161   1.02096    0.000
 4573.00    0.94445   1.01697    0.000
 4574.00    0.79201   1.01463    0.000
 4575.00    0.87886   1.00918    0.000
 4576.00    1.00276   0.99907    0.000
 4577.00    0.95986   0.98831    0.000
 4578.00    0.89788   0.98000    0.000
 4579.00    0.87068   0.97398    0.000
 4580.00    0.84614   0.96904    0.000
 4581.00    0.76178   0.96648    0.000
 4582.00    0.67492   0.96819    0.000
 4583.00    0.76155   0.97276    0.000
 4584.00    0.84775   0.97824    0.000
 4585.00    0.85111   0.98419    0.000
 4586.00    0.85172   0.98983    0.000
 4587.00    0.80435   0.99305    0.000
 4588.00    0.75950   0.99305    0.000
 4589.00    0.74160   0.99076    0.000
 4590.00    0.72170   0.98742    0.000
 4591.00    0.68666   0.98279    0.000
 4592.00    0.67870   0.97713    0.000
 4593.00    0.82631   0.97262    0.000
 4594.00    0.93734   0.97028    0.000
 4595.00    0.88118   0.96951    0.000
 4596.00    0.79190   0.96999    0.000
 4597.00    0.57867   0.97056    0.000
 4598.00    0.46793   0.97151    0.000
 4599.00    0.67772   0.97451    0.000
 4600.00    0.82391   0.97892    0.000
 4601.00    0.80128   0.98337    0.000
 4602.00    0.77900   0.98922    0.000
 4603.00    0.75751   0.99778    0.000
 4604.00    0.80509   1.00775    0.000
 4605.00    0.98894   1.01837    0.000
 4606.00    1.11089   1.02826    0.000
 4607.00    1.12643   1.03581    0.000
 4608.00    1.14518   1.04107    0.000
 4609.00    1.16877   1.04463    0.000
 4610.00    1.13093   1.04572    0.000
 4611.00    1.01181   1.04521    0.000
 4612.00    0.88314   1.04459    0.000
 4613.00    0.74334   1.04351    0.000
 4614.00    0.75530   1.04325    0.000
 4615.00    0.92324   1.04427    0.000
 4616.00    0.97107   1.04407    0.000
 4617.00    0.91002   1.04359    0.000
 4618.00    0.89501   1.04546    0.000
 4619.00    0.91677   1.04610    0.000
 4620.00    1.09564   1.04454    0.000
 4621.00    1.38492   1.04467    0.000
 4622.00    1.40075   1.04476    0.000
 4623.00    1.24799   1.04185    0.000
 4624.00    1.14256   1.03981    0.000
 4625.00    1.06263   1.03941    0.000
 4626.00    0.97880   1.03610    0.000
 4627.00    0.89314   1.03166    0.000
 4628.00    0.76137   1.03022    0.000
 4629.00    0.61101   1.02785    0.000
 4630.00    0.72926   1.02081    0.000
 4631.00    0.93991   1.01350    0.000
 4632.00    0.91377   1.00840    0.000
 4633.00    0.81905   1.00169    0.000
 4634.00    0.83480   0.99272    0.000
 4635.00    0.87701   0.98579    0.000
 4636.00    0.84908   0.98125    0.000
 4637.00    0.80759   0.97642    0.000
 4638.00    0.75673   0.97233    0.000
 4639.00    0.70446   0.96953    0.000
 4640.00    0.79862   0.96499    0.000
 4641.00    0.90889   0.95870    0.000
 4642.00    0.94756   0.95337    0.000
 4643.00    0.98102   0.94755    0.000
 4644.00    0.93072   0.94122    0.000
 4645.00    0.87724   0.93835    0.000
 4646.00    0.92972   0.93986    0.000
 4647.00    0.97753   0.94350    0.000
 4648.00    0.83282   0.94878    0.000
 4649.00    0.70679   0.95621    0.000
 4650.00    0.88591   0.96442    0.000
 4651.00    1.05677   0.97115    0.000
 4652.00    1.14319   0.97672    0.000
 4653.00    1.20708   0.98296    0.000
 4654.00    1.10643   0.98982    0.000
 4655.00    1.03613   0.99627    0.000
 4656.00    1.13554   1.00218    0.000
 4657.00    1.21948   1.00612    0.000
 4658.00    1.23440   1.00646    0.000
 4659.00    1.17018   1.00236    0.000
 4660.00    0.81605   0.99253    0.000
 4661.00    0.56398   0.97845    0.000
 4662.00    0.62505   0.96326    0.000
 4663.00    0.72582   0.94732    0.000
 4664.00    0.93011   0.93178    0.000
 4665.00    1.11455   0.92204    0.000
 4666.00    1.25453   0.91998    0.000
 4667.00    1.33972   0.92197    0.000
 4668.00    1.31849   0.92723    0.000
 4669.00    1.22611   0.93710    0.000
 4670.00    1.01324   0.94903    0.000
 4671.00    0.80673   0.95904    0.000
 4672.00    0.60967   0.96659    0.000
 4673.00    0.57559   0.97237    0.000
 4674.00    0.75408   0.97507    0.000
 4675.00    0.90742   0.97376    0.000
 4676.00    1.03187   0.97092    0.000
 4677.00    1.12341   0.96880    0.000
 4678.00    1.18158   0.96579    0.000
 4679.00    1.11806   0.96241    0.000
 4680.00    0.94577   0.96190    0.000
 4681.00    0.85456   0.96322    0.000
 4682.00    0.82722   0.96405    0.000
 4683.00    0.94113   0.96555    0.000
 4684.00    1.15290   0.96756    0.000
 4685.00    1.21091   0.96793    0.000
 4686.00    1.17553   0.96794    0.000
 4687.00    0.90331   0.96865    0.000
 4688.00    0.50551   0.96847    0.000
 4689.00    0.44093   0.96875    0.000
 4690.00    0.52968   0.97092    0.000
 4691.00    0.59417   0.97230    0.000
 4692.00    0.64904   0.97177    0.000
 4693.00    0.83281   0.97124    0.000
 4694.00    1.06011   0.96954    0.000
 4695.00    1.08914   0.96390    0.000
 4696.00    1.06192   0.95626    0.000
 4697.00    0.95413   0.94963    0.000
 4698.00    0.82749   0.94348    0.000
 4699.00    0.76352   0.93646    0.000
 4700.00    0.71133   0.93076    0.000
 4701.00    0.76399   0.92880    0.000
 4702.00    0.83190   0.92895    0.000
 4703.00    0.94152   0.92868    0.000
 4704.00    1.05554   0.92875    0.000
 4705.00    1.09299   0.93146    0.000
 4706.00    1.12519   0.93503    0.000
 4707.00    0.90152   0.93781    0.000
 4708.00    0.66915   0.94139    0.000
 4709.00    0.80414   0.94674    0.000
 4710.00    0.93361   0.95254    0.000
 4711.00    0.86545   0.95819    0.000
 4712.00    0.79884   0.96519    0.000
 4713.00    0.75599   0.97446    0.000
 4714.00    0.73824   0.98449    0.000
 4715.00    0.96675   0.99333    0.000
 4716.00    1.16076   1.00238    0.000
 4717.00    1.11082   1.01209    0.000
 4718.00    1.04807   1.01912    0.000
 4719.00    0.91569   1.02189    0.000
 4720.00    0.81263   1.02162    0.000
 4721.00    0.83741   1.01821    0.000
 4722.00    0.85978   1.01150    0.000
 4723.00    0.87351   1.00171    0.000
 4724.00    0.94924   0.98909    0.000
 4725.00    1.21159   0.97590    0.000
 4726.00    1.29883   0.96513    0.000
 4727.00    0.93737   0.95647    0.000
 4728.00    0.72953   0.94965    0.000
 4729.00    0.86030   0.94767    0.000
 4730.00    0.96793   0.94973    0.000
 4731.00    1.03131   0.95316    0.000
 4732.00    1.02276   0.95924    0.000
 4733.00    0.89421   0.96618    0.000
 4734.00    0.87965   0.97049    0.000
 4735.00    1.03175   0.97534    0.000
 4736.00    1.17953   0.98233    0.000
 4737.00    1.32175   0.98645    0.000
 4738.00    1.30960   0.98842    0.000
 4739.00    1.12258   0.99281    0.000
 4740.00    0.93651   0.99821    0.000
 4741.00    0.75138   1.00148    0.000
 4742.00    0.76946   1.00342    0.000
 4743.00    0.96660   1.00676    0.000
 4744.00    1.06541   1.01096    0.000
 4745.00    1.08789   1.01240    0.000
 4746.00    1.05754   1.01118    0.000
 4747.00    0.99113   1.01049    0.000
 4748.00    0.98498   1.00853    0.000
 4749.00    1.01489   1.00339    0.000
 4750.00    0.99600   0.99757    0.000
 4751.00    0.95164   0.99257    0.000
 4752.00    1.00592   0.98735    0.000
 4753.00    1.10486   0.98241    0.000
 4754.00    1.24089   0.97912    0.000
 4755.00    1.39137   0.97582    0.000
 4756.00    1.18957   0.97184    0.000
 4757.00    0.87104   0.96826    0.000
 4758.00    1.09694   0.96366    0.000
 4759.00    1.47418   0.95615    0.000
 4760.00    1.39520   0.94837    0.000
 4761.00    1.21187   0.94281    0.014
 4762.00    1.11055   0.93733    0.014
 4763.00    1.02425   0.93307    0.014
 4764.00    1.06221   0.93381    0.014
 4765.00    1.11766   0.93764    0.014
 4766.00    0.92028   0.94261    0.014
 4767.00    0.69726   0.95039    0.014
 4768.00    0.82349   0.96016    0.014
 4769.00    0.97230   0.96849    0.014
 4770.00    1.08421   0.97615    0.014
 4771.00    1.19439   0.98512    0.014
 4772.00    1.00010   0.99233    0.014
 4773.00    0.81787   0.99604    0.014
 4774.00    0.98548   0.99923    0.014
 4775.00    1.14792   1.00264    0.014
 4776.00    1.23571   1.00187    0.014
 4777.00    1.29112   0.99661    0.014
 4778.00    1.04178   0.99238    0.014
 4779.00    0.81751   0.98791    0.014
 4780.00    0.76495   0.97908    0.013
 4781.00    0.74149   0.97102    0.013
 4782.00    0.87224   0.96723    0.013
 4783.00    0.99352   0.96242    0.013
 4784.00    1.07453   0.95725    0.013
 4785.00    1.10119   0.95780    0.013
 4786.00    0.93685   0.96099    0.013
 4787.00    0.81409   0.96333    0.014
 4788.00    0.81418   0.96965    0.013
 4789.00    0.90722   0.97892    0.013
 4790.00    1.23431   0.98635    0.014
 4791.00    1.43082   0.99390    0.014
 4792.00    1.34418   1.00121    0.014
 4793.00    1.20800   1.00470    0.014
 4794.00    0.97856   1.00542    0.014
 4795.00    0.94010   1.00528    0.013
 4796.00    1.21546   1.00325    0.013
 4797.00    1.24050   0.99969    0.013
 4798.00    0.90487   0.99668    0.014
 4799.00    0.75101   0.99444    0.014
 4800.00    0.82753   0.99271    0.014
 4801.00    0.96927   0.99051    0.014
 4802.00    1.18387   0.98743    0.014
 4803.00    1.14949   0.98492    0.014
 4804.00    0.86985   0.98284    0.014
 4805.00    0.72510   0.97951    0.014
 4806.00    0.69751   0.97689    0.014
 4807.00    0.75402   0.97767    0.014
 4808.00    0.87487   0.97941    0.013
 4809.00    0.95678   0.98124    0.013
 4810.00    1.01249   0.98534    0.013
 4811.00    0.98970   0.99070    0.013
 4812.00    0.92065   0.99553    0.013
 4813.00    0.91566   1.00038    0.013
 4814.00    0.94360   1.00480    0.013
 4815.00    1.04497   1.00787    0.013
 4816.00    1.17904   1.00926    0.014
 4817.00    1.07686   1.00786    0.014
 4818.00    0.88431   1.00393    0.014
 4819.00    0.93078   0.99929    0.014
 4820.00    1.05497   0.99337    0.014
 4821.00    1.00085   0.98558    0.014
 4822.00    0.89817   0.97951    0.013
 4823.00    0.85506   0.97592    0.013
 4824.00    0.82526   0.97206    0.013
 4825.00    0.76780   0.96874    0.013
 4826.00    0.70540   0.96703    0.013
 4827.00    0.82731   0.96635    0.013
 4828.00    0.97433   0.96580    0.014
 4829.00    1.06913   0.96383    0.013
 4830.00    1.15886   0.96219    0.013
 4831.00    1.06958   0.96333    0.013
 4832.00    0.96944   0.96359    0.013
 4833.00    0.83717   0.96113    0.013
 4834.00    0.70549   0.95951    0.013
 4835.00    0.83483   0.95892    0.013
 4836.00    0.96480   0.95600    0.013
 4837.00    1.11095   0.95105    0.013
 4838.00    1.23963   0.94810    0.013
 4839.00    1.12994   0.94701    0.013
 4840.00    1.03706   0.94485    0.013
 4841.00    1.09613   0.94292    0.013
 4842.00    1.11967   0.94325    0.013
 4843.00    0.90746   0.94355    0.013
 4844.00    0.75484   0.94219    0.013
 4845.00    0.90963   0.93977    0.013
 4846.00    1.07303   0.93590    0.013
 4847.00    1.27228   0.93137    0.013
 4848.00    1.34576   0.92525    0.000
 4849.00    0.98619   0.91443    0.000
 4850.00    0.74119   0.90241    0.000
 4851.00    0.82846   0.89100    0.000
 4852.00    0.86344   0.87442    0.000
 4853.00    0.76901   0.85434    0.000
 4854.00    0.71607   0.83594    0.000
 4855.00    0.75168   0.81586    0.000
 4856.00    0.80844   0.79456    0.000
 4857.00    0.90441   0.77822    0.000
 4858.00    0.91010   0.76573    0.000
 4859.00    0.76965   0.75702    0.000
 4860.00    0.72505   0.75748    0.000
 4861.00    0.81654   0.76381    0.000
 4862.00    0.95025   0.77171    0.000
 4863.00    1.13670   0.78593    0.000
 4864.00    1.12167   0.80292    0.000
 4865.00    0.88481   0.81386    0.000
 4866.00    0.78337   0.82257    0.000
 4867.00    0.81347   0.83248    0.000
 4868.00    0.83785   0.83809    0.000
 4869.00    0.85733   0.84030    0.000
 4870.00    0.78147   0.84714    0.000
 4871.00    0.63370   0.85657    0.000
 4872.00    0.64209   0.86343    0.000
 4873.00    0.75400   0.87339    0.000
 4874.00    0.80514   0.88786    0.000
 4875.00    0.82099   0.89865    0.013
 4876.00    0.83948   0.90589    0.013
 4877.00    0.85930   0.91443    0.013
 4878.00    0.92830   0.91893    0.013
 4879.00    1.01884   0.91670    0.013
 4880.00    0.97341   0.91475    0.013
 4881.00    0.87689   0.91168    0.013
 4882.00    0.88762   0.90337    0.013
 4883.00    0.93255   0.89558    0.013
 4884.00    0.86578   0.89094    0.013
 4885.00    0.76923   0.88597    0.013
 4886.00    0.62335   0.88302    0.013
 4887.00    0.46671   0.88541    0.013
 4888.00    0.72056   0.89091    0.013
 4889.00    1.04558   0.89985    0.013
 4890.00    1.06333   0.91472    0.013
 4891.00    1.04062   0.93089    0.013
 4892.00    0.90476   0.94582    0.013
 4893.00    0.75839   0.96192    0.013
 4894.00    0.91017   0.97457    0.013
 4895.00    1.07886   0.98207    0.013
 4896.00    1.07343   0.98679    0.013
 4897.00    1.06395   0.98636    0.013
 4898.00    1.04662   0.98304    0.013
 4899.00    1.02729   0.98124    0.013
 4900.00    0.96085   0.97793    0.013
 4901.00    0.89544   0.97296    0.013
 4902.00    0.84339   0.97083    0.013
 4903.00    0.80338   0.96951    0.013
 4904.00    0.86807   0.96540    0.013
 4905.00    0.94073   0.96063    0.013
 4906.00    1.06462   0.95737    0.013
 4907.00    1.14843   0.95363    0.013
 4908.00    1.03069   0.94872    0.013
 4909.00    0.92612   0.94572    0.013
 4910.00    0.87517   0.94404    0.013
 4911.00    0.83577   0.94059    0.013
 4912.00    0.83538   0.93604    0.013
 4913.00    0.87488   0.93032    0.013
 4914.00    1.02796   0.92077    0.013
 4915.00    1.12555   0.90806    0.014
 4916.00    1.08818   0.89553    0.013
 4917.00    1.00333   0.88447    0.013
 4918.00    0.81884   0.87561    0.013
 4919.00    0.71201   0.87193    0.013
 4920.00    0.74690   0.87555    0.013
 4921.00    0.72067   0.88355    0.013
 4922.00    0.59699   0.89488    0.013
 4923.00    0.60632   0.91140    0.013
 4924.00    0.80180   0.92852    0.013
 4925.00    0.93263   0.94160    0.013
 4926.00    0.98384   0.95371    0.013
 4927.00    1.01866   0.96369    0.013
 4928.00    1.03568   0.96625    0.013
 4929.00    0.93522   0.96523    0.013
 4930.00    0.72225   0.96235    0.013
 4931.00    0.67041   0.95350    0.013
 4932.00    0.75463   0.94385    0.013
 4933.00    0.85190   0.93670    0.013
 4934.00    0.95888   0.92843    0.013
 4935.00    0.91033   0.92277    0.013
 4936.00    0.76021   0.92238    0.013
 4937.00    0.77597   0.92484    0.013
 4938.00    0.88656   0.93143    0.013
 4939.00    0.90235   0.94054    0.013
 4940.00    0.87095   0.94964    0.000
 4941.00    0.85100   0.96130    0.000
 4942.00    0.83598   0.97300    0.000
 4943.00    0.90982   0.98014    0.000
 4944.00    1.01648   0.98619    0.000
 4945.00    0.93737   0.99249    0.000
 4946.00    0.80014   0.99494    0.000
 4947.00    0.96953   0.99409    0.000
 4948.00    1.21893   0.99216    0.000
 4949.00    1.09667   0.98763    0.000
 4950.00    0.89527   0.97942    0.000
 4951.00    1.02913   0.96808    0.000
 4952.00    1.21947   0.95542    0.000
 4953.00    0.98618   0.94425    0.000
 4954.00    0.69901   0.93405    0.000
 4955.00    0.92311   0.92430    0.000
 4956.00    1.19256   0.92084    0.000
 4957.00    1.04787   0.92319    0.000
 4958.00    0.88133   0.92450    0.000
 4959.00    0.92946   0.92700    0.000
 4960.00    0.98189   0.93236    0.000
 4961.00    1.04950   0.93569    0.000
 4962.00    1.11602   0.93524    0.000
 4963.00    1.15885   0.93327    0.000
 4964.00    1.18462   0.93257    0.000
 4965.00    1.00094   0.93206    0.000
 4966.00    0.84421   0.93130    0.000
 4967.00    0.91315   0.93334    0.000
 4968.00    0.98327   0.93737    0.000
 4969.00    1.06073   0.94146    0.000
 4970.00    1.09625   0.94542    0.000
 4971.00    0.92620   0.94792    0.000
 4972.00    0.80771   0.94829    0.000
 4973.00    0.89444   0.94500    0.000
 4974.00    0.97363   0.93815    0.000
 4975.00    1.02785   0.92925    0.000
 4976.00    1.03543   0.91654    0.000
 4977.00    0.91262   0.90208    0.000
 4978.00    0.83660   0.88979    0.000
 4979.00    0.87246   0.87799    0.000
 4980.00    0.91445   0.86763    0.000
 4981.00    0.96907   0.86340    0.000
 4982.00    1.00299   0.86410    0.000
 4983.00    0.99972   0.86636    0.000
 4984.00    0.94401   0.87250    0.000
 4985.00    0.80591   0.88203    0.000
 4986.00    0.70366   0.89024    0.000
 4987.00    0.65088   0.89784    0.000
 4988.00    0.64052   0.90458    0.000
 4989.00    0.68166   0.90859    0.000
 4990.00    0.77182   0.91221    0.000
 4991.00    0.91445   0.91332    0.000
 4992.00    0.91595   0.91175    0.000
 4993.00    0.78419   0.91112    0.000
 4994.00    0.68302   0.90732    0.000
 4995.00    0.60731   0.90049    0.000
 4996.00    0.59128   0.89444    0.000
 4997.00    0.61898   0.88583    0.000
 4998.00    0.63117   0.87602    0.000
 4999.00    0.63338   0.86808    0.000
 5000.00    0.71393   0.85950    0.000
 5001.00    0.83859   0.85211    0.000
 5002.00    0.90773   0.84828    0.000
 5003.00    0.94967   0.84527    0.000
 5004.00    0.90389   0.84290    0.000
 5005.00    0.82095   0.84338    0.000
 5006.00    0.76903   0.84409    0.000
 5007.00    0.72835   0.84227    0.000
 5008.00    0.77386   0.84048    0.000
 5009.00    0.84582   0.83831    0.000
 5010.00    0.82401   0.83370    0.000
 5011.00    0.77827   0.82928    0.000
 5012.00    0.81763   0.82557    0.000
 5013.00    0.87467   0.82286    0.000
 5014.00    0.80162   0.82302    0.000
 5015.00    0.70729   0.82406    0.000
 5016.00    0.72844   0.82620    0.000
 5017.00    0.76377   0.83113    0.000
 5018.00    0.84728   0.83655    0.000
 5019.00    0.93487   0.84116    0.000
 5020.00    0.82136   0.84662    0.000
 5021.00    0.69803   0.85347    0.000
 5022.00    0.82881   0.85904    0.000
 5023.00    0.95879   0.86413    0.000
 5024.00    0.80050   0.87138    0.000
 5025.00    0.64979   0.87740    0.000
 5026.00    0.65108   0.88298    0.000
 5027.00    0.65954   0.89048    0.000
 5028.00    0.75188   0.89553    0.000
 5029.00    0.82658   0.89856    0.013
 5030.00    0.75892   0.90042    0.013
 5031.00    0.69017   0.89838    0.013
 5032.00    0.61488   0.89311    0.013
 5033.00    0.56713   0.88400    0.013
 5034.00    0.65109   0.87276    0.013
 5035.00    0.72656   0.86229    0.013
 5036.00    0.76892   0.85070    0.013
 5037.00    0.79543   0.84224    0.013
 5038.00    0.77049   0.83970    0.013
 5039.00    0.74932   0.83923    0.013
 5040.00    0.73849   0.84439    0.013
 5041.00    0.75160   0.85433    0.013
 5042.00    0.82102   0.86253    0.013
 5043.00    0.87686   0.87134    0.013
 5044.00    0.90507   0.87997    0.013
 5045.00    0.93233   0.88360    0.013
 5046.00    0.95788   0.88419    0.013
 5047.00    0.95633   0.88470    0.013
 5048.00    0.91285   0.88503    0.013
 5049.00    0.89752   0.88536    0.013
 5050.00    0.92047   0.88778    0.013
 5051.00    0.90496   0.89326    0.013
 5052.00    0.84342   0.90016    0.013
 5053.00    0.85556   0.90761    0.013
 5054.00    0.94546   0.91512    0.013
 5055.00    0.89801   0.92208    0.013
 5056.00    0.72268   0.92725    0.012
 5057.00    0.69851   0.92928    0.012
 5058.00    0.79836   0.92915    0.013
 5059.00    0.83400   0.92607    0.013
 5060.00    0.82326   0.91978    0.012
 5061.00    0.78959   0.91300    0.012
 5062.00    0.74138   0.90431    0.012
 5063.00    0.77981   0.89474    0.012
 5064.00    0.86627   0.88858    0.012
 5065.00    0.95468   0.88336    0.012
 5066.00    1.04404   0.87786    0.013
 5067.00    1.10964   0.87565    0.012
 5068.00    1.16535   0.87582    0.012
 5069.00    1.01674   0.87452    0.012
 5070.00    0.79538   0.87216    0.012
 5071.00    0.73569   0.87128    0.012
 5072.00    0.72463   0.86940    0.012
 5073.00    0.61739   0.86383    0.012
 5074.00    0.48613   0.85735    0.012
 5075.00    0.57022   0.85210    0.012
 5076.00    0.69795   0.84589    0.012
 5077.00    0.81840   0.83854    0.012
 5078.00    0.93770   0.83459    0.012
 5079.00    0.83747   0.83464    0.012
 5080.00    0.71127   0.83569    0.012
 5081.00    0.80919   0.83921    0.012
 5082.00    0.92514   0.84674    0.012
 5083.00    0.82247   0.85546    0.012
 5084.00    0.70997   0.86392    0.012
 5085.00    0.60169   0.87268    0.011
 5086.00    0.50025   0.88105    0.011
 5087.00    0.73775   0.88808    0.012
 5088.00    0.96817   0.89315    0.012
 5089.00    1.06687   0.89591    0.012
 5090.00    1.14786   0.89671    0.012
 5091.00    1.03153   0.89499    0.012
 5092.00    0.92322   0.89050    0.012
 5093.00    0.87746   0.88409    0.012
 5094.00    0.84052   0.87663    0.012
 5095.00    0.85557   0.86965    0.012
 5096.00    0.85460   0.86325    0.012
 5097.00    0.77889   0.85789    0.012
 5098.00    0.72343   0.85556    0.012
 5099.00    0.74516   0.85448    0.012
 5100.00    0.76665   0.85361    0.012
 5101.00    0.78739   0.85381    0.012
 5102.00    0.81823   0.85294    0.012
 5103.00    0.87628   0.85189    0.012
 5104.00    0.83833   0.85110    0.012
 5105.00    0.57839   0.84867    0.012
 5106.00    0.47028   0.84876    0.012
 5107.00    0.66591   0.85117    0.012
 5108.00    0.79370   0.85253    0.012
 5109.00    0.80325   0.85788    0.012
 5110.00    0.78244   0.86551    0.012
 5111.00    0.71534   0.87103    0.012
 5112.00    0.71445   0.87838    0.012
 5113.00    0.80228   0.88504    0.012
 5114.00    0.82099   0.88775    0.012
 5115.00    0.75814   0.88899    0.012
 5116.00    0.75599   0.88710    0.013
 5117.00    0.81702   0.88148    0.013
 5118.00    0.87761   0.87327    0.013
 5119.00    0.93782   0.86298    0.013
 5120.00    0.92801   0.85264    0.013
 5121.00    0.86157   0.84185    0.013
 5122.00    0.87876   0.83205    0.012
 5123.00    0.95551   0.82606    0.012
 5124.00    0.96230   0.82183    0.012
 5125.00    0.92539   0.81960    0.012
 5126.00    0.75850   0.82149    0.012
 5127.00    0.52064   0.82505    0.012
 5128.00    0.52476   0.82876    0.013
 5129.00    0.64368   0.83420    0.013
 5130.00    0.61807   0.84007    0.013
 5131.00    0.53330   0.84286    0.013
 5132.00    0.69005   0.84488    0.013
 5133.00    0.93123   0.84703    0.013
 5134.00    0.85824   0.84392    0.013
 5135.00    0.69264   0.84044    0.013
 5136.00    0.74818   0.83894    0.013
 5137.00    0.85773   0.83217    0.012
 5138.00    0.77534   0.82744    0.012
 5139.00    0.65504   0.82673    0.012
 5140.00    0.78875   0.82113    0.012
 5141.00    0.96163   0.81803    0.013
 5142.00    0.82791   0.81885    0.012
 5143.00    0.65927   0.81569    0.012
 5144.00    0.68631   0.81412    0.012
 5145.00    0.72827   0.81484    0.012
 5146.00    0.67057   0.81342    0.012
 5147.00    0.60877   0.81378    0.012
 5148.00    0.80390   0.81524    0.012
 5149.00    0.99483   0.81642    0.012
 5150.00    0.91980   0.82035    0.012
 5151.00    0.85259   0.82509    0.012
 5152.00    0.92060   0.83048    0.012
 5153.00    0.98716   0.83778    0.012
 5154.00    1.03816   0.84362    0.012
 5155.00    1.06809   0.84866    0.012
 5156.00    0.93943   0.85201    0.012
 5157.00    0.81909   0.84938    0.012
 5158.00    0.74642   0.84357    0.012
 5159.00    0.68326   0.83355    0.012
 5160.00    0.66342   0.81583    0.012
 5161.00    0.66064   0.79558    0.012
 5162.00    0.72153   0.77340    0.012
 5163.00    0.78433   0.74794    0.012
 5164.00    0.85307   0.72436    0.012
 5165.00    0.86687   0.70474    0.012
 5166.00    0.73515   0.68844    0.012
 5167.00    0.65402   0.67715    0.012
 5168.00    0.68791   0.67327    0.012
 5169.00    0.69472   0.67591    0.012
 5170.00    0.64817   0.68225    0.012
 5171.00    0.62505   0.69341    0.012
 5172.00    0.64211   0.70915    0.012
 5173.00    0.65969   0.72434    0.012
 5174.00    0.67806   0.73686    0.012
 5175.00    0.66404   0.74709    0.012
 5176.00    0.60727   0.75314    0.012
 5177.00    0.66545   0.75320    0.012
 5178.00    0.85737   0.74814    0.012
 5179.00    0.91789   0.74261    0.012
 5180.00    0.84360   0.73832    0.012
 5181.00    0.75963   0.73405    0.011
 5182.00    0.66691   0.73520    0.011
 5183.00    0.66236   0.74194    0.011
 5184.00    0.72813   0.75011    0.012
 5185.00    0.76706   0.76222    0.012
 5186.00    0.78717   0.77349    0.012
 5187.00    0.82337   0.78125    0.012
 5188.00    0.86946   0.79074    0.012
 5189.00    0.85713   0.79628    0.012
 5190.00    0.81338   0.79708    0.000
 5191.00    0.83737   0.80196    0.000
 5192.00    0.89296   0.80690    0.000
 5193.00    0.83120   0.80882    0.000
 5194.00    0.72223   0.81445    0.000
 5195.00    0.68903   0.82112    0.000
 5196.00    0.68184   0.82381    0.000
 5197.00    0.67694   0.82535    0.000
 5198.00    0.67270   0.82565    0.000
 5199.00    0.79525   0.82103    0.000
 5200.00    0.94809   0.81213    0.000
 5201.00    0.90849   0.80345    0.000
 5202.00    0.83184   0.79395    0.000
 5203.00    0.74149   0.78209    0.000
 5204.00    0.64908   0.77532    0.000
 5205.00    0.76765   0.77383    0.000
 5206.00    0.90933   0.77286    0.000
 5207.00    0.90597   0.77795    0.000
 5208.00    0.89214   0.78834    0.000
 5209.00    0.67860   0.79833    0.000
 5210.00    0.45760   0.80978    0.000
 5211.00    0.66615   0.82194    0.012
 5212.00    0.87131   0.83202    0.012
 5213.00    0.88029   0.84037    0.012
 5214.00    0.90077   0.84743    0.012
 5215.00    1.10763   0.85246    0.012
 5216.00    1.26353   0.85560    0.012
 5217.00    0.90077   0.85673    0.012
 5218.00    0.58829   0.85455    0.012
 5219.00    0.64174   0.84966    0.012
 5220.00    0.70158   0.84321    0.012
 5221.00    0.79707   0.83402    0.012
 5222.00    0.87321   0.82364    0.012
 5223.00    0.86331   0.81698    0.012
 5224.00    0.84413   0.81163    0.012
 5225.00    0.79104   0.80720    0.012
 5226.00    0.77868   0.81051    0.012
 5227.00    0.89094   0.81562    0.012
 5228.00    0.96028   0.81948    0.012
 5229.00    0.91793   0.82879    0.012
 5230.00    0.89699   0.83730    0.012
 5231.00    0.92392   0.84345    0.011
 5232.00    0.93699   0.85279    0.011
 5233.00    0.92319   0.86099    0.012
 5234.00    0.93831   0.86804    0.012
 5235.00    1.00230   0.87617    0.012
 5236.00    1.01840   0.88296    0.012
 5237.00    0.96357   0.88806    0.012
 5238.00    0.91235   0.89145    0.012
 5239.00    0.86583   0.89330    0.012
 5240.00    0.90860   0.89311    0.011
 5241.00    1.05378   0.88943    0.011
 5242.00    1.06387   0.88407    0.011
 5243.00    0.93732   0.87901    0.011
 5244.00    0.85419   0.87151    0.011
 5245.00    0.80979   0.86212    0.011
 5246.00    0.85348   0.85662    0.012
 5247.00    0.96641   0.85256    0.012
 5248.00    1.00456   0.84763    0.012
 5249.00    0.99100   0.84705    0.012
 5250.00    0.88527   0.84914    0.012
 5251.00    0.72365   0.85203    0.012
 5252.00    0.73527   0.85652    0.012
 5253.00    0.83857   0.85995    0.012
 5254.00    0.86360   0.86325    0.012
 5255.00    0.85269   0.86451    0.012
 5256.00    0.93490   0.86061    0.012
 5257.00    1.05393   0.85326    0.012
 5258.00    1.00310   0.84154    0.012
 5259.00    0.89505   0.82590    0.012
 5260.00    0.77261   0.80811    0.012
 5261.00    0.64608   0.78836    0.012
 5262.00    0.70797   0.77110    0.012
 5263.00    0.81385   0.75693    0.013
 5264.00    0.75667   0.74315    0.013
 5265.00    0.66893   0.73657    0.013
 5266.00    0.68527   0.73745    0.013
 5267.00    0.71669   0.73757    0.013
 5268.00    0.72759   0.74285    0.013
 5269.00    0.73634   0.75742    0.013
 5270.00    0.86215   0.77075    0.013
 5271.00    0.99594   0.78389    0.013
 5272.00    0.82523   0.80212    0.013
 5273.00    0.64431   0.81716    0.013
 5274.00    0.78374   0.82928    0.013
 5275.00    0.91960   0.84257    0.013
 5276.00    0.92985   0.85150    0.013
 5277.00    0.93942   0.85730    0.013
 5278.00    0.93873   0.86258    0.013
 5279.00    0.92921   0.86586    0.012
 5280.00    0.83355   0.87010    0.012
 5281.00    0.75084   0.87536    0.012
 5282.00    0.75945   0.88061    0.012
 5283.00    0.79864   0.88885    0.012
 5284.00    1.00363   0.89803    0.012
 5285.00    1.15517   0.90554    0.012
 5286.00    1.07446   0.91213    0.012
 5287.00    1.00384   0.91683    0.012
 5288.00    0.96937   0.91837    0.012
 5289.00    0.94937   0.91665    0.012
 5290.00    0.97286   0.91153    0.012
 5291.00    0.96861   0.90356    0.012
 5292.00    0.89348   0.89409    0.012
 5293.00    0.85781   0.88396    0.012
 5294.00    0.90897   0.87473    0.012
 5295.00    0.92936   0.86705    0.012
 5296.00    0.89102   0.86178    0.012
 5297.00    0.86847   0.86205    0.012
 5298.00    0.87220   0.86585    0.012
 5299.00    0.82450   0.87086    0.012
 5300.00    0.70177   0.87952    0.012
 5301.00    0.64557   0.89019    0.012
 5302.00    0.67478   0.89993    0.012
 5303.00    0.75160   0.90929    0.011
 5304.00    0.88229   0.91764    0.012
 5305.00    0.89640   0.92338    0.012
 5306.00    0.79424   0.92752    0.012
 5307.00    0.77616   0.93047    0.012
 5308.00    0.83202   0.93064    0.012
 5309.00    0.84173   0.92922    0.012
 5310.00    0.81567   0.92718    0.011
 5311.00    0.77532   0.92307    0.011
 5312.00    0.72523   0.91853    0.011
 5313.00    0.71060   0.91436    0.011
 5314.00    0.71714   0.90844    0.012
 5315.00    0.78572   0.90265    0.012
 5316.00    0.88663   0.89752    0.012
 5317.00    0.86327   0.89044    0.012
 5318.00    0.78377   0.88241    0.012
 5319.00    0.84075   0.87337    0.012
 5320.00    0.95074   0.86292    0.012
 5321.00    0.90388   0.85179    0.012
 5322.00    0.80515   0.83907    0.012
 5323.00    0.76419   0.82751    0.012
 5324.00    0.73925   0.81997    0.012
 5325.00    0.82079   0.81379    0.012
 5326.00    0.92661   0.80968    0.012
 5327.00    0.95538   0.81298    0.012
 5328.00    0.97010   0.82082    0.012
 5329.00    0.98487   0.82950    0.012
 5330.00    0.99965   0.84018    0.012
 5331.00    0.96586   0.85110    0.012
 5332.00    0.92718   0.86073    0.012
 5333.00    0.92918   0.86801    0.012
 5334.00    0.93378   0.87177    0.012
 5335.00    0.94945   0.87264    0.012
 5336.00    0.96541   0.87258    0.012
 5337.00    0.95761   0.87155    0.012
 5338.00    0.95334   0.86810    0.012
 5339.00    1.05008   0.86641    0.012
 5340.00    1.12947   0.86722    0.012
 5341.00    0.96010   0.86652    0.012
 5342.00    0.81008   0.86757    0.011
 5343.00    0.84117   0.86986    0.011
 5344.00    0.86793   0.87133    0.012
 5345.00    0.86506   0.87561    0.012
 5346.00    0.87660   0.88026    0.012
 5347.00    0.96416   0.88483    0.011
 5348.00    1.01637   0.89243    0.011
 5349.00    0.91842   0.90125    0.011
 5350.00    0.82919   0.90997    0.011
 5351.00    0.77059   0.91834    0.011
 5352.00    0.75454   0.92668    0.011
 5353.00    0.86394   0.93393    0.011
 5354.00    0.92833   0.93785    0.011
 5355.00    0.87963   0.93971    0.011
 5356.00    0.86528   0.93935    0.011
 5357.00    0.92529   0.93555    0.011
 5358.00    0.96430   0.93005    0.011
 5359.00    0.96386   0.92253    0.011
 5360.00    0.98586   0.91266    0.011
 5361.00    1.04468   0.90328    0.011
 5362.00    1.05543   0.89320    0.011
 5363.00    0.99707   0.88203    0.011
 5364.00    0.87046   0.87287    0.011
 5365.00    0.65750   0.86443    0.011
 5366.00    0.61336   0.85725    0.011
 5367.00    0.75742   0.85339    0.011
 5368.00    0.89250   0.85186   -2.000
 5369.00    1.01873   0.85281   -2.000
 5370.00    1.05837   0.85792   -2.000
 5371.00    1.02292   0.86597   -2.000
 5372.00    1.02080   0.87366   -2.000
 5373.00    1.04414   0.88223   -2.000
 5374.00    1.08344   0.89062   -2.000
 5375.00    1.13344   0.89591   -2.000
 5376.00    1.04562   0.90013   -2.000
 5377.00    0.87673   0.90291   -2.000
 5378.00    0.77986   0.90262   -2.000
 5379.00    0.71993   0.90180   -2.000
 5380.00    0.74673   0.90086   -2.000
 5381.00    0.81207   0.89788   -2.000
 5382.00    0.92535   0.89504   -2.000
 5383.00    1.05691   0.89253    0.012
 5384.00    1.05997   0.88792    0.012
 5385.00    1.02135   0.88296    0.012
 5386.00    0.96099   0.87777    0.012
 5387.00    0.89474   0.87085    0.012
 5388.00    0.79584   0.86395    0.012
 5389.00    0.68968   0.85709    0.011
 5390.00    0.75550   0.85003    0.011
 5391.00    0.85186   0.84400    0.011
 5392.00    0.82183   0.83832    0.011
 5393.00    0.77465   0.83450    0.012
 5394.00    0.79067   0.83177    0.012
 5395.00    0.81279   0.82812    0.012
 5396.00    0.93178   0.82734    0.011
 5397.00    1.05659   0.82743    0.011
 5398.00    0.89454   0.82445    0.011
 5399.00    0.72716   0.82165    0.011
 5400.00    0.91632   0.81952    0.011
 5401.00    1.09463   0.81551    0.011
 5402.00    0.99343   0.81105    0.011
 5403.00    0.89666   0.80806    0.011
 5404.00    0.85997   0.80672    0.011
 5405.00    0.82518   0.80809    0.011
 5406.00    0.80747   0.81227    0.011
 5407.00    0.80055   0.81788    0.011
 5408.00    0.86493   0.82546    0.011
 5409.00    0.90717   0.83585    0.011
 5410.00    0.83557   0.84629    0.011
 5411.00    0.78412   0.85580    0.011
 5412.00    0.81630   0.86513    0.011
 5413.00    0.84525   0.87262    0.011
 5414.00    0.86310   0.87867    0.011
 5415.00    0.87776   0.88318    0.011
 5416.00    0.88319   0.88475    0.011
 5417.00    0.89219   0.88535    0.011
 5418.00    0.91002   0.88473    0.011
 5419.00    0.90264   0.88210    0.011
 5420.00    0.84158   0.88048    0.011
 5421.00    0.80051   0.87805    0.011
 5422.00    0.79640   0.87310    0.011
 5423.00    0.82975   0.87007    0.011
 5424.00    0.92362   0.86650    0.011
 5425.00    0.97086   0.86090    0.011
 5426.00    0.95202   0.85653    0.011
 5427.00    0.99502   0.85005    0.011
 5428.00    1.11513   0.84466    0.011
 5429.00    1.10139   0.84312    0.011
 5430.00    0.94051   0.84020    0.011
 5431.00    0.81850   0.83975    0.011
 5432.00    0.73418   0.84357    0.011
 5433.00    0.83194   0.84870    0.011
 5434.00    1.08538   0.85605    0.011
 5435.00    1.14542   0.86450    0.011
 5436.00    1.05985   0.87311    0.011
 5437.00    0.89323   0.88073    0.011
 5438.00    0.67300   0.88610    0.011
 5439.00    0.63436   0.88836    0.011
 5440.00    0.70092   0.88752    0.011
 5441.00    0.74808   0.88465    0.011
 5442.00    0.78545   0.87931    0.011
 5443.00    0.90417   0.87333    0.011
 5444.00    1.05845   0.86737    0.011
 5445.00    1.09656   0.86168    0.011
 5446.00    1.09111   0.85909    0.011
 5447.00    1.03345   0.85708    0.011
 5448.00    0.95919   0.85453    0.011
 5449.00    0.87924   0.85367    0.011
 5450.00    0.79778   0.85265    0.011
 5451.00    0.79514   0.85132    0.011
 5452.00    0.80965   0.85069    0.011
 5453.00    0.86959   0.84911    0.011
 5454.00    0.93738   0.84914    0.011
 5455.00    0.95740   0.85106    0.011
 5456.00    0.97117   0.85162    0.011
 5457.00    0.90240   0.85294    0.011
 5458.00    0.82600   0.85438    0.010
 5459.00    0.81790   0.85508    0.010
 5460.00    0.81364   0.85601    0.010
 5461.00    0.90994   0.85571    0.010
 5462.00    1.00746   0.85622    0.011
 5463.00    0.99763   0.85716    0.010
 5464.00    0.99252   0.85643    0.010
 5465.00    1.09819   0.85599    0.010
 5466.00    1.18326   0.85495    0.010
 5467.00    1.00373   0.85239    0.010
 5468.00    0.83479   0.84880    0.010
 5469.00    0.75752   0.84401    0.010
 5470.00    0.70232   0.83920    0.011
 5471.00    0.78849   0.83337    0.011
 5472.00    0.88345   0.82798    0.011
 5473.00    1.02240   0.82476    0.011
 5474.00    1.09554   0.82069    0.011
 5475.00    0.90153   0.81854    0.011
 5476.00    0.75343   0.82011    0.011
 5477.00    0.75985   0.82207    0.011
 5478.00    0.78589   0.82486   -2.000
 5479.00    0.86763   0.82856   -2.000
 5480.00    0.91688   0.83317   -2.000
 5481.00    0.88725   0.83824   -2.000
 5482.00    0.81902   0.84227   -2.000
 5483.00    0.66996   0.84592   -2.000
 5484.00    0.71650   0.84926   -2.000
 5485.00    1.11925   0.85118   -2.000
 5486.00    1.43969   0.85256   -2.000
 5487.00    1.62911   0.85425   -2.000
 5488.00    1.97392   0.85470   -2.000
 5489.00    2.53580   0.85515   -2.000
 5490.00    2.53097   0.85599   -2.000
 5491.00    1.82946   0.85569   -2.000
 5492.00    1.45738   0.85575   -2.000
 5493.00    1.44231   0.85604   -2.000
 5494.00    1.23885   0.85524   -2.000
 5495.00    0.85528   0.85376   -2.000
 5496.00    0.69398   0.85254   -2.000
 5497.00    0.72001   0.85166   -2.000
 5498.00    0.70562   0.84947   -2.000
 5499.00    0.66123   0.84599   -2.000
 5500.00    0.72685   0.84369   -2.000
 5501.00    0.86419   0.84170   -2.000
 5502.00    0.91440   0.83882    0.010
 5503.00    0.91488   0.83679    0.010
 5504.00    0.89763   0.83440    0.010
 5505.00    0.87155   0.83235    0.010
 5506.00    0.85104   0.83192    0.010
 5507.00    0.83291   0.83012    0.010
 5508.00    0.87086   0.82887    0.010
 5509.00    0.92948   0.82927    0.010
 5510.00    0.87381   0.82916    0.010
 5511.00    0.78248   0.83108    0.010
 5512.00    0.69305   0.83441    0.010
 5513.00    0.60412   0.83810    0.010
 5514.00    0.72192   0.84350    0.010
 5515.00    0.88362   0.84883    0.010
 5516.00    0.93904   0.85425    0.010
 5517.00    0.97662   0.85894    0.010
 5518.00    0.99327   0.86132    0.010
 5519.00    1.00727   0.86271    0.010
 5520.00    0.95698   0.86231    0.010
 5521.00    0.90103   0.85968    0.010
 5522.00    0.89000   0.85665    0.010
 5523.00    0.88133   0.85293    0.010
 5524.00    0.81470   0.84902    0.010
 5525.00    0.74754   0.84586    0.010
 5526.00    0.72117   0.84311    0.010
 5527.00    0.70287   0.84217    0.010
 5528.00    0.85818   0.84257    0.011
 5529.00    0.99687   0.84334    0.011
 5530.00    0.93272   0.84488    0.011
 5531.00    0.88315   0.84688    0.011
 5532.00    0.95512   0.84941    0.011
 5533.00    1.00901   0.85151    0.011
 5534.00    0.95041   0.85411    0.010
 5535.00    0.89612   0.85699    0.010
 5536.00    0.86285   0.85879    0.010
 5537.00    0.83361   0.86148    0.010
 5538.00    0.82037   0.86398    0.010
 5539.00    0.81637   0.86540    0.010
 5540.00    0.84287   0.86713    0.010
 5541.00    0.90210   0.86850    0.010
 5542.00    1.05259   0.86997    0.010
 5543.00    1.12883   0.87187    0.010
 5544.00    1.02785   0.87313    0.010
 5545.00    0.93898   0.87470    0.010
 5546.00    0.87504   0.87664    0.010
 5547.00    0.83431   0.87739    0.010
 5548.00    0.83522   0.87766    0.010
 5549.00    0.80977   0.87764    0.010
 5550.00    0.74298   0.87633    0.010
 5551.00    0.71324   0.87442    0.010
 5552.00    0.73449   0.87225    0.010
 5553.00    0.76190   0.86966    0.010
 5554.00    0.79676   0.86731    0.010
 5555.00    0.86143   0.86437    0.010
 5556.00    0.95794   0.86117    0.010
 5557.00    1.05954   0.85884    0.010
 5558.00    1.16594   0.85565    0.010
 5559.00    1.14162   0.85208    0.010
 5560.00    1.00866   0.84896    0.010
 5561.00    0.86914   0.84559    0.010
 5562.00    0.72481   0.84268    0.010
 5563.00    0.69645   0.83998    0.010
 5564.00    0.74259   0.83793    0.010
 5565.00    0.80899   0.83633    0.010
 5566.00    0.88678   0.83527    0.010
 5567.00    0.93797   0.83556    0.010
 5568.00    0.97615   0.83593    0.010
 5569.00    0.99859   0.83730    0.010
 5570.00    1.01439   0.83914    0.010
 5571.00    0.97787   0.84049    0.010
 5572.00    0.92243   0.84343    0.010
 5573.00    0.82201   0.84609    0.010
 5574.00    0.70782   0.84712    0.010
 5575.00    0.77170   0.84864    0.010
 5576.00    0.88092   0.84932    0.010
 5577.00    0.95978   0.84789    0.010
 5578.00    1.03235   0.84581    0.010
 5579.00    0.97082   0.84156    0.010
 5580.00    0.88742   0.83529    0.010
 5581.00    0.85287   0.82909    0.010
 5582.00    0.82428   0.82136    0.010
 5583.00    0.83149   0.81349    0.010
 5584.00    0.84170   0.80682    0.010
 5585.00    0.75435   0.80054    0.010
 5586.00    0.66228   0.79686    0.010
 5587.00    0.70918   0.79500    0.010
 5588.00    0.75791   0.79506    0.010
 5589.00    0.79168   0.79797    0.010
 5590.00    0.82157   0.80084    0.010
 5591.00    0.77446   0.80419    0.010
 5592.00    0.73202   0.80815    0.010
 5593.00    0.74388   0.81118    0.010
 5594.00    0.76157   0.81377    0.010
 5595.00    0.82612   0.81502    0.010
 5596.00    0.86983   0.81521    0.010
 5597.00    0.78763   0.81685    0.010
 5598.00    0.71162   0.81876    0.010
 5599.00    0.66519   0.82076    0.010
 5600.00    0.64588   0.82483    0.010
 5601.00    0.73191   0.83001    0.010
 5602.00    0.82233   0.83667    0.010
 5603.00    0.92690   0.84360    0.010
 5604.00    0.98831   0.84968    0.010
 5605.00    0.93149   0.85530    0.010
 5606.00    0.89264   0.85895    0.010
 5607.00    0.89598   0.86017    0.010
 5608.00    0.92789   0.85850    0.010
 5609.00    1.01774   0.85531    0.010
 5610.00    1.05535   0.85104    0.010
 5611.00    1.00067   0.84478    0.010
 5612.00    0.97585   0.83824    0.010
 5613.00    0.99717   0.83186    0.010
 5614.00    1.01549   0.82724    0.010
 5615.00    1.02975   0.82456    0.010
 5616.00    1.01789   0.82169    0.010
 5617.00    0.97482   0.81986    0.010
 5618.00    0.91007   0.81963    0.010
 5619.00    0.82246   0.82023    0.010
 5620.00    0.80972   0.82079    0.010
 5621.00    0.86656   0.82123    0.010
 5622.00    0.87585   0.82245    0.010
 5623.00    0.84617   0.82464    0.010
 5624.00    0.83493   0.82788    0.010
 5625.00    0.83698   0.83115    0.010
 5626.00    0.88455   0.83436    0.010
 5627.00    0.96093   0.83808    0.010
 5628.00    1.00970   0.84100    0.010
 5629.00    1.04320   0.84255    0.010
 5630.00    0.98693   0.84282    0.010
 5631.00    0.88747   0.84185    0.009
 5632.00    0.86618   0.83990    0.009
 5633.00    0.87736   0.83710    0.009
 5634.00    0.91135   0.83371    0.009
 5635.00    0.95345   0.83061    0.009
 5636.00    0.98305   0.82821    0.010
 5637.00    1.00890   0.82623    0.010
 5638.00    0.98645   0.82518    0.009
 5639.00    0.95196   0.82474    0.009
 5640.00    0.85930   0.82534    0.009
 5641.00    0.75488   0.82691    0.009
 5642.00    0.80987   0.82818    0.009
 5643.00    0.89011   0.83013    0.009
 5644.00    0.97756   0.83229    0.009
 5645.00    1.06585   0.83395    0.009
 5646.00    1.00453   0.83532    0.009
 5647.00    0.93125   0.83569    0.009
 5648.00    0.91260   0.83538    0.009
 5649.00    0.89639   0.83461    0.009
 5650.00    0.90930   0.83229    0.009
 5651.00    0.91994   0.82845    0.009
 5652.00    0.80364   0.82451    0.009
 5653.00    0.69429   0.82032    0.009
 5654.00    0.71297   0.81571    0.009
 5655.00    0.73108   0.81148    0.010
 5656.00    0.74287   0.80776    0.010
 5657.00    0.74547   0.80609    0.010
 5658.00    0.67684   0.80622    0.010
 5659.00    0.61698   0.80664    0.010
 5660.00    0.60856   0.80823    0.010
 5661.00    0.61591   0.81136    0.010
 5662.00    0.69660   0.81524    0.010
 5663.00    0.77549   0.81899    0.010
 5664.00    0.84759   0.82270    0.010
 5665.00    0.90216   0.82652    0.010
 5666.00    0.90114   0.83068    0.010
 5667.00    0.88586   0.83489    0.010
 5668.00    0.83225   0.83874    0.009
 5669.00    0.78290   0.84273    0.009
 5670.00    0.74342   0.84658    0.009
 5671.00    0.73244   0.84976    0.009
 5672.00    0.77837   0.85211    0.010
 5673.00    0.82424   0.85339    0.010
 5674.00    0.87001   0.85366    0.009
 5675.00    0.90084   0.85264    0.009
 5676.00    0.90892   0.85037    0.010
 5677.00    0.92047   0.84742    0.010
 5678.00    0.93665   0.84382    0.009
 5679.00    0.95019   0.83996    0.009
 5680.00    0.96062   0.83607    0.009
 5681.00    0.97454   0.83289    0.009
 5682.00    0.99209   0.83071    0.009
 5683.00    0.98971   0.82929    0.009
 5684.00    0.96908   0.82877    0.009
 5685.00    0.91250   0.82945    0.009
 5686.00    0.82689   0.83137    0.009
 5687.00    0.78843   0.83379    0.009
 5688.00    0.78347   0.83670    0.009
 5689.00    0.75706   0.83916    0.009
 5690.00    0.71727   0.84123    0.009
 5691.00    0.76519   0.84240    0.009
 5692.00    0.86089   0.84219    0.009
 5693.00    0.88786   0.84106    0.009
 5694.00    0.88229   0.83815    0.009
 5695.00    0.90585   0.83460    0.010
 5696.00    0.94130   0.83015    0.010
 5697.00    0.98804   0.82509    0.010
 5698.00    1.03872   0.82031    0.010
 5699.00    1.03472   0.81490    0.010
 5700.00    1.01464   0.81004    0.010
 5701.00    0.94472   0.80568    0.010
 5702.00    0.86266   0.80091    0.010
 5703.00    0.85280   0.79704    0.010
 5704.00    0.85716   0.79352    0.010
 5705.00    0.85667   0.79069    0.010
 5706.00    0.85544   0.79007    0.009
 5707.00    0.81085   0.79015    0.009
 5708.00    0.76135   0.79215    0.010
 5709.00    0.82063   0.79650    0.009
 5710.00    0.88814   0.80166    0.009
 5711.00    0.90509   0.80884    0.009
 5712.00    0.91998   0.81672    0.009
 5713.00    0.93685   0.82429    0.009
 5714.00    0.95279   0.83231    0.009
 5715.00    0.93005   0.83960    0.009
 5716.00    0.90641   0.84590    0.009
 5717.00    0.86729   0.85145    0.009
 5718.00    0.83219   0.85556    0.009
 5719.00    0.83975   0.85849    0.009
 5720.00    0.84998   0.86042    0.009
 5721.00    0.88017   0.86119    0.009
 5722.00    0.90311   0.86088    0.009
 5723.00    0.88473   0.85969    0.009
 5724.00    0.85768   0.85818    0.009
 5725.00    0.79127   0.85659    0.009
 5726.00    0.73489   0.85533    0.009
 5727.00    0.71581   0.85408    0.009
 5728.00    0.70296   0.85308    0.009
 5729.00    0.70950   0.85281    0.009
 5730.00    0.71874   0.85300    0.009
 5731.00    0.73509   0.85381    0.009
 5732.00    0.75209   0.85439    0.010
 5733.00    0.77055   0.85473    0.009
 5734.00    0.80578   0.85515    0.009
 5735.00    0.87397   0.85532    0.010
 5736.00    0.90792   0.85550    0.010
 5737.00    0.88321   0.85548    0.010
 5738.00    0.83866   0.85504    0.009
 5739.00    0.76435   0.85445    0.009
 5740.00    0.72702   0.85396    0.000
 5741.00    0.73846   0.85339    0.000
 5742.00    0.78383   0.85283    0.000
 5743.00    0.86859   0.85177    0.000
 5744.00    0.94300   0.84990    0.000
 5745.00    1.00680   0.84807    0.000
 5746.00    1.02870   0.84613    0.000
 5747.00    1.01277   0.84428    0.000
 5748.00    0.96274   0.84236    0.000
 5749.00    0.88556   0.84018    0.000
 5750.00    0.86835   0.83832    0.000
 5751.00    0.89314   0.83733    0.000
 5752.00    0.87951   0.83702    0.000
 5753.00    0.84227   0.83698    0.000
 5754.00    0.87570   0.83716    0.000
 5755.00    0.94704   0.83712    0.000
 5756.00    0.93690   0.83723    0.000
 5757.00    0.88880   0.83752    0.000
 5758.00    0.89021   0.83782    0.000
 5759.00    0.91150   0.83852    0.000
 5760.00    0.90956   0.84008    0.000
 5761.00    0.89967   0.84203    0.000
 5762.00    0.83646   0.84462    0.000
 5763.00    0.75789   0.84738    0.000
 5764.00    0.77007   0.84991    0.000
 5765.00    0.80386   0.85227    0.000
 5766.00    0.85973   0.85389    0.000
 5767.00    0.91983   0.85474    0.000
 5768.00    0.90058   0.85442    0.000
 5769.00    0.86950   0.85344    0.000
 5770.00    0.84993   0.85141    0.000
 5771.00    0.83160   0.84860    0.000
 5772.00    0.75846   0.84525    0.000
 5773.00    0.68138   0.84092    0.000
 5774.00    0.74083   0.83622    0.000
 5775.00    0.80531   0.83062    0.000
 5776.00    0.82499   0.82408    0.000
 5777.00    0.84450   0.81737    0.000
 5778.00    0.86405   0.81111    0.000
 5779.00    0.88052   0.80568    0.000
 5780.00    0.84749   0.80168    0.000
 5781.00    0.81869   0.79869    0.000
 5782.00    0.83286   0.79763    0.000
 5783.00    0.85127   0.79884    0.000
 5784.00    0.90049   0.80141    0.000
 5785.00    0.95742   0.80593    0.000
 5786.00    1.05724   0.81067    0.000
 5787.00    1.11987   0.81562    0.000
 5788.00    1.01753   0.82108    0.000
 5789.00    0.92440   0.82586    0.000
 5790.00    0.86483   0.83105    0.000
 5791.00    0.83828   0.83558   -2.000
 5792.00    0.91255   0.83915   -2.000
 5793.00    0.98242   0.84244   -2.000
 5794.00    1.04087   0.84489   -2.000
 5795.00    1.04559   0.84749   -2.000
 5796.00    0.93043   0.84985   -2.000
 5797.00    0.84932   0.85156   -2.000
 5798.00    0.83411   0.85298   -2.000
 5799.00    0.85904   0.85339   -2.000
 5800.00    0.95171   0.85322   -2.000
 5801.00    0.99688   0.85290   -2.000
 5802.00    0.97186   0.85224   -2.000
 5803.00    0.97790   0.85164   -2.000
 5804.00    1.02432   0.85096   -2.000
 5805.00    1.04903   0.85014   -2.000
 5806.00    1.04888   0.84967   -2.000
 5807.00    1.00453   0.84927   -2.000
 5808.00    0.91555   0.84907   -2.000
 5809.00    0.86099   0.84924   -2.000
 5810.00    0.83707   0.84914   -2.000
 5811.00    0.82078   0.84909    0.000
 5812.00    0.81048   0.84914    0.000
 5813.00    0.83384   0.84962    0.000
 5814.00    0.88043   0.85091    0.000
 5815.00    0.90835   0.85237    0.000
 5816.00    0.92497   0.85431    0.000
 5817.00    0.91295   0.85623    0.000
 5818.00    0.88578   0.85808    0.000
 5819.00    0.87360   0.85995    0.000
 5820.00    0.86829   0.86153    0.000
 5821.00    0.86886   0.86302    0.000
 5822.00    0.87176   0.86385    0.000
 5823.00    0.85250   0.86434    0.000
 5824.00    0.82578   0.86448    0.000
 5825.00    0.81633   0.86438    0.000
 5826.00    0.81175   0.86408    0.000
 5827.00    0.82819   0.86348    0.000
 5828.00    0.84951   0.86277    0.000
 5829.00    0.84960   0.86169    0.000
 5830.00    0.84573   0.86052    0.000
 5831.00    0.85261   0.85944    0.000
 5832.00    0.86104   0.85875    0.000
 5833.00    0.92811   0.85828    0.000
 5834.00    1.00132   0.85781    0.000
 5835.00    1.01050   0.85785    0.000
 5836.00    1.01536   0.85811    0.000
 5837.00    0.96357   0.85853    0.000
 5838.00    0.90991   0.85875    0.000
 5839.00    0.91203   0.85860    0.000
 5840.00    0.91185   0.85792    0.000
 5841.00    0.83778   0.85641    0.000
 5842.00    0.76699   0.85422    0.000
 5843.00    0.74568   0.85118    0.000
 5844.00    0.73321   0.84762    0.000
 5845.00    0.80659   0.84365    0.000
 5846.00    0.87093   0.83934    0.000
 5847.00    0.87185   0.83473    0.000
 5848.00    0.87376   0.82964    0.000
 5849.00    0.88104   0.82450    0.000
 5850.00    0.89916   0.81992    0.000
 5851.00    0.96429   0.81584    0.000
 5852.00    0.99188   0.81220    0.000
 5853.00    0.88557   0.80871    0.000
 5854.00    0.82557   0.80614    0.000
 5855.00    0.90433   0.80509    0.000
 5856.00    0.97493   0.80493    0.000
 5857.00    1.02467   0.80607    0.000
 5858.00    1.04517   0.80739    0.000
 5859.00    1.00147   0.80949    0.000
 5860.00    0.96183   0.81213    0.000
 5861.00    0.92993   0.81494    0.000
 5862.00    0.88470   0.81787    0.000
 5863.00    0.81730   0.82043    0.000
 5864.00    0.80073   0.82320    0.000
 5865.00    0.85821   0.82564    0.000
 5866.00    0.90206   0.82793    0.000
 5867.00    0.92844   0.82969    0.000
 5868.00    0.95369   0.83090    0.000
 5869.00    0.97766   0.83135    0.000
 5870.00    0.99434   0.83132    0.000
 5871.00    1.00375   0.83078    0.000
 5872.00    0.96570   0.82928    0.000
 5873.00    0.88596   0.82713    0.000
 5874.00    0.85749   0.82407    0.000
 5875.00    0.86868   0.82045    0.000
 5876.00    0.87365   0.81603    0.000
 5877.00    0.87440   0.81111    0.000
 5878.00    0.89965   0.80541    0.000
 5879.00    0.93950   0.79798    0.000
 5880.00    0.90511   0.78880    0.000
 5881.00    0.83213   0.77801    0.000
 5882.00    0.78598   0.76589    0.000
 5883.00    0.75193   0.75198    0.000
 5884.00    0.71380   0.73630    0.000
 5885.00    0.67409   0.71928    0.000
 5886.00    0.66461   0.70230    0.000
 5887.00    0.66509   0.68881    0.000
 5888.00    0.69237   0.67858    0.000
 5889.00    0.72706   0.67112    0.000
 5890.00    0.73708   0.66736    0.000
 5891.00    0.74149   0.66581    0.000
 5892.00    0.78519   0.66798    0.000
 5893.00    0.83603   0.67566    0.000
 5894.00    0.84832   0.68674    0.000
 5895.00    0.85523   0.69980    0.000
 5896.00    0.89978   0.71361    0.000
 5897.00    0.94812   0.72775    0.000
 5898.00    0.94459   0.74197    0.000
 5899.00    0.93777   0.75527    0.000
 5900.00    0.87786   0.76793    0.000
 5901.00    0.81646   0.77874    0.008
 5902.00    0.77704   0.78709    0.008
 5903.00    0.73869   0.79373    0.008
 5904.00    0.73038   0.79875    0.008
 5905.00    0.72641   0.80211    0.009
 5906.00    0.78430   0.80418    0.009
 5907.00    0.83776   0.80530    0.009
 5908.00    0.84995   0.80559    0.009
 5909.00    0.86578   0.80506    0.009
 5910.00    0.90626   0.80385    0.009
 5911.00    0.94024   0.80307    0.009
 5912.00    0.93995   0.80220    0.009
 5913.00    0.94148   0.80196    0.009
 5914.00    0.95072   0.80231    0.009
 5915.00    0.94288   0.80283    0.009
 5916.00    0.87529   0.80414    0.009
 5917.00    0.81320   0.80536    0.009
 5918.00    0.76730   0.80679    0.009
 5919.00    0.73095   0.80833    0.009
 5920.00    0.71855   0.80973    0.009
 5921.00    0.72516   0.81068    0.009
 5922.00    0.77282   0.81137    0.009
 5923.00    0.80508   0.81140    0.008
 5924.00    0.80847   0.81100    0.008
 5925.00    0.81112   0.81035    0.008
 5926.00    0.81258   0.80930    0.008
 5927.00    0.82876   0.80912    0.008
 5928.00    0.86606   0.80883    0.008
 5929.00    0.87501   0.80855    0.008
 5930.00    0.84817   0.80817    0.008
 5931.00    0.82556   0.80784    0.008
 5932.00    0.80768   0.80853    0.008
 5933.00    0.80293   0.80902    0.008
 5934.00    0.81108   0.80965    0.008
 5935.00    0.81132   0.81046    0.008
 5936.00    0.80472   0.81073    0.008
 5937.00    0.79618   0.81059    0.008
 5938.00    0.78614   0.81062    0.008
 5939.00    0.77689   0.81093    0.008
 5940.00    0.76816   0.81109    0.008
 5941.00    0.77436   0.81101    0.008
 5942.00    0.78932   0.81067    0.009
 5943.00    0.82204   0.81009    0.009
 5944.00    0.86386   0.80892    0.009
 5945.00    0.84270   0.80765    0.009
 5946.00    0.79362   0.80682    0.009
 5947.00    0.76405   0.80596    0.009
 5948.00    0.74191   0.80464    0.009
 5949.00    0.73767   0.80323    0.009
 5950.00    0.73922   0.80269    0.009
 5951.00    0.71336   0.80259    0.009
 5952.00    0.68009   0.80245    0.009
 5953.00    0.65345   0.80296    0.009
 5954.00    0.62827   0.80415    0.009
 5955.00    0.65996   0.80576    0.009
 5956.00    0.70173   0.80780    0.009
 5957.00    0.72871   0.81009    0.008
 5958.00    0.75370   0.81261    0.008
 5959.00    0.72213   0.81464    0.008
 5960.00    0.68512   0.81671    0.008
 5961.00    0.73463   0.81859    0.008
 5962.00    0.78930   0.82005    0.008
 5963.00    0.85671   0.82180    0.008
 5964.00    0.92407   0.82297    0.008
 5965.00    0.93430   0.82383    0.008
 5966.00    0.94356   0.82431    0.008
 5967.00    0.92823   0.82439    0.008
 5968.00    0.91334   0.82396    0.008
 5969.00    0.90431   0.82292    0.008
 5970.00    0.89446   0.82142    0.008
 5971.00    0.87724   0.81924    0.008
 5972.00    0.87201   0.81644    0.008
 5973.00    0.94572   0.81358    0.008
 5974.00    1.00515   0.81087    0.008
 5975.00    0.99137   0.80827    0.008
 5976.00    0.96957   0.80610    0.008
 5977.00    0.91454   0.80399    0.008
 5978.00    0.86184   0.80202    0.008
 5979.00    0.81709   0.80030    0.009
 5980.00    0.78433   0.79869    0.009
 5981.00    0.78617   0.79814    0.009
 5982.00    0.77696   0.79839    0.009
 5983.00    0.74050   0.79880    0.008
 5984.00    0.71522   0.79976    0.008
 5985.00    0.71369   0.80097    0.008
 5986.00    0.72757   0.80258    0.008
 5987.00    0.76989   0.80404    0.009
 5988.00    0.80168   0.80557    0.009
 5989.00    0.81648   0.80750    0.008
 5990.00    0.83831   0.80861    0.008
 5991.00    0.87008   0.80902    0.008
 5992.00    0.89620   0.80883    0.008
 5993.00    0.91526   0.80801    0.008
 5994.00    0.90090   0.80688    0.008
 5995.00    0.84987   0.80560    0.008
 5996.00    0.80422   0.80425    0.008
 5997.00    0.76379   0.80272    0.008
 5998.00    0.77110   0.80083    0.008
 5999.00    0.81915   0.79881    0.008
 6000.00    0.83921   0.79727    0.008
 6001.00    0.83823   0.79571    0.008
 6002.00    0.82283   0.79404    0.008
 6003.00    0.79790   0.79266    0.008
 6004.00    0.78606   0.79114    0.008
 6005.00    0.78179   0.79032    0.008
 6006.00    0.78111   0.78993    0.008
 6007.00    0.78223   0.78952    0.008
 6008.00    0.79771   0.78912    0.008
 6009.00    0.81944   0.78828    0.008
 6010.00    0.86940   0.78784    0.008
 6011.00    0.92992   0.78750    0.009
 6012.00    0.95152   0.78688    0.009
 6013.00    0.96076   0.78640    0.009
 6014.00    0.97404   0.78594    0.009
 6015.00    0.98838   0.78541    0.009
 6016.00    0.97497   0.78489    0.009
 6017.00    0.95553   0.78531    0.009
 6018.00    0.91670   0.78622    0.009
 6019.00    0.87453   0.78779    0.009
 6020.00    0.85368   0.78955    0.009
 6021.00    0.83562   0.79227    0.009
 6022.00    0.83742   0.79549    0.008
 6023.00    0.84105   0.79838    0.008
 6024.00    0.83824   0.80217    0.008
 6025.00    0.83507   0.80573    0.008
 6026.00    0.80033   0.80934    0.008
 6027.00    0.76544   0.81238    0.008
 6028.00    0.78343   0.81533    0.008
 6029.00    0.80135   0.81797    0.008
 6030.00    0.81752   0.81983    0.008
 6031.00    0.83506   0.82144    0.008
 6032.00    0.87010   0.82263    0.008
 6033.00    0.90541   0.82339    0.008
 6034.00    0.94295   0.82372    0.008
 6035.00    0.97078   0.82397    0.008
 6036.00    0.93664   0.82395    0.008
 6037.00    0.90181   0.82419    0.008
 6038.00    0.86359   0.82429    0.008
 6039.00    0.82973   0.82482    0.008
 6040.00    0.81349   0.82553    0.008
 6041.00    0.80347   0.82617    0.009
 6042.00    0.81434   0.82694    0.009
 6043.00    0.81812   0.82742    0.009
 6044.00    0.80183   0.82793    0.009
 6045.00    0.79227   0.82781    0.009
 6046.00    0.79901   0.82755    0.009
 6047.00    0.83123   0.82675    0.009
 6048.00    0.91675   0.82532    0.009
 6049.00    0.97078   0.82356    0.009
 6050.00    0.96756   0.82145    0.008
 6051.00    0.93448   0.81952    0.008
 6052.00    0.85394   0.81719    0.008
 6053.00    0.78217   0.81549    0.008
 6054.00    0.72262   0.81382    0.008
 6055.00    0.69328   0.81246    0.008
 6056.00    0.70099   0.81125    0.008
 6057.00    0.71129   0.81009    0.008
 6058.00    0.72438   0.80933    0.008
 6059.00    0.72639   0.80834    0.008
 6060.00    0.71782   0.80819    0.008
 6061.00    0.70381   0.80824    0.008
 6062.00    0.68524   0.80921    0.008
 6063.00    0.68741   0.81112    0.008
 6064.00    0.70494   0.81326    0.008
 6065.00    0.70195   0.81588    0.008
 6066.00    0.68563   0.81851    0.008
 6067.00    0.69486   0.82124    0.008
 6068.00    0.71866   0.82342    0.008
 6069.00    0.77642   0.82498    0.008
 6070.00    0.85104   0.82583    0.008
 6071.00    0.88011   0.82542    0.008
 6072.00    0.88966   0.82372    0.008
 6073.00    0.86878   0.82117    0.008
 6074.00    0.83671   0.81794    0.008
 6075.00    0.82578   0.81422    0.008
 6076.00    0.82143   0.81059    0.008
 6077.00    0.82986   0.80694    0.008
 6078.00    0.84161   0.80349    0.008
 6079.00    0.84191   0.80062    0.008
 6080.00    0.83979   0.79836    0.008
 6081.00    0.83157   0.79651    0.008
 6082.00    0.82234   0.79519    0.008
 6083.00    0.78546   0.79448    0.008
 6084.00    0.74510   0.79393    0.008
 6085.00    0.73059   0.79347    0.008
 6086.00    0.71835   0.79324    0.008
 6087.00    0.75154   0.79341    0.008
 6088.00    0.78708   0.79373    0.008
 6089.00    0.80508   0.79416    0.008
 6090.00    0.82199   0.79473    0.008
 6091.00    0.78256   0.79547    0.008
 6092.00    0.74512   0.79581    0.008
 6093.00    0.75022   0.79579    0.008
 6094.00    0.75795   0.79549    0.008
 6095.00    0.79760   0.79485    0.008
 6096.00    0.83033   0.79341    0.008
 6097.00    0.80572   0.79154    0.008
 6098.00    0.78239   0.78982    0.008
 6099.00    0.76702   0.78798    0.008
 6100.00    0.74236   0.78736    0.008
 6101.00    0.67234   0.78716    0.008
 6102.00    0.61572   0.78773    0.008
 6103.00    0.61213   0.78904    0.008
 6104.00    0.61767   0.79078    0.008
 6105.00    0.65323   0.79293    0.008
 6106.00    0.68595   0.79518    0.008
 6107.00    0.71073   0.79773    0.008
 6108.00    0.72293   0.79983    0.008
 6109.00    0.70517   0.80119    0.008
 6110.00    0.70598   0.80170    0.008
 6111.00    0.74499   0.80139    0.008
 6112.00    0.77533   0.80031    0.008
 6113.00    0.79016   0.79846    0.008
 6114.00    0.81794   0.79585    0.008
 6115.00    0.86598   0.79270    0.008
 6116.00    0.89003   0.78914    0.008
 6117.00    0.88109   0.78605    0.008
 6118.00    0.84744   0.78320    0.008
 6119.00    0.78392   0.78102    0.008
 6120.00    0.74154   0.77992    0.008
 6121.00    0.72171   0.77937    0.008
 6122.00    0.70692   0.77947    0.008
 6123.00    0.69687   0.77995    0.008
 6124.00    0.68773   0.78088    0.008
 6125.00    0.67936   0.78171    0.008
 6126.00    0.66969   0.78230    0.008
 6127.00    0.65907   0.78255    0.008
 6128.00    0.66008   0.78134    0.008
 6129.00    0.66855   0.77915    0.008
 6130.00    0.68432   0.77604    0.008
 6131.00    0.70418   0.77206    0.008
 6132.00    0.74797   0.76850    0.008
 6133.00    0.80344   0.76541    0.008
 6134.00    0.81319   0.76355    0.008
 6135.00    0.80366   0.76273    0.008
 6136.00    0.78325   0.76307    0.009
 6137.00    0.75890   0.76487    0.009
 6138.00    0.75474   0.76752    0.009
 6139.00    0.75675   0.77123    0.008
 6140.00    0.77670   0.77507    0.008
 6141.00    0.80120   0.77895    0.008
 6142.00    0.84427   0.78241    0.008
 6143.00    0.89118   0.78477    0.008
 6144.00    0.90800   0.78602    0.008
 6145.00    0.91994   0.78638    0.008
 6146.00    0.88197   0.78618    0.008
 6147.00    0.83794   0.78543    0.008
 6148.00    0.80726   0.78373    0.008
 6149.00    0.77769   0.78148    0.008
 6150.00    0.74947   0.77867    0.008
 6151.00    0.72132   0.77511    0.008
 6152.00    0.71106   0.77099    0.008
 6153.00    0.70115   0.76605    0.008
 6154.00    0.69652   0.76037    0.008
 6155.00    0.69246   0.75368    0.008
 6156.00    0.69954   0.74668    0.008
 6157.00    0.70408   0.73969    0.008
 6158.00    0.67928   0.73334    0.008
 6159.00    0.65662   0.72829    0.008
 6160.00    0.65108   0.72427    0.008
 6161.00    0.65110   0.72188    0.008
 6162.00    0.68459   0.72072    0.008
 6163.00    0.71497   0.72060    0.008
 6164.00    0.73059   0.72156    0.008
 6165.00    0.73994   0.72369    0.008
 6166.00    0.72504   0.72684    0.008
 6167.00    0.71630   0.73039    0.008
 6168.00    0.72748   0.73438    0.008
 6169.00    0.73272   0.73824    0.008
 6170.00    0.72176   0.74218    0.008
 6171.00    0.70969   0.74604    0.008
 6172.00    0.69505   0.74979    0.008
 6173.00    0.68416   0.75340    0.008
 6174.00    0.68086   0.75679    0.008
 6175.00    0.68297   0.75998    0.008
 6176.00    0.69461   0.76234    0.008
 6177.00    0.71696   0.76416    0.008
 6178.00    0.75583   0.76517    0.007
 6179.00    0.77621   0.76544    0.007
 6180.00    0.77153   0.76457    0.007
 6181.00    0.74959   0.76303    0.008
 6182.00    0.70705   0.76070    0.008
 6183.00    0.66685   0.75768    0.008
 6184.00    0.62910   0.75452    0.008
 6185.00    0.63510   0.75086    0.008
 6186.00    0.68170   0.74783    0.008
 6187.00    0.73568   0.74572    0.008
 6188.00    0.79571   0.74436    0.008
 6189.00    0.79696   0.74412    0.008
 6190.00    0.75591   0.74465    0.008
 6191.00    0.72162   0.74625    0.008
 6192.00    0.69159   0.74825    0.008
 6193.00    0.70780   0.75045    0.008
 6194.00    0.74955   0.75266    0.008
 6195.00    0.92407   0.75504    0.008
 6196.00    1.16233   0.75761   -2.000
 6197.00    1.35176   0.75978   -2.000
 6198.00    1.52094   0.76169   -2.000
 6199.00    1.51313   0.76330   -2.000
 6200.00    1.44258   0.76472   -2.000
 6201.00    1.24761   0.76570   -2.000
 6202.00    1.01541   0.76616   -2.000
 6203.00    0.85884   0.76597   -2.000
 6204.00    0.72107   0.76503   -2.000
 6205.00    0.64039   0.76313   -2.000
 6206.00    0.57121   0.76033   -2.000
 6207.00    0.58320   0.75633   -2.000
 6208.00    0.60799   0.75163    0.008
 6209.00    0.64945   0.74662    0.008
 6210.00    0.69285   0.74149    0.008
 6211.00    0.72707   0.73685    0.008
 6212.00    0.76057   0.73267    0.008
 6213.00    0.74269   0.72902    0.008
 6214.00    0.72255   0.72623    0.008
 6215.00    0.68487   0.72454    0.008
 6216.00    0.64782   0.72372    0.008
 6217.00    0.64980   0.72365    0.008
 6218.00    0.65255   0.72392    0.008
 6219.00    0.66932   0.72460    0.008
 6220.00    0.68380   0.72539    0.008
 6221.00    0.67311   0.72587    0.008
 6222.00    0.66466   0.72600    0.008
 6223.00    0.67353   0.72552    0.008
 6224.00    0.68285   0.72454    0.008
 6225.00    0.69483   0.72330    0.008
 6226.00    0.70778   0.72263    0.008
 6227.00    0.72527   0.72172    0.008
 6228.00    0.73766   0.72163    0.008
 6229.00    0.73073   0.72182    0.008
 6230.00    0.72035   0.72234    0.008
 6231.00    0.69907   0.72305    0.008
 6232.00    0.68942   0.72363    0.008
 6233.00    0.71096   0.72408    0.007
 6234.00    0.72796   0.72381    0.007
 6235.00    0.73447   0.72350    0.008
 6236.00    0.74301   0.72249    0.008
 6237.00    0.75558   0.72078    0.008
 6238.00    0.76605   0.71912    0.008
 6239.00    0.77286   0.71744    0.008
 6240.00    0.79343   0.71589    0.008
 6241.00    0.83489   0.71491    0.008
 6242.00    0.87094   0.71450    0.008
 6243.00    0.89975   0.71436    0.008
 6244.00    0.90022   0.71432    0.008
 6245.00    0.86735   0.71431    0.008
 6246.00    0.83310   0.71353    0.008
 6247.00    0.79741   0.71259    0.008
 6248.00    0.77205   0.71105    0.008
 6249.00    0.75612   0.70908    0.008
 6250.00    0.73294   0.70674    0.008
 6251.00    0.70391   0.70432    0.008
 6252.00    0.70320   0.70226    0.008
 6253.00    0.72259   0.70076    0.008
 6254.00    0.72596   0.70070    0.008
 6255.00    0.71936   0.70117    0.008
 6256.00    0.70571   0.70313    0.008
 6257.00    0.68822   0.70595    0.008
 6258.00    0.75341   0.70955    0.008
 6259.00    0.85766   0.71339    0.008
 6260.00    0.95468   0.71744    0.009
 6261.00    1.04875   0.72159    0.009
 6262.00    1.07689   0.72513    0.010
 6263.00    1.08209   0.72840    0.010
 6264.00    0.97358   0.73101    0.010
 6265.00    0.83171   0.73337    0.010
 6266.00    0.78791   0.73517    0.009
 6267.00    0.76793   0.73674    0.009
 6268.00    0.75338   0.73785    0.008
 6269.00    0.73990   0.73883    0.008
 6270.00    0.71882   0.73960    0.008
 6271.00    0.69657   0.74011    0.008
 6272.00    0.74123   0.74039    0.008
 6273.00    0.79343   0.74045    0.008
 6274.00    0.81411   0.74027    0.008
 6275.00    0.83241   0.74011    0.008
 6276.00    0.78762   0.74025    0.008
 6277.00    0.74028   0.74037    0.008
 6278.00    0.69494   0.74111    0.008
 6279.00    0.65037   0.74188    0.008
 6280.00    0.63659   0.74325    0.000
 6281.00    0.62211   0.74483    0.000
 6282.00    0.59591   0.74656    0.000
 6283.00    0.57654   0.74820    0.000
 6284.00    0.62894   0.74945    0.000
 6285.00    0.68260   0.75030    0.000
 6286.00    0.74562   0.75053    0.000
 6287.00    0.79823   0.75019    0.000
 6288.00    0.79167   0.74906    0.000
 6289.00    0.78227   0.74737    0.000
 6290.00    0.76003   0.74502    0.000
 6291.00    0.74157   0.74239    0.000
 6292.00    0.73712   0.73966    0.000
 6293.00    0.73661   0.73699    0.000
 6294.00    0.74833   0.73446    0.000
 6295.00    0.75495   0.73230    0.000
 6296.00    0.74815   0.73069    0.000
 6297.00    0.74922   0.72985    0.000
 6298.00    0.76812   0.72971    0.000
 6299.00    0.77254   0.73027    0.000
 6300.00    0.74856   0.73137    0.000
 6301.00    0.72016   0.73308    0.000
 6302.00    0.68424   0.73490    0.000
 6303.00    0.67431   0.73680    0.000
 6304.00    0.70332   0.73834    0.000
 6305.00    0.73178   0.73943    0.000
 6306.00    0.75952   0.73983    0.000
 6307.00    0.78144   0.73944    0.000
 6308.00    0.79661   0.73845    0.000
 6309.00    0.80379   0.73665    0.000
 6310.00    0.80280   0.73447    0.000
 6311.00    0.79506   0.73213    0.000
 6312.00    0.78122   0.72984    0.000
 6313.00    0.74980   0.72805    0.000
 6314.00    0.70442   0.72684    0.000
 6315.00    0.67494   0.72643    0.000
 6316.00    0.65658   0.72696    0.000
 6317.00    0.66960   0.72821    0.000
 6318.00    0.70186   0.73048    0.000
 6319.00    0.74167   0.73299    0.000
 6320.00    0.78551   0.73606    0.000
 6321.00    0.82698   0.73906    0.007
 6322.00    0.86734   0.74200    0.008
 6323.00    0.89183   0.74455    0.008
 6324.00    0.90997   0.74649    0.008
 6325.00    0.86587   0.74800    0.008
 6326.00    0.80052   0.74860    0.008
 6327.00    0.77639   0.74844    0.008
 6328.00    0.76413   0.74756    0.008
 6329.00    0.78508   0.74616    0.008
 6330.00    0.81392   0.74444    0.008
 6331.00    0.84225   0.74240    0.007
 6332.00    0.87049   0.74055    0.007
 6333.00    0.85710   0.73871    0.007
 6334.00    0.83754   0.73725    0.008
 6335.00    0.82775   0.73613    0.007
 6336.00    0.81902   0.73524    0.007
 6337.00    0.81779   0.73506    0.007
 6338.00    0.81709   0.73501    0.007
 6339.00    0.80215   0.73546    0.007
 6340.00    0.78669   0.73601    0.007
 6341.00    0.77318   0.73690    0.007
 6342.00    0.75963   0.73795    0.007
 6343.00    0.74413   0.73910    0.007
 6344.00    0.72949   0.74017    0.007
 6345.00    0.72852   0.74101    0.008
 6346.00    0.72782   0.74156    0.008
 6347.00    0.72996   0.74146    0.007
 6348.00    0.73109   0.74086    0.007
 6349.00    0.72498   0.73948    0.007
 6350.00    0.72695   0.73730    0.007
 6351.00    0.77362   0.73440    0.008
 6352.00    0.81281   0.73090    0.008
 6353.00    0.81896   0.72696    0.008
 6354.00    0.82575   0.72289    0.008
 6355.00    0.83488   0.71901    0.008
 6356.00    0.83996   0.71565    0.008
 6357.00    0.83274   0.71311    0.008
 6358.00    0.81632   0.71156    0.008
 6359.00    0.77605   0.71117    0.008
 6360.00    0.75220   0.71206    0.008
 6361.00    0.76491   0.71410    0.008
 6362.00    0.77290   0.71718    0.008
 6363.00    0.77175   0.72098    0.008
 6364.00    0.76895   0.72543    0.008
 6365.00    0.76335   0.73019    0.008
 6366.00    0.76669   0.73486    0.008
 6367.00    0.78319   0.73924    0.007
 6368.00    0.78556   0.74316    0.008
 6369.00    0.76958   0.74654    0.008
 6370.00    0.76158   0.74906    0.008
 6371.00    0.76268   0.75092    0.008
 6372.00    0.77649   0.75206    0.008
 6373.00    0.80312   0.75258    0.008
 6374.00    0.81975   0.75266    0.008
 6375.00    0.82748   0.75233    0.008
 6376.00    0.82776   0.75179    0.008
 6377.00    0.82220   0.75120    0.008
 6378.00    0.81792   0.75073    0.008
 6379.00    0.81452   0.75032    0.008
 6380.00    0.79190   0.75002    0.008
 6381.00    0.75768   0.74981    0.008
 6382.00    0.73742   0.74965    0.008
 6383.00    0.72451   0.74931    0.007
 6384.00    0.75755   0.74877    0.007
 6385.00    0.81160   0.74782    0.007
 6386.00    0.81510   0.74672    0.007
 6387.00    0.79870   0.74540    0.007
 6388.00    0.77790   0.74389    0.007
 6389.00    0.75561   0.74227    0.007
 6390.00    0.78048   0.74060    0.007
 6391.00    0.81863   0.73919    0.007
 6392.00    0.84505   0.73778    0.007
 6393.00    0.86874   0.73709    0.007
 6394.00    0.82860   0.73668    0.008
 6395.00    0.77655   0.73671    0.008
 6396.00    0.75723   0.73706    0.008
 6397.00    0.74261   0.73764    0.008
 6398.00    0.80318   0.73849    0.008
 6399.00    0.87157   0.73935    0.008
 6400.00    0.89880   0.74032    0.008
 6401.00    0.92328   0.74108    0.008
 6402.00    0.91122   0.74164    0.008
 6403.00    0.89798   0.74174    0.008
 6404.00    0.85958   0.74158    0.008
 6405.00    0.82113   0.74117    0.008
 6406.00    0.78128   0.74063    0.008
 6407.00    0.74511   0.74003    0.008
 6408.00    0.76413   0.73939    0.007
 6409.00    0.78400   0.73877    0.007
 6410.00    0.81202   0.73824    0.007
 6411.00    0.83405   0.73777    0.007
 6412.00    0.81421   0.73742    0.007
 6413.00    0.79605   0.73722    0.007
 6414.00    0.78689   0.73717    0.007
 6415.00    0.77256   0.73741    0.007
 6416.00    0.73589   0.73769    0.007
 6417.00    0.70072   0.73836    0.007
 6418.00    0.67092   0.73925    0.007
 6419.00    0.65695   0.74045    0.007
 6420.00    0.69032   0.74169    0.007
 6421.00    0.72768   0.74295    0.007
 6422.00    0.77516   0.74403    0.007
 6423.00    0.80766   0.74476    0.008
 6424.00    0.80730   0.74523    0.008
 6425.00    0.80110   0.74520    0.008
 6426.00    0.78380   0.74491    0.008
 6427.00    0.75648   0.74431    0.008
 6428.00    0.71257   0.74363    0.008
 6429.00    0.69710   0.74294    0.008
 6430.00    0.72300   0.74243    0.008
 6431.00    0.73202   0.74223    0.008
 6432.00    0.71947   0.74234    0.008
 6433.00    0.71461   0.74283    0.008
 6434.00    0.71843   0.74358    0.007
 6435.00    0.72284   0.74464    0.007
 6436.00    0.72784   0.74586    0.007
 6437.00    0.74570   0.74723    0.007
 6438.00    0.77483   0.74847    0.007
 6439.00    0.79102   0.74936    0.007
 6440.00    0.79722   0.74972    0.007
 6441.00    0.78246   0.74953    0.007
 6442.00    0.75346   0.74856    0.007
 6443.00    0.72529   0.74699    0.007
 6444.00    0.69761   0.74478    0.007
 6445.00    0.69759   0.74229    0.007
 6446.00    0.71193   0.73973    0.007
 6447.00    0.72899   0.73750    0.008
 6448.00    0.74727   0.73587    0.008
 6449.00    0.73849   0.73489    0.008
 6450.00    0.71923   0.73475    0.008
 6451.00    0.68266   0.73519    0.008
 6452.00    0.64039   0.73613    0.008
 6453.00    0.63368   0.73724    0.008
 6454.00    0.63678   0.73860    0.007
 6455.00    0.67272   0.73966    0.008
 6456.00    0.71610   0.74062    0.008
 6457.00    0.68638   0.74116    0.008
 6458.00    0.64341   0.74162    0.008
 6459.00    0.65591   0.74177    0.007
 6460.00    0.67612   0.74200    0.007
 6461.00    0.70594   0.74218    0.007
 6462.00    0.73671   0.74258    0.007
 6463.00    0.69900   0.74314    0.007
 6464.00    0.65696   0.74373    0.007
 6465.00    0.64089   0.74442    0.007
 6466.00    0.62572   0.74490    0.007
 6467.00    0.65725   0.74546    0.007
 6468.00    0.68895   0.74562    0.007
 6469.00    0.72544   0.74580    0.007
 6470.00    0.75782   0.74559    0.007
 6471.00    0.73197   0.74529    0.007
 6472.00    0.70769   0.74466    0.008
 6473.00    0.69782   0.74381    0.008
 6474.00    0.68911   0.74279    0.008
 6475.00    0.68815   0.74152    0.008
 6476.00    0.68679   0.74017    0.008
 6477.00    0.68331   0.73862    0.007
 6478.00    0.68451   0.73714    0.007
 6479.00    0.70551   0.73557    0.008
 6480.00    0.72265   0.73406    0.008
 6481.00    0.72636   0.73242    0.008
 6482.00    0.72603   0.73056    0.008
 6483.00    0.71389   0.72828    0.007
 6484.00    0.72027   0.72533    0.007
 6485.00    0.77297   0.72161    0.007
 6486.00    0.81405   0.71698    0.007
 6487.00    0.83008   0.71151    0.007
 6488.00    0.82703   0.70542    0.007
 6489.00    0.78827   0.69896    0.007
 6490.00    0.75675   0.69279    0.007
 6491.00    0.73707   0.68725    0.007
 6492.00    0.70839   0.68301    0.007
 6493.00    0.66679   0.68030    0.007
 6494.00    0.61914   0.67955    0.007
 6495.00    0.56385   0.68073    0.007
 6496.00    0.53056   0.68367    0.007
 6497.00    0.52170   0.68819    0.007
 6498.00    0.54035   0.69365    0.007
 6499.00    0.58595   0.69988    0.008
 6500.00    0.62663   0.70607    0.008
 6501.00    0.66307   0.71212    0.008
 6502.00    0.66451   0.71746    0.008
 6503.00    0.63933   0.72213    0.008
 6504.00    0.68796   0.72582    0.008
 6505.00    0.78598   0.72863    0.008
 6506.00    0.84845   0.73053    0.007
 6507.00    0.89009   0.73164    0.007
 6508.00    0.88837   0.73213    0.007
 6509.00    0.86452   0.73204    0.007
 6510.00    0.82608   0.73159    0.007
 6511.00    0.78119   0.73086    0.007
 6512.00    0.78212   0.73009    0.007
 6513.00    0.80045   0.72933    0.007
 6514.00    0.81043   0.72879    0.007
 6515.00    0.81771   0.72845    0.007
 6516.00    0.81707   0.72847    0.007
 6517.00    0.81430   0.72874    0.007
 6518.00    0.79566   0.72925    0.007
 6519.00    0.77350   0.72985    0.007
 6520.00    0.77965   0.73045    0.007
 6521.00    0.79078   0.73097    0.007
 6522.00    0.79846   0.73132    0.008
 6523.00    0.80567   0.73150    0.008
 6524.00    0.78862   0.73148    0.008
 6525.00    0.76926   0.73134    0.008
 6526.00    0.71091   0.73112    0.008
 6527.00    0.65026   0.73095    0.008
 6528.00    0.64609   0.73086    0.000
 6529.00    0.64351   0.73088    0.000
 6530.00    0.66476   0.73105    0.000
 6531.00    0.68568   0.73132    0.000
 6532.00    0.69837   0.73165    0.000
 6533.00    0.71246   0.73190    0.000
 6534.00    0.74534   0.73198    0.000
 6535.00    0.77634   0.73176    0.000
 6536.00    0.79071   0.73111    0.000
 6537.00    0.80444   0.73000    0.000
 6538.00    0.81407   0.72833    0.000
 6539.00    0.82281   0.72621    0.000
 6540.00    0.82696   0.72363    0.000
 6541.00    0.82627   0.72076    0.000
 6542.00    0.80560   0.71768    0.000
 6543.00    0.78726   0.71447    0.000
 6544.00    0.77692   0.71123    0.000
 6545.00    0.78344   0.70789    0.000
 6546.00    0.83848   0.70451    0.000
 6547.00    0.88863   0.70084    0.000
 6548.00    0.92679   0.69685    0.000
 6549.00    0.94575   0.69230    0.000
 6550.00    0.92401   0.68714    0.000
 6551.00    0.89723   0.68122    0.000
 6552.00    0.86118   0.67452    0.000
 6553.00    0.83264   0.66706    0.000
 6554.00    0.81621   0.65906    0.000
 6555.00    0.79770   0.65076    0.000
 6556.00    0.77626   0.64271    0.000
 6557.00    0.75671   0.63530    0.000
 6558.00    0.73951   0.62927    0.000
 6559.00    0.75134   0.62500    0.000
 6560.00    0.79494   0.62296    0.000
 6561.00    0.89925   0.62331    0.000
 6562.00    1.06221   0.62598    0.000
 6563.00    1.20466   0.63065    0.000
 6564.00    1.32964   0.63676    0.000
 6565.00    1.34696   0.64380    0.000
 6566.00    1.28352   0.65109    0.000
 6567.00    1.19314   0.65824    0.000
 6568.00    1.08501   0.66485    0.000
 6569.00    1.00615   0.67080    0.000
 6570.00    0.94417   0.67605    0.000
 6571.00    0.90118   0.68069    0.000
 6572.00    0.86774   0.68484    0.000
 6573.00    0.86590   0.68865    0.000
 6574.00    0.87781   0.69214    0.000
 6575.00    0.84436   0.69538    0.000
 6576.00    0.79398   0.69831    0.000
 6577.00    0.75001   0.70099    0.000
 6578.00    0.70808   0.70331    0.000
 6579.00    0.72096   0.70531    0.000
 6580.00    0.74832   0.70688    0.000
 6581.00    0.77915   0.70805    0.000
 6582.00    0.81073   0.70872    0.000
 6583.00    0.86307   0.70891    0.000
 6584.00    0.91897   0.70859    0.000
 6585.00    0.96613   0.70778    0.000
 6586.00    1.01216   0.70656    0.000
 6587.00    0.98092   0.70502    0.000
 6588.00    0.94263   0.70336    0.000
 6589.00    0.89632   0.70177    0.000
 6590.00    0.84958   0.70045    0.000
 6591.00    0.82956   0.69957    0.000
 6592.00    0.81018   0.69923    0.000
 6593.00    0.79775   0.69948    0.000
 6594.00    0.78668   0.70023    0.000
 6595.00    0.80652   0.70135    0.000
 6596.00    0.82692   0.70265    0.000
 6597.00    0.85421   0.70392    0.000
 6598.00    0.87228   0.70500    0.000
 6599.00    0.81124   0.70571    0.000
 6600.00    0.75293   0.70603    0.000
 6601.00    0.71200   0.70596    0.000
 6602.00    0.68334   0.70563    0.000
 6603.00    0.71581   0.70518    0.000
 6604.00    0.74889   0.70478    0.000
 6605.00    0.78445   0.70464    0.000
 6606.00    0.80957   0.70482    0.000
 6607.00    0.79974   0.70549    0.000
 6608.00    0.78096   0.70653    0.000
 6609.00    0.73688   0.70800    0.007
 6610.00    0.70264   0.70968    0.007
 6611.00    0.69220   0.71148    0.007
 6612.00    0.68984   0.71318    0.007
 6613.00    0.70435   0.71466    0.007
 6614.00    0.72749   0.71579    0.007
 6615.00    0.76631   0.71643    0.007
 6616.00    0.78835   0.71660    0.007
 6617.00    0.78377   0.71623    0.007
 6618.00    0.75703   0.71540    0.007
 6619.00    0.69945   0.71412    0.007
 6620.00    0.67064   0.71254    0.007
 6621.00    0.67707   0.71070    0.007
 6622.00    0.70696   0.70872    0.007
 6623.00    0.76219   0.70670    0.007
 6624.00    0.79157   0.70466    0.007
 6625.00    0.79633   0.70273    0.007
 6626.00    0.78689   0.70088    0.007
 6627.00    0.76552   0.69925    0.007
 6628.00    0.76055   0.69781    0.007
 6629.00    0.76772   0.69669    0.007
 6630.00    0.78641   0.69588    0.007
 6631.00    0.81260   0.69542    0.007
 6632.00    0.80532   0.69529    0.007
 6633.00    0.77902   0.69545    0.007
 6634.00    0.75173   0.69584    0.007
 6635.00    0.72395   0.69633    0.007
 6636.00    0.70862   0.69689    0.007
 6637.00    0.69862   0.69740    0.007
 6638.00    0.68212   0.69786    0.007
 6639.00    0.66323   0.69821    0.007
 6640.00    0.66528   0.69851    0.007
 6641.00    0.67381   0.69875    0.007
 6642.00    0.69561   0.69899    0.007
 6643.00    0.72084   0.69924    0.007
 6644.00    0.73307   0.69951    0.007
 6645.00    0.74255   0.69979    0.007
 6646.00    0.69325   0.70005    0.007
 6647.00    0.63416   0.70025    0.007
 6648.00    0.60647   0.70035    0.007
 6649.00    0.58272   0.70028    0.007
 6650.00    0.62344   0.70004    0.007
 6651.00    0.66977   0.69956    0.007
 6652.00    0.68383   0.69884    0.007
 6653.00    0.69624   0.69784    0.007
 6654.00    0.70786   0.69662    0.007
 6655.00    0.71914   0.69514    0.007
 6656.00    0.70732   0.69352    0.007
 6657.00    0.69458   0.69182    0.007
 6658.00    0.66242   0.69018    0.007
 6659.00    0.63292   0.68871    0.007
 6660.00    0.63562   0.68753    0.007
 6661.00    0.63927   0.68676    0.007
 6662.00    0.65085   0.68643    0.007
 6663.00    0.66206   0.68658    0.007
 6664.00    0.67107   0.68712    0.007
 6665.00    0.67504   0.68796    0.007
 6666.00    0.65455   0.68890    0.008
 6667.00    0.63697   0.68981    0.008
 6668.00    0.63095   0.69050    0.008
 6669.00    0.63899   0.69084    0.007
 6670.00    0.69326   0.69078    0.007
 6671.00    0.73819   0.69031    0.007
 6672.00    0.75717   0.68953    0.007
 6673.00    0.75747   0.68857    0.007
 6674.00    0.71333   0.68761    0.007
 6675.00    0.68236   0.68681    0.007
 6676.00    0.67843   0.68634    0.007
 6677.00    0.67302   0.68626    0.007
 6678.00    0.66498   0.68663    0.007
 6679.00    0.65417   0.68736    0.007
 6680.00    0.63903   0.68838    0.007
 6681.00    0.63507   0.68955    0.007
 6682.00    0.64644   0.69072    0.007
 6683.00    0.64732   0.69178    0.007
 6684.00    0.63552   0.69258    0.007
 6685.00    0.64211   0.69307    0.007
 6686.00    0.66829   0.69321    0.007
 6687.00    0.68652   0.69299    0.007
 6688.00    0.69730   0.69246    0.007
 6689.00    0.68938   0.69164    0.007
 6690.00    0.66599   0.69065    0.007
 6691.00    0.64830   0.68954    0.007
 6692.00    0.63475   0.68844    0.007
 6693.00    0.62955   0.68740    0.007
 6694.00    0.62968   0.68654    0.007
 6695.00    0.62820   0.68583    0.007
 6696.00    0.62581   0.68534    0.000
 6697.00    0.65932   0.68500    0.000
 6698.00    0.71030   0.68479    0.000
 6699.00    0.73853   0.68465    0.000
 6700.00    0.75719   0.68449    0.000
 6701.00    0.73493   0.68427    0.000
 6702.00    0.69793   0.68390    0.000
 6703.00    0.70048   0.68335    0.000
 6704.00    0.71506   0.68256    0.000
 6705.00    0.71587   0.68151    0.000
 6706.00    0.71321   0.68017    0.000
 6707.00    0.68196   0.67857    0.000
 6708.00    0.64483   0.67676    0.000
 6709.00    0.67220   0.67482    0.000
 6710.00    0.71001   0.67287    0.000
 6711.00    0.72196   0.67106    0.000
 6712.00    0.73079   0.66950    0.000
 6713.00    0.74833   0.66836    0.000
 6714.00    0.76659   0.66771    0.000
 6715.00    0.82689   0.66761    0.000
 6716.00    0.88918   0.66804    0.000
 6717.00    0.87889   0.66893    0.000
 6718.00    0.86773   0.67020    0.000
 6719.00    0.86572   0.67167    0.000
 6720.00    0.86316   0.67330    0.000
 6721.00    0.85002   0.67487    0.000
 6722.00    0.83448   0.67638    0.000
 6723.00    0.79152   0.67769    0.000
 6724.00    0.75350   0.67884    0.000
 6725.00    0.75490   0.67974    0.000
 6726.00    0.75234   0.68043    0.000
 6727.00    0.72609   0.68085    0.000
 6728.00    0.70601   0.68103    0.000
 6729.00    0.71525   0.68096    0.000
 6730.00    0.73328   0.68063    0.000
 6731.00    0.78529   0.68008    0.000
 6732.00    0.82231   0.67929    0.000
 6733.00    0.81104   0.67834    0.000
 6734.00    0.78735   0.67723    0.000
 6735.00    0.72979   0.67606    0.000
 6736.00    0.68075   0.67484    0.000
 6737.00    0.65158   0.67365    0.000
 6738.00    0.62787   0.67251    0.000
 6739.00    0.61517   0.67144    0.000
 6740.00    0.60929   0.67047    0.000
 6741.00    0.61539   0.66959    0.000
 6742.00    0.61255   0.66884    0.000
 6743.00    0.59597   0.66820    0.000
 6744.00    0.57601   0.66774    0.000
 6745.00    0.55147   0.66746    0.000
 6746.00    0.54447   0.66743    0.000
 6747.00    0.55834   0.66768    0.000
 6748.00    0.58883   0.66824    0.000
 6749.00    0.63676   0.66914    0.000
 6750.00    0.65194   0.67035    0.000
 6751.00    0.63679   0.67184    0.000
 6752.00    0.63586   0.67350    0.000
 6753.00    0.64655   0.67527    0.008
 6754.00    0.65958   0.67698    0.008
 6755.00    0.67431   0.67854    0.009
 6756.00    0.70094   0.67979    0.009
 6757.00    0.73507   0.68068    0.009
 6758.00    0.73623   0.68112    0.009
 6759.00    0.71921   0.68112    0.009
 6760.00    0.73869   0.68072    0.009
 6761.00    0.77565   0.68000    0.009
 6762.00    0.80471   0.67909    0.009
 6763.00    0.83050   0.67811    0.009
 6764.00    0.82190   0.67724    0.009
 6765.00    0.80114   0.67657    0.009
 6766.00    0.75402   0.67626    0.008
 6767.00    0.69902   0.67631    0.008
 6768.00    0.68207   0.67677    0.008
 6769.00    0.67454   0.67754    0.008
 6770.00    0.64136   0.67854    0.008
 6771.00    0.60303   0.67961    0.008
 6772.00    0.57855   0.68060    0.008
 6773.00    0.55626   0.68133    0.008
 6774.00    0.55787   0.68169    0.008
 6775.00    0.56227   0.68157    0.008
 6776.00    0.58090   0.68097    0.008
 6777.00    0.60066   0.67990    0.008
 6778.00    0.62320   0.67848    0.008
 6779.00    0.64587   0.67683    0.008
 6780.00    0.69982   0.67513    0.008
 6781.00    0.75180   0.67353    0.008
 6782.00    0.69664   0.67217    0.008
 6783.00    0.64635   0.67113    0.008
 6784.00    0.68420   0.67044    0.008
 6785.00    0.72265   0.67009    0.008
 6786.00    0.76766   0.67001    0.008
 6787.00    0.80100   0.67015    0.008
 6788.00    0.74456   0.67041    0.008
 6789.00    0.69799   0.67074    0.008
 6790.00    0.70900   0.67111    0.008
 6791.00    0.71099   0.67147    0.008
 6792.00    0.67124   0.67186    0.008
 6793.00    0.64775   0.67225    0.008
 6794.00    0.68575   0.67267    0.008
 6795.00    0.71867   0.67308    0.008
 6796.00    0.73553   0.67350    0.008
 6797.00    0.73796   0.67388    0.008
 6798.00    0.70170   0.67419    0.008
 6799.00    0.67488   0.67442    0.008
 6800.00    0.66971   0.67453    0.008
 6801.00    0.67921   0.67454    0.008
 6802.00    0.71788   0.67443    0.008
 6803.00    0.71145   0.67425    0.008
 6804.00    0.62686   0.67400    0.008
 6805.00    0.57118   0.67374    0.008
 6806.00    0.55935   0.67348    0.008
 6807.00    0.56298   0.67326    0.008
 6808.00    0.58719   0.67312    0.008
 6809.00    0.63631   0.67306    0.008
 6810.00    0.71466   0.67312    0.008
 6811.00    0.74912   0.67328    0.008
 6812.00    0.73815   0.67358    0.008
 6813.00    0.70126   0.67396    0.008
 6814.00    0.64069   0.67447    0.008
 6815.00    0.62122   0.67501    0.008
 6816.00    0.63483   0.67563    0.008
 6817.00    0.67196   0.67620    0.008
 6818.00    0.72575   0.67677    0.008
 6819.00    0.71963   0.67721    0.008
 6820.00    0.67628   0.67758    0.008
 6821.00    0.64571   0.67778    0.008
 6822.00    0.62208   0.67787    0.008
 6823.00    0.62701   0.67779    0.008
 6824.00    0.64540   0.67763    0.008
 6825.00    0.68823   0.67734    0.008
 6826.00    0.74100   0.67699    0.008
 6827.00    0.75323   0.67652    0.008
 6828.00    0.75139   0.67594    0.008
 6829.00    0.74304   0.67522    0.008
 6830.00    0.73278   0.67429    0.008
 6831.00    0.70293   0.67316    0.008
 6832.00    0.66833   0.67178    0.008
 6833.00    0.66706   0.67024    0.008
 6834.00    0.67231   0.66853    0.008
 6835.00    0.69484   0.66684    0.008
 6836.00    0.72001   0.66524    0.008
 6837.00    0.70514   0.66393    0.008
 6838.00    0.68579   0.66296    0.008
 6839.00    0.73343   0.66247    0.008
 6840.00    0.78609   0.66243    0.008
 6841.00    0.71144   0.66283    0.008
 6842.00    0.63175   0.66352    0.008
 6843.00    0.62065   0.66440    0.008
 6844.00    0.61316   0.66527    0.008
 6845.00    0.73041   0.66598    0.008
 6846.00    0.83801   0.66640    0.008
 6847.00    0.78252   0.66645    0.008
 6848.00    0.72547   0.66611    0.008
 6849.00    0.65213   0.66539    0.008
 6850.00    0.58916   0.66438    0.008
 6851.00    0.60319   0.66318    0.008
 6852.00    0.61926   0.66190    0.008
 6853.00    0.64689   0.66067    0.008
 6854.00    0.66201   0.65959    0.008
 6855.00    0.62070   0.65873    0.008
 6856.00    0.59077   0.65812    0.008
 6857.00    0.60301   0.65777    0.008
 6858.00    0.63137   0.65763    0.008
 6859.00    0.70963   0.65767    0.008
 6860.00    0.75402   0.65780    0.008
 6861.00    0.70930   0.65799    0.008
 6862.00    0.65734   0.65814    0.008
 6863.00    0.58903   0.65826    0.008
 6864.00    0.54301   0.65832    0.008
 6865.00    0.54065   0.65837    0.008
 6866.00    0.52842   0.65840    0.008
 6867.00    0.49936   0.65850    0.008
 6868.00    0.48223   0.65866    0.008
 6869.00    0.48295   0.65894    0.008
 6870.00    0.50332   0.65930    0.008
 6871.00    0.54951   0.65978    0.008
 6872.00    0.59169   0.66029    0.008
 6873.00    0.62921   0.66085    0.008
 6874.00    0.64462   0.66138    0.008
 6875.00    0.63746   0.66190    0.008
 6876.00    0.60346   0.66238    0.008
 6877.00    0.54530   0.66286    0.008
 6878.00    0.57572   0.66338    0.008
 6879.00    0.67639   0.66398    0.008
 6880.00    0.71615   0.66473    0.008
 6881.00    0.71339   0.66564    0.008
 6882.00    0.68187   0.66673    0.008
 6883.00    0.63275   0.66798    0.008
 6884.00    0.63095   0.66933    0.008
 6885.00    0.65444   0.67072    0.008
 6886.00    0.70755   0.67204    0.008
 6887.00    0.77441   0.67327    0.008
 6888.00    0.75897   0.67427    0.008
 6889.00    0.71064   0.67511    0.008
 6890.00    0.69612   0.67569    0.008
 6891.00    0.69313   0.67612    0.008
 6892.00    0.63112   0.67636    0.008
 6893.00    0.55219   0.67655    0.008
 6894.00    0.58874   0.67667    0.008
 6895.00    0.65264   0.67683    0.008
 6896.00    0.66250   0.67703    0.008
 6897.00    0.66207   0.67728    0.008
 6898.00    0.68528   0.67760    0.008
 6899.00    0.71198   0.67793    0.008
 6900.00    0.64434   0.67829    0.008
 6901.00    0.56652   0.67856    0.008
 6902.00    0.61027   0.67876    0.008
 6903.00    0.66260   0.67876    0.008
 6904.00    0.67817   0.67861    0.008
 6905.00    0.69243   0.67820    0.008
 6906.00    0.67236   0.67762    0.008
 6907.00    0.65370   0.67682    0.008
 6908.00    0.68746   0.67590    0.008
 6909.00    0.71917   0.67492    0.008
 6910.00    0.71850   0.67394    0.008
 6911.00    0.71529   0.67307    0.008
 6912.00    0.68681   0.67229    0.008
 6913.00    0.66596   0.67171    0.008
 6914.00    0.70001   0.67123    0.008
 6915.00    0.72541   0.67091    0.008
 6916.00    0.70308   0.67063    0.008
 6917.00    0.68003   0.67037    0.008
 6918.00    0.65375   0.67008    0.008
 6919.00    0.63104   0.66973    0.008
 6920.00    0.62130   0.66934    0.008
 6921.00    0.61233   0.66891    0.008
 6922.00    0.60572   0.66852    0.008
 6923.00    0.58849   0.66817    0.008
 6924.00    0.54379   0.66794    0.008
 6925.00    0.53129   0.66784    0.008
 6926.00    0.59033   0.66788    0.008
 6927.00    0.64831   0.66806    0.008
 6928.00    0.70421   0.66836    0.008
 6929.00    0.72342   0.66873    0.008
 6930.00    0.68092   0.66919    0.008
 6931.00    0.66031   0.66962    0.008
 6932.00    0.67193   0.67008    0.008
 6933.00    0.66799   0.67041    0.008
 6934.00    0.64393   0.67068    0.008
 6935.00    0.61729   0.67074    0.008
 6936.00    0.58772   0.67067    0.008
 6937.00    0.59444   0.67038    0.008
 6938.00    0.63769   0.66994    0.008
 6939.00    0.66858   0.66935    0.008
 6940.00    0.68850   0.66867    0.008
 6941.00    0.66129   0.66796    0.008
 6942.00    0.59721   0.66727    0.008
 6943.00    0.57846   0.66666    0.008
 6944.00    0.59087   0.66616    0.008
 6945.00    0.58442   0.66579    0.008
 6946.00    0.56660   0.66560    0.008
 6947.00    0.58850   0.66552    0.008
 6948.00    0.63129   0.66566    0.008
 6949.00    0.59342   0.66591    0.008
 6950.00    0.51874   0.66642    0.008
 6951.00    0.51763   0.66700    0.008
 6952.00    0.54542   0.66786    0.008
 6953.00    0.50297   0.66875    0.008
 6954.00    0.43702   0.66987    0.008
 6955.00    0.47094   0.67096    0.008
 6956.00    0.53291   0.67215    0.008
 6957.00    0.53861   0.67325    0.008
 6958.00    0.53128   0.67432    0.008
 6959.00    0.62265   0.67524    0.008
 6960.00    0.73235   0.67602    0.008
 6961.00    0.67919   0.67663    0.008
 6962.00    0.60273   0.67700    0.008
 6963.00    0.59422   0.67714    0.008
 6964.00    0.59274   0.67697    0.008
 6965.00    0.58299   0.67650    0.008
 6966.00    0.57269   0.67565    0.008
 6967.00    0.62864   0.67443    0.008
 6968.00    0.68668   0.67285    0.008
 6969.00    0.57892   0.67094    0.008
 6970.00    0.47652   0.66881    0.008
 6971.00    0.53808   0.66658    0.008
 6972.00    0.59905   0.66441    0.008
 6973.00    0.65123   0.66251    0.008
 6974.00    0.69398   0.66103    0.008
 6975.00    0.64624   0.66014    0.008
 6976.00    0.60561   0.65990    0.008
 6977.00    0.61438   0.66036    0.008
 6978.00    0.62122   0.66142    0.008
 6979.00    0.61770   0.66300    0.008
 6980.00    0.61115   0.66489    0.008
 6981.00    0.59149   0.66691    0.008
 6982.00    0.59513   0.66890    0.008
 6983.00    0.68151   0.67070    0.008
 6984.00    0.72525   0.67222    0.008
 6985.00    0.64182   0.67339    0.008
 6986.00    0.59706   0.67423    0.008
 6987.00    0.65049   0.67472    0.008
 6988.00    0.68100   0.67491    0.008
 6989.00    0.66142   0.67481    0.008
 6990.00    0.63740   0.67448    0.008
 6991.00    0.60500   0.67390    0.008
 6992.00    0.58892   0.67316    0.008
 6993.00    0.59987   0.67222    0.008
 6994.00    0.55005   0.67119    0.008
 6995.00    0.41204   0.67004    0.008
 6996.00    0.35837   0.66892    0.008
 6997.00    0.41235   0.66776    0.008
 6998.00    0.49287   0.66677    0.008
 6999.00    0.60326   0.66583    0.009
 7000.00    0.64344   0.66512    0.009
 7001.00    0.61399   0.66452    0.008
 7002.00    0.60621   0.66410    0.008
 7003.00    0.61738   0.66376    0.008
 7004.00    0.61525   0.66349    0.008
 7005.00    0.60288   0.66322    0.008
 7006.00    0.58081   0.66290    0.008
 7007.00    0.55217   0.66251    0.008
 7008.00    0.55458   0.66201    0.008
 7009.00    0.57543   0.66146    0.008
 7010.00    0.57871   0.66085    0.008
 7011.00    0.57289   0.66030    0.008
 7012.00    0.56940   0.65979    0.008
 7013.00    0.56696   0.65948    0.009
 7014.00    0.60293   0.65927    0.009
 7015.00    0.65372   0.65931    0.009
 7016.00    0.68404   0.65945    0.009
 7017.00    0.70763   0.65981    0.009
 7018.00    0.59978   0.66019    0.009
 7019.00    0.45576   0.66073    0.009
 7020.00    0.50128   0.66125    0.009
 7021.00    0.58964   0.66191    0.009
 7022.00    0.64263   0.66254    0.009
 7023.00    0.68923   0.66329    0.009
 7024.00    0.61912   0.66404    0.009
 7025.00    0.53283   0.66488    0.009
 7026.00    0.50230   0.66569    0.008
 7027.00    0.47729   0.66656    0.008
 7028.00    0.51790   0.66737    0.009
 7029.00    0.56263   0.66819    0.009
 7030.00    0.56278   0.66899    0.009
 7031.00    0.56153   0.66985    0.009
 7032.00    0.52046   0.67076    0.009
 7033.00    0.48110   0.67184    0.009
 7034.00    0.48871   0.67305    0.009
 7035.00    0.49782   0.67450    0.009
 7036.00    0.52785   0.67606    0.009
 7037.00    0.55978   0.67780    0.009
 7038.00    0.60909   0.67951    0.009
 7039.00    0.63926   0.68118    0.009
 7040.00    0.54047   0.68256    0.009
 7041.00    0.47084   0.68361    0.009
 7042.00    0.55365   0.68413    0.009
 7043.00    0.62446   0.68404    0.009
 7044.00    0.64472   0.68325    0.009
 7045.00    0.65094   0.68173    0.009
 7046.00    0.60834   0.67948    0.009
 7047.00    0.57977   0.67659    0.009
 7048.00    0.59226   0.67314    0.009
 7049.00    0.59938   0.66935    0.009
 7050.00    0.59309   0.66528   -2.000
 7051.00    0.58128   0.66122   -2.000
 7052.00    0.55758   0.65721   -2.000
 7053.00    0.54047   0.65348   -2.000
 7054.00    0.53565   0.65003   -2.000
 7055.00    0.53627   0.64699   -2.000
 7056.00    0.54574   0.64434   -2.000
 7057.00    0.56195   0.64209   -2.000
 7058.00    0.58780   0.64023   -2.000
 7059.00    0.64020   0.63868   -2.000
 7060.00    0.72602   0.63751   -2.000
 7061.00    0.74335   0.63661   -2.000
 7062.00    0.68474   0.63609   -2.000
 7063.00    0.70988   0.63585   -2.000
 7064.00    0.81692   0.63601   -2.000
 7065.00    0.80248   0.63647   -2.000
 7066.00    0.68324   0.63728   -2.000
 7067.00    0.58873   0.63837   -2.000
 7068.00    0.51300   0.63965   -2.000
 7069.00    0.48138   0.64106   -2.000
 7070.00    0.47921   0.64239   -2.000
 7071.00    0.50843   0.64361   -2.000
 7072.00    0.55601   0.64447   -2.000
 7073.00    0.64855   0.64495   -2.000
 7074.00    0.76401   0.64484   -2.000
 7075.00    0.77154   0.64418   -2.000
 7076.00    0.73140   0.64281   -2.000
 7077.00    0.74449   0.64085   -2.000
 7078.00    0.77775   0.63824   -2.000
 7079.00    0.69929   0.63520   -2.000
 7080.00    0.58485   0.63173   -2.000
 7081.00    0.63840   0.62813   -2.000
 7082.00    0.73721   0.62440   -2.000
 7083.00    0.78628   0.62089   -2.000
 7084.00    0.82438   0.61756   -2.000
 7085.00    0.77668   0.61470   -2.000
 7086.00    0.71389   0.61226   -2.000
 7087.00    0.73880   0.61036   -2.000
 7088.00    0.77546   0.60906   -2.000
 7089.00    0.66986   0.60818   -2.000
 7090.00    0.55074   0.60797   -2.000
 7091.00    0.62752   0.60794   -2.000
 7092.00    0.71580   0.60858   -2.000
 7093.00    0.57578   0.60915   -2.000
 7094.00    0.43199   0.61031   -2.000
 7095.00    0.54177   0.61116   -2.000
 7096.00    0.64712   0.61239   -2.000
 7097.00    0.64210   0.61324   -2.000
 7098.00    0.63880   0.61422   -2.000
 7099.00    0.65823   0.61483   -2.000
 7100.00    0.66465   0.61535   -2.000
 7101.00    0.55577   0.61559   -2.000
 7102.00    0.46977   0.61567   -2.000
 7103.00    0.53320   0.61561   -2.000
 7104.00    0.58022   0.61537   -2.000
 7105.00    0.54362   0.61514   -2.000
 7106.00    0.51031   0.61482   -2.000
 7107.00    0.49061   0.61462   -2.000
 7108.00    0.48060   0.61442   -2.000
 7109.00    0.50364   0.61437   -2.000
 7110.00    0.54526   0.61437   -2.000
 7111.00    0.64025   0.61441   -2.000
 7112.00    0.69307   0.61451   -2.000
 7113.00    0.64242   0.61449   -2.000
 7114.00    0.63837   0.61444   -2.000
 7115.00    0.73293   0.61413   -2.000
 7116.00    0.73585   0.61369   -2.000
 7117.00    0.57027   0.61296   -2.000
 7118.00    0.48427   0.61202   -2.000
 7119.00    0.52615   0.61087   -2.000
 7120.00    0.62526   0.60947   -2.000
 7121.00    0.80506   0.60806   -2.000
 7122.00    0.89575   0.60646   -2.000
 7123.00    0.87591   0.60510   -2.000
 7124.00    0.79371   0.60370   -2.000
 7125.00    0.64332   0.60271   -2.000
 7126.00    0.55047   0.60188   -2.000
 7127.00    0.51310   0.60151   -2.000
 7128.00    0.55729   0.60146   -2.000
 7129.00    0.67081   0.60180   -2.000
 7130.00    0.65199   0.60248   -2.000
 7131.00    0.53404   0.60335   -2.000
 7132.00    0.43692   0.60450   -2.000
 7133.00    0.35351   0.60556   -2.000
 7134.00    0.39517   0.60670   -2.000
 7135.00    0.50887   0.60759   -2.000
 7136.00    0.51810   0.60838   -2.000
 7137.00    0.47490   0.60883   -2.000
 7138.00    0.49228   0.60912   -2.000
 7139.00    0.53598   0.60903   -2.000
 7140.00    0.48543   0.60893   -2.000
 7141.00    0.39977   0.60859   -2.000
 7142.00    0.37974   0.60835   -2.000
 7143.00    0.38045   0.60806   -2.000
 7144.00    0.40259   0.60804   -2.000
 7145.00    0.43037   0.60809   -2.000
 7146.00    0.39699   0.60848   -2.000
 7147.00    0.35042   0.60900   -2.000
 7148.00    0.40889   0.60992   -2.000
 7149.00    0.48532   0.61079   -2.000
 7150.00    0.50010   0.61186   -2.000
 7151.00    0.50690   0.61270   -2.000
 7152.00    0.49867   0.61361   -2.000
 7153.00    0.48906   0.61415   -2.000
 7154.00    0.43431   0.61454   -2.000
 7155.00    0.37708   0.61449   -2.000
 7156.00    0.49041   0.61426   -2.000
 7157.00    0.60849   0.61390   -2.000
 7158.00    0.83521   0.61344   -2.000
 7159.00    1.03650   0.61310   -2.000
 7160.00    0.66077   0.61275   -2.000
 7161.00    0.29825   0.61273   -2.000
 7162.00    0.10210   0.61291   -2.000
 7163.00   -0.04513   0.61351   -2.000
 7164.00    0.22494   0.61429   -2.000
 7165.00    0.51131   0.61533   -2.000
 7166.00    0.90097   0.61643   -2.000
 7167.00    1.15110   0.61750   -2.000
 7168.00    0.70846   0.61849   -2.000
 7169.00    0.36367   0.61927   -2.000
 7170.00    0.41277   0.61973   -2.000
 7171.00    0.43609   0.61980   -2.000
 7172.00    0.37329   0.61950   -2.000
 7173.00    0.34172   0.61892   -2.000
 7174.00    0.39826   0.61813   -2.000
 7175.00    0.43978   0.61713   -2.000
 7176.00    0.44503   0.61599   -2.000
 7177.00    0.47273   0.61479   -2.000
 7178.00    0.54715   0.61347   -2.000
 7179.00    0.60249   0.61222   -2.000
 7180.00    0.62328   0.61098   -2.000
 7181.00    0.60587   0.60984   -2.000
 7182.00    0.52798   0.60884   -2.000
 7183.00    0.52048   0.60788   -2.000
 7184.00    0.61079   0.60715   -2.000
 7185.00    0.61299   0.60649   -2.000
 7186.00    0.50744   0.60621   -2.000
 7187.00    0.46557   0.60600   -2.000
 7188.00    0.49234   0.60616   -2.000
 7189.00    0.49739   0.60646   -2.000
 7190.00    0.48178   0.60701   -2.000
 7191.00    0.50299   0.60768   -2.000
 7192.00    0.55506   0.60846   -2.000
 7193.00    0.56876   0.60926   -2.000
 7194.00    0.55414   0.61003   -2.000
 7195.00    0.16960   0.61072   -2.000
 7196.00   -0.45476   0.61128   -2.000
 7197.00   -0.13550   0.61166   -2.000
 7198.00    0.71905   0.61176   -2.000
 7199.00    0.91304   0.61173   -2.000
 7200.00    0.78079   0.61145   -2.000
 7201.00    0.74010   0.61118   -2.000
 7202.00    0.73850   0.61089   -2.000
 7203.00    0.70612   0.61062   -2.000
 7204.00    0.66249   0.61052   -2.000
 7205.00    0.69888   0.61045   -2.000
 7206.00    0.76006   0.61071   -2.000
 7207.00    0.70576   0.61103   -2.000
 7208.00    0.62165   0.61176   -2.000
 7209.00    0.58804   0.61254   -2.000
 7210.00    0.56505   0.61357   -2.000
 7211.00    0.49858   0.61467   -2.000
 7212.00    0.42489   0.61577   -2.000
 7213.00    0.44415   0.61693   -2.000
 7214.00    0.47502   0.61799   -2.000
 7215.00    0.38961   0.61912   -2.000
 7216.00    0.29412   0.62018   -2.000
 7217.00    0.32787   0.62124   -2.000
 7218.00    0.36818   0.62242   -2.000
