###################################################################
## OUTPUT of StarlightChains_v04.for    [Cid@UFSC - 01/Apr/2007] ##
###################################################################

## Some input info
KUG0210-078._37_43.txt                   [arq_obs]
Base.CB07.vall.4m                        [arq_base]
Masks.EmLines.NEW.gm                     [arq_masks]
StCv04.C11.config                        [arq_config]
   66                                    [N_base]
    0                                    [N_YAV_components = # of components with extra extinction!]
    0                                    [i_FitPowerLaw (1/0 = Yes/No)]
-9.99                                    [alpha_PowerLaw]
CCM                                      [red_law_option]
 1.458241                                [q_norm = A(l_norm)/A(V)]

## (Re)Sampling Parameters
 3741.00                                 [l_ini (A)]
 7218.00                                 [l_fin (A)]
    1.00                                 [dl    (A)]     (OBS: dl_cushion =    50.00 A)

## Normalization info
 4020.00                                 [l_norm (A) - for base]
 4010.00                                 [llow_norm (A) - window for f_obs]
 4060.00                                 [lupp_norm (A) - window for f_obs]
1.614306E-17                             [fobs_norm (in input units)]

## S/N
 3691.00                                 [llow_SN (A) - window for S/N]
 7268.00                                 [lupp_SN (A) - window for S/N]
   5.301                                 [S/N in S/N window]
   5.526                                 [S/N in norm. window]
   0.019                                 [S/N_err in S/N window]
   0.019                                 [S/N_err in norm. window]
  1.0000                                 [fscale_chi2]

## etc...
    -2007637                             [idum_orig]
  2431                                   [NOl_eff]
  2389                                   [Nl_eff]
    42    NSIGMA                         [Ntot_cliped & clip_method]
  8032570                                [Nglobal_steps]
   7                                     [N_chains]
  34                                     [NEX0s_base = N_base in EX0s-fits]
 0   0   1       42   2.0   4.416E+03    [Clip-Bug, RC-Crash & Burn-In warning-flags, n_censored_weights, wei_nsig_threshold & wei_limit]
    71     68.900     68.197      0.703  [idt_all, wdt_TotTime, wdt_UsrTime & wdt_SysTime (sec)]

## Synthesis Results - Best model ##

 1.96208E-05                             [chi2/Nl_eff]
    20.91297                             [adev (%)]

   102.47289                             [sum-of-x (%)]
 1.71157E-17                             [Flux_tot (units of input spectrum!)]
 4.61718E-13                             [Mini_tot (???)]
 2.40278E-13                             [Mcor_tot (???)]

-244.31                                  [v0_min  (km/s)]
  34.53                                  [vd_min  (km/s)]
 0.0254                                  [AV_min  (mag)]
 0.0000                                  [YAV_min (mag)]

# j     x_j(%)      Mini_j(%)     Mcor_j(%)     age_j(yr)     Z_j      (L/M)_j    YAV?  Mstars   component_j        a/Fe...       SSP_chi2r SSP_adev(%)   SSP_AV   SSP_x(%)
  1      0.0000     0.0000E+00    0.0000E+00    1.000000E+06  0.00400  1.094E-02    0   1.0000   age020_m42            0.0000     2.9719E-05    28.1207   3.3075    82.7829
  2      0.0000     0.0000E+00    0.0000E+00    3.160000E+06  0.00400  4.007E-02    0   0.9999   age045_m42            0.0000     2.5187E-05    25.8594   2.5543    89.1799
  3      0.0000     0.0000E+00    0.0000E+00    5.010000E+06  0.00400  2.539E-02    0   0.9488   age055_m42            0.0000     2.7370E-05    27.0264   2.8914    86.5342
  4      0.0000     0.0000E+00    0.0000E+00    6.610000E+06  0.00400  2.620E-02    0   0.9220   age061_m42            0.0000     2.5301E-05    25.8231   2.4857    89.2084
  5      0.0000     0.0000E+00    0.0000E+00    1.000000E+07  0.00400  1.322E-02    0   0.8862   age070_m42            0.0000     2.6689E-05    27.1929   2.2469    89.8058
  6      0.0000     0.0000E+00    0.0000E+00    1.445000E+07  0.00400  7.883E-03    0   0.8571   age078_m42            0.0000     2.7888E-05    27.7861   2.5757    87.4942
  7      0.0000     0.0000E+00    0.0000E+00    2.512000E+07  0.00400  5.251E-03    0   0.8174   age090_m42            0.0000     2.6745E-05    27.3548   2.1235    90.1136
  8      0.0000     0.0000E+00    0.0000E+00    4.000000E+07  0.00400  3.649E-03    0   0.7851   age104_m42            0.0000     2.5783E-05    26.7183   1.8846    91.1947
  9      0.0000     0.0000E+00    0.0000E+00    5.500000E+07  0.00400  3.098E-03    0   0.7629   age110_m42            0.0000     2.4616E-05    25.5358   2.0139    91.9258
 10      0.0000     0.0000E+00    0.0000E+00    1.015200E+08  0.00400  2.228E-03    0   0.7207   age116_m42            0.0000     2.3877E-05    24.6527   2.0193    92.5485
 11      0.0000     0.0000E+00    0.0000E+00    2.861200E+08  0.00400  1.093E-03    0   0.6648   age125_m42            0.0000     2.3276E-05    24.4551   1.4530    95.0427
 12     10.1683     5.5758E-01    6.8198E-01    5.088000E+08  0.00400  6.597E-04    0   0.6365   age130_m42            0.0000     2.2067E-05    22.9908   1.4169    96.6792
 13      0.0000     0.0000E+00    0.0000E+00    1.434000E+09  0.00400  2.132E-04    0   0.5798   age139_m42            0.0000     2.0090E-05    21.7024   0.4263    99.1815
 14      7.0500     4.3263E+00    4.4701E+00    4.250000E+09  0.00400  5.895E-05    0   0.5377   age158_m42            0.0000     2.0703E-05    22.0822  -0.0336    95.9035
 15      0.0000     0.0000E+00    0.0000E+00    7.500000E+09  0.00400  3.510E-05    0   0.5212   age171_m42            0.0000     2.0934E-05    21.7027  -0.2346    95.5896
 16      0.0000     0.0000E+00    0.0000E+00    1.300000E+10  0.00400  2.005E-05    0   0.5034   age193_m42            0.0000     2.1328E-05    21.4912  -0.4102    95.3071
 17      0.4527     1.0738E+00    1.0249E+00    1.800000E+10  0.00400  1.525E-05    0   0.4967   age213_m42            0.0000     2.1347E-05    21.6915  -0.4303    94.8087
 18      0.0000     0.0000E+00    0.0000E+00    1.000000E+06  0.00800  1.238E-02    0   1.0000   age020_m52            0.0000     2.9736E-05    28.1417   3.3016    82.9890
 19      0.0000     0.0000E+00    0.0000E+00    3.160000E+06  0.00800  3.074E-02    0   0.9966   age045_m52            0.0000     2.9526E-05    28.0929   3.2260    83.7166
 20      0.0000     0.0000E+00    0.0000E+00    5.010000E+06  0.00800  2.668E-02    0   0.9443   age055_m52            0.0000     2.8080E-05    27.4271   2.9786    85.6436
 21      0.0000     0.0000E+00    0.0000E+00    6.610000E+06  0.00800  2.136E-02    0   0.9177   age061_m52            0.0000     2.6237E-05    27.0105   1.7449    90.9166
 22      0.0000     0.0000E+00    0.0000E+00    1.000000E+07  0.00800  1.215E-02    0   0.8827   age070_m52            0.0000     2.7851E-05    28.0461   2.4397    89.1897
 23      0.0000     0.0000E+00    0.0000E+00    1.445000E+07  0.00800  8.717E-03    0   0.8552   age078_m52            0.0000     2.7440E-05    27.5940   2.5396    88.7556
 24      0.0000     0.0000E+00    0.0000E+00    2.512000E+07  0.00800  5.592E-03    0   0.8162   age090_m52            0.0000     2.6579E-05    27.2979   2.1856    91.2010
 25      0.0000     0.0000E+00    0.0000E+00    4.000000E+07  0.00800  3.896E-03    0   0.7841   age104_m52            0.0000     2.5477E-05    26.4507   2.0828    92.3375
 26      0.0000     0.0000E+00    0.0000E+00    1.015200E+08  0.00800  2.148E-03    0   0.7226   age116_m52            0.0000     2.4160E-05    25.1595   1.9970    92.9373
 27      0.0000     0.0000E+00    0.0000E+00    2.861200E+08  0.00800  9.925E-04    0   0.6683   age125_m52            0.0000     2.2059E-05    22.7780   1.4804    97.6242
 28     22.8322     2.6296E+00    3.1015E+00    9.047900E+08  0.00800  3.141E-04    0   0.6138   age135_m52            0.0000     1.9790E-05    20.8692   0.6363   103.0217
 29      0.0000     0.0000E+00    0.0000E+00    1.434000E+09  0.00800  1.719E-04    0   0.5853   age139_m52            0.0000     1.9935E-05    21.6854   0.0594   100.7041
 30      4.4277     2.0347E+00    2.1895E+00    2.500000E+09  0.00800  7.872E-05    0   0.5600   age150_m52            0.0000     2.0309E-05    21.2046  -0.2365    98.9100
 31      0.0000     0.0000E+00    0.0000E+00    4.250000E+09  0.00800  4.336E-05    0   0.5426   age158_m52            0.0000     2.0691E-05    21.3481  -0.2510    97.9528
 32      9.8806     1.1315E+01    1.1565E+01    6.250000E+09  0.00800  3.159E-05    0   0.5319   age166_m52            0.0000     2.0980E-05    20.8151  -0.4769    98.6114
 33      0.0000     0.0000E+00    0.0000E+00    1.300000E+10  0.00800  1.361E-05    0   0.5073   age193_m52            0.0000     2.1857E-05    20.0222  -0.9737    98.7132
 34      0.0000     0.0000E+00    0.0000E+00    1.800000E+10  0.00800  9.886E-06    0   0.4990   age213_m52            0.0000     2.2864E-05    18.9604  -1.0000    96.5485
 35      0.0000     0.0000E+00    0.0000E+00    1.000000E+06  0.02000  1.544E-02    0   1.0000   age020_m62            0.0000     2.9909E-05    28.2698   3.3016    83.0992
 36      0.0000     0.0000E+00    0.0000E+00    3.160000E+06  0.02000  3.762E-02    0   0.9858   age045_m62            0.0000     2.9965E-05    28.3043   3.2384    83.8624
 37      0.0000     0.0000E+00    0.0000E+00    5.010000E+06  0.02000  3.296E-02    0   0.9342   age055_m62            0.0000     2.6466E-05    26.4396   2.8389    87.9606
 38      0.0000     0.0000E+00    0.0000E+00    8.710000E+06  0.02000  1.154E-02    0   0.8861   age067_m62            0.0000     3.3762E-05    32.3421   1.9668    89.1754
 39      0.0000     0.0000E+00    0.0000E+00    1.445000E+07  0.02000  7.663E-03    0   0.8472   age078_m62            0.0000     2.8832E-05    29.0484   2.1034    90.5539
 40      0.0000     0.0000E+00    0.0000E+00    2.512000E+07  0.02000  4.532E-03    0   0.8099   age090_m62            0.0000     2.9072E-05    29.1378   2.0984    90.1794
 41      0.0000     0.0000E+00    0.0000E+00    5.500000E+07  0.02000  2.733E-03    0   0.7595   age110_m62            0.0000     2.5932E-05    26.6532   2.0696    91.5469
 42      0.0000     0.0000E+00    0.0000E+00    1.609000E+08  0.02000  1.369E-03    0   0.6985   age120_m62            0.0000     2.3536E-05    24.1408   1.8677    95.3209
 43     11.3261     4.5459E-01    5.8650E-01    2.861200E+08  0.02000  9.013E-04    0   0.6714   age125_m62            0.0000     2.2215E-05    22.4739   1.5913    98.8907
 44      0.0000     0.0000E+00    0.0000E+00    5.088000E+08  0.02000  5.028E-04    0   0.6449   age130_m62            0.0000     2.0399E-05    20.6828   1.1670   102.9679
 45     15.2677     2.2747E+00    2.7009E+00    9.047900E+08  0.02000  2.428E-04    0   0.6179   age135_m62            0.0000     1.9704E-05    20.9141   0.5640   102.8012
 46      0.0000     0.0000E+00    0.0000E+00    1.434000E+09  0.02000  1.263E-04    0   0.5908   age139_m62            0.0000     2.0154E-05    21.3248   0.1158   101.3569
 47      0.0000     0.0000E+00    0.0000E+00    2.500000E+09  0.02000  5.985E-05    0   0.5673   age150_m62            0.0000     2.0828E-05    21.0956  -0.2772   100.7373
 48      1.5137     1.6741E+00    1.7590E+00    4.250000E+09  0.02000  3.271E-05    0   0.5468   age158_m62            0.0000     2.1656E-05    20.3717  -0.6180   100.8880
 49      6.1869     1.6457E+01    1.6340E+01    1.000000E+10  0.02000  1.360E-05    0   0.5167   age181_m62            0.0000     2.3436E-05    19.6232  -1.0000   101.4486
 50      9.1929     4.6681E+01    4.4968E+01    1.800000E+10  0.02000  7.124E-06    0   0.5013   age213_m62            0.0000     2.6424E-05    18.1932  -1.0000    95.8401
 51      0.0000     0.0000E+00    0.0000E+00    1.000000E+06  0.05000  2.592E-02    0   0.9998   age020_m72            0.0000     3.0579E-05    28.6189   3.2979    82.9918
 52      0.0000     0.0000E+00    0.0000E+00    3.160000E+06  0.05000  4.845E-02    0   0.9577   age045_m72            0.0000     2.8697E-05    27.6234   3.1113    85.2443
 53      0.0000     0.0000E+00    0.0000E+00    5.010000E+06  0.05000  3.072E-02    0   0.9147   age055_m72            0.0000     2.9392E-05    28.7897   2.6689    87.6609
 54      0.0000     0.0000E+00    0.0000E+00    6.610000E+06  0.05000  1.455E-02    0   0.8877   age061_m72            0.0000     3.8004E-05    34.6287   2.0148    89.1819
 55      0.0000     0.0000E+00    0.0000E+00    1.000000E+07  0.05000  9.074E-03    0   0.8524   age070_m72            0.0000     3.0000E-05    29.0483   2.8366    87.4969
 56      0.0000     0.0000E+00    0.0000E+00    2.512000E+07  0.05000  4.250E-03    0   0.7902   age090_m72            0.0000     2.8038E-05    27.9913   2.5374    89.3468
 57      0.0000     0.0000E+00    0.0000E+00    4.000000E+07  0.05000  3.087E-03    0   0.7618   age104_m72            0.0000     2.7517E-05    27.7253   2.3112    90.7828
 58      0.0000     0.0000E+00    0.0000E+00    1.015200E+08  0.05000  1.700E-03    0   0.7096   age116_m72            0.0000     2.4419E-05    25.0297   2.0221    94.5015
 59      0.0000     0.0000E+00    0.0000E+00    2.861200E+08  0.05000  7.384E-04    0   0.6633   age125_m72            0.0000     2.1291E-05    21.4480   1.4338   101.0471
 60      0.0000     0.0000E+00    0.0000E+00    5.088000E+08  0.05000  3.819E-04    0   0.6372   age130_m72            0.0000     1.9879E-05    20.7382   0.9048   103.8409
 61      0.0000     0.0000E+00    0.0000E+00    9.047900E+08  0.05000  1.676E-04    0   0.6110   age135_m72            0.0000     2.0247E-05    21.1904   0.1735   103.0097
 62      0.0000     0.0000E+00    0.0000E+00    1.434000E+09  0.05000  8.837E-05    0   0.5874   age139_m72            0.0000     2.1123E-05    21.0854  -0.2896   102.5267
 63      0.0000     0.0000E+00    0.0000E+00    2.500000E+09  0.05000  4.233E-05    0   0.5598   age150_m72            0.0000     2.2051E-05    20.3502  -0.6377   102.3186
 64      4.1741     1.0522E+01    1.0613E+01    6.250000E+09  0.05000  1.435E-05    0   0.5249   age166_m72            0.0000     2.4077E-05    18.8865  -1.0000    98.8889
 65      0.0000     0.0000E+00    0.0000E+00    1.300000E+10  0.05000  6.513E-06    0   0.5036   age193_m72            0.0000     3.0168E-05    19.1515  -1.0000    92.8888
 66      0.0000     0.0000E+00    0.0000E+00    1.800000E+10  0.05000  4.527E-06    0   0.4945   age213_m72            0.0000     3.5418E-05    20.7173  -1.0000    88.4707


## Synthesis Results - Average & Chains ##

# j      x_j: min, <> & last-chain-values for 1 ...  7 chains
  1      0.0000      0.3358      0.0000      0.2642      0.0006      0.0017      0.0293      0.0148      0.0000
  2      0.0000      0.3208      0.0000      0.0466      0.0010      0.0018      0.1683      0.0000      0.8197
  3      0.0000      8.1166      6.8492      8.0384      9.5666      9.5922      9.2117      7.3666      6.4977
  4      0.0000      0.3082      0.0000      0.4966      0.0016      0.0001      0.3408      0.2477      0.0000
  5      0.0000      0.1974      0.0838      0.2936      0.0007      0.0002      0.0000      0.0000      0.0000
  6      0.0000      0.2727      0.1228      0.2661      0.0002      0.0002      0.1470      0.4606      0.5343
  7      0.0000      0.2417      0.0000      0.3901      0.0012      0.0016      0.0000      0.3072      0.3363
  8      0.0000      0.4213      0.0000      0.1172      0.0005      0.0006      0.0452      1.6281      0.1577
  9      0.0000      0.2435      0.0387      0.0000      0.0007      0.0014      0.0096      0.3934      0.0000
 10      0.0000      0.2779      0.3045      0.0551      0.0009      0.0010      0.0536      0.0638      0.4059
 11      0.0000      0.2942      0.4717      0.1059      0.0091      0.0000      0.3638      0.4423      0.0000
 12     10.1683      0.4457      0.3699      0.1461      0.0085      0.0099      0.0100      0.0000      1.1303
 13      0.0000      0.2291      0.0000      0.2084      0.0013      0.0009      0.0000      0.0000      0.2065
 14      7.0500      6.6774      6.2456      6.3784      6.9644      7.3973      7.2131      5.3934      6.1767
 15      0.0000      0.3606      0.0000      0.3312      0.0039      0.0037      0.0975      0.1903      0.0000
 16      0.0000      0.2110      2.1881      0.0000      0.0004      0.0002      0.0000      0.0000      0.3957
 17      0.4527      0.3709      1.0367      0.3356      0.0017      0.0018      0.0122      0.9545      0.0760
 18      0.0000      0.2433      0.0000      0.1285      0.0035      0.0036      0.0012      0.0000      0.4117
 19      0.0000      0.4677      0.9975      0.0000      0.0008      0.0005      0.0000      0.1911      0.2299
 20      0.0000      0.2826      0.0000      0.1778      0.1813      0.1227      0.0783      0.5320      0.3711
 21      0.0000      0.3452      1.4783      0.0000      0.0008      0.0006      0.1749      0.7411      0.2171
 22      0.0000      0.2900      0.0000      0.2622      0.0020      0.0014      0.0419      0.5896      0.0000
 23      0.0000      0.2481      0.4574      0.0209      0.0011      0.0012      0.0000      0.4476      0.0000
 24      0.0000      0.2802      1.0422      0.1732      0.0008      0.0009      0.0000      0.5552      0.0000
 25      0.0000      0.2186      0.0914      0.2739      0.0001      0.0008      0.1037      0.9294      0.1303
 26      0.0000      0.2212      0.0000      0.4698      0.0013      0.0003      0.1091      0.5231      0.0982
 27      0.0000      0.3595      0.0000      0.3359      0.0000      0.0005      0.2356      0.0000      0.0523
 28     22.8322      0.2565      1.2909      0.2863      0.0006      0.0005      0.1722      0.0000      1.6001
 29      0.0000     49.2931     46.0900     53.3954     58.8470     58.2893     56.6042     45.9350     49.8683
 30      4.4277      0.2462      0.3674      0.4128      0.0023      0.0029      0.0000      0.4895      0.0037
 31      0.0000      0.6988      0.3680      0.5353      0.0283      0.1328      1.5456      0.3538      0.2365
 32      9.8806      0.4500      0.4469      0.1139      0.0028      0.0023      0.0000      1.9610      1.2152
 33      0.0000      0.2794      0.2141      0.2716      0.0032      0.0017      0.2119      0.4430      0.3882
 34      0.0000      0.2910      0.0000      0.2527      0.0034      0.0021      0.1208      0.0000      0.4846
 35      0.0000      6.3111      5.2617      5.7037      7.2891      7.2034      6.7587      5.2400      5.6442
 36      0.0000      0.3758      0.1965      0.0650      0.0000      0.0002      0.0000      0.0000      0.1191
 37      0.0000      0.3395      0.0000      0.1021      0.0016      0.0012      0.2407      0.2679      0.7886
 38      0.0000      0.3717      0.0000      0.3958      0.0003      0.0000      0.0000      0.3165      0.2403
 39      0.0000      2.4300      2.3061      1.2926      2.8633      2.8292      2.6324      1.7530      2.6630
 40      0.0000      0.4106      0.0660      0.7659      0.2310      0.3069      0.2877      0.0000      0.3611
 41      0.0000      0.2602      1.8952      0.0828      0.0028      0.0026      0.0806      0.2035      0.0000
 42      0.0000      0.2977      0.3874      0.4773      0.0007      0.0006      0.3383      0.8669      0.5182
 43     11.3261      0.2867      2.0840      0.0000      0.0003      0.0002      0.0005      0.2218      0.2676
 44      0.0000      0.3063      0.0679      0.2294      0.0016      0.0003      0.0817      0.0077      0.6138
 45     15.2677      0.3741      0.3538      0.6564      0.1543      0.0018      0.0000      1.5043      0.3522
 46      0.0000      0.2772      1.4573      0.9654      0.0017      0.0012      0.0000      0.7631      0.0997
 47      0.0000      0.3217      0.4466      0.1122      0.0020      0.0020      0.0000      0.0000      1.1448
 48      1.5137      0.3574      0.3396      0.7480      0.0028      0.0032      0.0422      1.3902      0.0000
 49      6.1869      0.1846      0.3894      0.0441      0.0008      0.0015      0.1127      1.0595      0.2512
 50      9.1929      0.3409      0.7366      0.5004      0.0016      0.0016      0.0444      0.2995      0.5574
 51      0.0000      0.2579      0.0000      0.2259      0.0007      0.0006      0.0182      0.0000      0.0688
 52      0.0000      0.3179      0.0000      0.0000      0.0015      0.0012      0.0000      1.4029      0.4738
 53      0.0000      0.3516      0.4654      0.0000      0.0018      0.0016      0.1241      0.2751      0.5955
 54      0.0000      9.2220      9.2826      9.7454      9.8857     10.2045      9.2238      9.3597      9.3087
 55      0.0000      0.3047      0.0946      0.3585      0.0252      0.0011      0.2166      0.2284      0.2804
 56      0.0000      3.1578      2.9018      3.2402      3.3903      3.4363      2.8990      3.4808      2.9930
 57      0.0000      0.9787      0.8574      1.0240      1.1080      1.0865      0.9786      0.5405      1.2811
 58      0.0000      0.2211      0.2633      0.2299      0.0078      0.0060      0.0645      0.6642      0.0000
 59      0.0000      0.3206      0.0000      0.2882      0.0036      0.0005      0.0701      2.7509      0.1830
 60      0.0000      0.2703      0.2957      0.4294      0.0016      0.0003      0.1033      0.0000      0.2002
 61      0.0000      0.4538      0.0000      0.5256      0.2240      0.2874      0.1596      0.0000      0.7502
 62      0.0000      4.1387      3.3166      4.6376      4.6159      4.6245      4.5575      4.6061      3.7855
 63      0.0000      1.1333      0.2022      0.8824      1.3101      1.2573      1.3517      1.0537      1.1263
 64      4.1741      8.9501      9.1813      8.7583     10.1650     10.1373      9.1772      9.8374      9.4430
 65      0.0000      0.3472      1.9549      0.3524      0.2938      0.2948      0.0450      0.2817      0.4817
 66      0.0000      0.2674      0.8048      0.1442      0.0098      0.0490      0.2110      0.0000      0.4601

# j      m_j: min, <> & last-chain-values for 1 ...  7 chains
  1  0.0000E+00  3.9796E-03  0.0000E+00  3.1743E-03  7.8195E-06  2.1068E-05  3.7309E-04  1.6458E-04  0.0000E+00
  2  0.0000E+00  1.0380E-03  0.0000E+00  1.5286E-04  3.6570E-06  6.1342E-06  5.8581E-04  0.0000E+00  2.4146E-03
  3  0.0000E+00  3.9322E-02  2.5143E-02  3.9482E-02  5.0175E-02  4.9901E-02  4.8030E-02  3.3481E-02  2.8664E-02
  4  0.0000E+00  1.4060E-03  0.0000E+00  2.2971E-03  7.8725E-06  3.0824E-07  1.6733E-03  1.0601E-03  0.0000E+00
  5  0.0000E+00  1.7159E-03  5.5196E-04  2.5869E-03  6.8470E-06  1.8534E-06  0.0000E+00  0.0000E+00  0.0000E+00
  6  0.0000E+00  3.8439E-03  1.3118E-03  3.8027E-03  3.2096E-06  3.7058E-06  2.2298E-03  6.0909E-03  6.8574E-03
  7  0.0000E+00  4.8781E-03  0.0000E+00  7.9812E-03  2.7091E-05  3.3873E-05  0.0000E+00  5.8163E-03  6.1803E-03
  8  0.0000E+00  1.1753E-02  0.0000E+00  3.3130E-03  1.5525E-05  1.8370E-05  1.3574E-03  4.2605E-02  4.0048E-03
  9  0.0000E+00  7.7749E-03  9.3550E-04  0.0000E+00  2.5905E-05  4.8740E-05  3.2851E-04  1.1783E-02  0.0000E+00
 10  0.0000E+00  1.1652E-02  9.6757E-03  2.3441E-03  4.0712E-05  4.3689E-05  2.4177E-03  2.5089E-03  1.5499E-02
 11  0.0000E+00  2.3201E-02  2.8182E-02  8.4697E-03  7.8076E-04  0.0000E+00  3.0875E-02  3.2723E-02  0.0000E+00
 12  6.8198E-01  5.5747E-02  3.5055E-02  1.8530E-02  1.1542E-03  1.3277E-03  1.3406E-03  0.0000E+00  1.2874E-01
 13  0.0000E+00  8.0766E-02  0.0000E+00  7.4508E-02  5.0544E-04  3.2381E-04  0.0000E+00  0.0000E+00  6.6281E-02
 14  4.4701E+00  7.8963E+00  5.5962E+00  7.6469E+00  8.9158E+00  9.3932E+00  9.1799E+00  5.9834E+00  6.6508E+00
 15  0.0000E+00  6.9421E-01  0.0000E+00  6.4632E-01  8.0825E-03  7.6066E-03  2.0193E-01  3.4373E-01  0.0000E+00
 16  0.0000E+00  6.8665E-01  5.3966E+00  0.0000E+00  1.4638E-03  6.8849E-04  0.0000E+00  0.0000E+00  1.1730E+00
 17  1.0249E+00  1.5662E+00  3.3169E+00  1.4368E+00  7.5687E-03  8.1100E-03  5.5587E-02  3.7813E+00  2.9235E-01
 18  0.0000E+00  2.5478E-03  0.0000E+00  1.3644E-03  3.9872E-05  4.0359E-05  1.2996E-05  0.0000E+00  3.9261E-03
 19  0.0000E+00  1.9658E-03  3.1767E-03  0.0000E+00  3.5723E-06  2.1976E-06  0.0000E+00  7.5362E-04  8.7972E-04
 20  0.0000E+00  1.2969E-03  0.0000E+00  8.2714E-04  9.0086E-04  6.0480E-04  3.8665E-04  2.2899E-03  1.5507E-03
 21  0.0000E+00  1.9225E-03  6.2390E-03  0.0000E+00  4.6435E-06  3.3774E-06  1.0484E-03  3.8725E-03  1.1011E-03
 22  0.0000E+00  2.7316E-03  0.0000E+00  2.5036E-03  2.0209E-05  1.3704E-05  4.2506E-04  5.2100E-03  0.0000E+00
 23  0.0000E+00  3.1558E-03  4.4082E-03  2.7003E-04  1.5158E-05  1.5961E-05  0.0000E+00  5.3410E-03  0.0000E+00
 24  0.0000E+00  5.3025E-03  1.4943E-02  3.3232E-03  1.5966E-05  1.8245E-05  0.0000E+00  9.8552E-03  0.0000E+00
 25  0.0000E+00  5.7044E-03  1.8063E-03  7.2458E-03  3.0844E-06  2.3369E-05  2.9106E-03  2.2750E-02  3.0957E-03
 26  0.0000E+00  9.6478E-03  0.0000E+00  2.0772E-02  6.2808E-05  1.5654E-05  5.1194E-03  2.1405E-02  3.8984E-03
 27  0.0000E+00  3.1386E-02  0.0000E+00  2.9726E-02  0.0000E+00  4.6485E-05  2.2134E-02  0.0000E+00  4.1583E-03
 28  3.1015E+00  6.4985E-02  2.4780E-01  7.3541E-02  1.5737E-04  1.4585E-04  4.6953E-02  0.0000E+00  3.6911E-01
 29  0.0000E+00  2.1759E+01  1.5416E+01  2.3896E+01  2.8122E+01  2.7630E+01  2.6891E+01  1.9023E+01  2.0044E+01
 30  2.1895E+00  2.2705E-01  2.5675E-01  3.8598E-01  2.3164E-03  2.8471E-03  0.0000E+00  4.2353E-01  3.1148E-03
 31  0.0000E+00  1.1337E+00  4.5237E-01  8.8037E-01  4.9761E-02  2.3141E-01  2.6987E+00  5.3846E-01  3.4942E-01
 32  1.1565E+01  9.8229E-01  7.3924E-01  2.5215E-01  6.6015E-03  5.4019E-03  0.0000E+00  4.0159E+00  2.4155E+00
 33  0.0000E+00  1.3501E+00  7.8403E-01  1.3305E+00  1.6951E-02  9.0691E-03  1.1020E+00  2.0086E+00  1.7083E+00
 34  0.0000E+00  1.9043E+00  0.0000E+00  1.6764E+00  2.3780E-02  1.4753E-02  8.5087E-01  0.0000E+00  2.8873E+00
 35  0.0000E+00  5.2992E-02  3.3476E-02  4.8554E-02  6.6259E-02  6.4949E-02  6.1077E-02  4.1277E-02  4.3154E-02
 36  0.0000E+00  1.2766E-03  5.0573E-04  2.2376E-04  0.0000E+00  9.0860E-07  0.0000E+00  0.0000E+00  3.6849E-04
 37  0.0000E+00  1.2474E-03  0.0000E+00  3.8052E-04  6.5488E-06  4.7511E-06  9.5202E-04  9.2346E-04  2.6385E-03
 38  0.0000E+00  3.6997E-03  0.0000E+00  3.9943E-03  3.7310E-06  7.7712E-08  0.0000E+00  2.9555E-03  2.1784E-03
 39  0.0000E+00  3.4830E-02  2.5045E-02  1.8784E-02  4.4430E-02  4.3545E-02  4.0607E-02  2.3572E-02  3.4756E-02
 40  0.0000E+00  9.5123E-03  1.1588E-03  1.7990E-02  5.7947E-03  7.6349E-03  7.1745E-03  0.0000E+00  7.6180E-03
 41  0.0000E+00  9.3757E-03  5.1738E-02  3.0227E-03  1.1024E-04  1.0142E-04  3.1266E-03  6.8782E-03  0.0000E+00
 42  0.0000E+00  1.9689E-02  1.9419E-02  3.2006E-02  5.1151E-05  4.0487E-05  2.4081E-02  5.3796E-02  3.1210E-02
 43  5.8650E-01  2.7684E-02  1.5250E-01  0.0000E+00  2.8641E-05  2.0117E-05  5.3735E-05  2.0093E-02  2.3531E-02
 44  0.0000E+00  5.0935E-02  8.5594E-03  3.8681E-02  2.8564E-04  5.6679E-05  1.4630E-02  1.2085E-03  9.2944E-02
 45  2.7009E+00  1.2342E-01  8.8457E-02  2.1956E-01  5.5121E-02  6.5505E-04  0.0000E+00  4.6563E-01  1.0582E-01
 46  0.0000E+00  1.6813E-01  6.6963E-01  5.9356E-01  1.0976E-03  7.8334E-04  0.0000E+00  4.3417E-01  5.5035E-02
 47  0.0000E+00  3.9528E-01  4.1586E-01  1.3984E-01  2.6842E-03  2.6262E-03  0.0000E+00  0.0000E+00  1.2810E+00
 48  1.7590E+00  7.7454E-01  5.5774E-01  1.6435E+00  6.6864E-03  7.3487E-03  9.8496E-02  2.8265E+00  0.0000E+00
 49  1.6340E+01  9.0906E-01  1.4533E+00  2.2043E-01  4.1186E-03  7.7890E-03  5.9752E-01  4.8959E+00  1.1268E+00
 50  4.4968E+01  3.1096E+00  5.0915E+00  4.6278E+00  1.5992E-02  1.5328E-02  4.3561E-01  2.5633E+00  4.6301E+00
 51  0.0000E+00  1.2899E-03  0.0000E+00  1.1452E-03  3.9226E-06  3.1432E-06  9.8055E-05  0.0000E+00  3.1342E-04
 52  0.0000E+00  8.1471E-04  0.0000E+00  0.0000E+00  4.2418E-06  3.2868E-06  0.0000E+00  3.3727E-03  1.1057E-03
 53  0.0000E+00  1.3572E-03  1.3612E-03  0.0000E+00  7.3156E-06  6.7925E-06  5.1538E-04  9.9640E-04  2.0931E-03
 54  0.0000E+00  7.2943E-02  5.5633E-02  7.8148E-02  8.4650E-02  8.6672E-02  7.8518E-02  6.9453E-02  6.7044E-02
 55  0.0000E+00  3.7113E-03  8.7339E-04  4.4264E-03  3.3273E-04  1.4597E-05  2.8390E-03  2.6090E-03  3.1100E-03
 56  0.0000E+00  7.6118E-02  5.2999E-02  7.9183E-02  8.8472E-02  8.8946E-02  7.5208E-02  7.8714E-02  6.5694E-02
 57  0.0000E+00  3.1311E-02  2.0785E-02  3.3214E-02  3.8376E-02  3.7328E-02  3.3697E-02  1.6221E-02  3.7321E-02
 58  0.0000E+00  1.1965E-02  1.0796E-02  1.2612E-02  4.5460E-04  3.4629E-04  3.7572E-03  3.3722E-02  0.0000E+00
 59  0.0000E+00  3.7337E-02  0.0000E+00  3.4026E-02  4.5863E-04  6.0690E-05  8.7875E-03  3.0056E-01  1.9407E-02
 60  0.0000E+00  5.8460E-02  4.8469E-02  9.4175E-02  3.6433E-04  6.0644E-05  2.4057E-02  0.0000E+00  3.9440E-02
 61  0.0000E+00  2.1450E-01  0.0000E+00  2.5187E-01  1.1459E-01  1.4587E-01  8.1197E-02  0.0000E+00  3.2285E-01
 62  0.0000E+00  3.5666E+00  2.1656E+00  4.0517E+00  4.3063E+00  4.2794E+00  4.2268E+00  3.7238E+00  2.9704E+00
 63  0.0000E+00  1.9431E+00  2.6266E-01  1.5339E+00  2.4318E+00  2.3148E+00  2.4942E+00  1.6949E+00  1.7584E+00
 64  1.0613E+01  4.2443E+01  3.2990E+01  4.2108E+01  5.2186E+01  5.1622E+01  4.6837E+01  4.3765E+01  4.0775E+01
 65  0.0000E+00  3.4809E+00  1.4849E+01  3.5814E+00  3.1882E+00  3.1736E+00  4.8582E-01  2.6489E+00  4.3968E+00
 66  0.0000E+00  3.7873E+00  8.6353E+00  2.0710E+00  1.4955E-01  7.4514E-01  3.2155E+00  0.0000E+00  5.9332E+00

# AV, chi2 & Mass for <> & i_chain = 1 ...  7 solutions
AV       0.0254     -0.0562     -0.0496     -0.0390     -0.0414     -0.0438     -0.0314     -0.0492     -0.0358
chi2 1.9621E-05  3.3894E-05  3.1087E-05  3.2557E-05  3.2439E-05  3.2598E-05  3.2064E-05  3.5008E-05  3.2044E-05
Mass 2.4028E-13  1.1546E-13  1.5374E-13  1.1655E-13  1.0879E-13  1.0933E-13  1.1093E-13  1.2423E-13  1.3032E-13
-244.31                                  [v0_min (km/s) before EX0s...]
  34.53                                  [vd_min (km/s) before EX0s...]


## Synthetic spectrum (Best Model) ##l_obs f_obs f_syn wei
 3478    [Nl_obs]
 3741.00    0.66341   0.49118    0.000
 3742.00    0.50004   0.45934    0.000
 3743.00    0.22091   0.42958    0.000
 3744.00    0.08604   0.39972    0.000
 3745.00    0.03523   0.34879    0.041
 3746.00    0.26381   0.30698    0.042
 3747.00    0.63427   0.32655    0.043
 3748.00    0.73135   0.39897    0.049
 3749.00    0.70824   0.47335    0.061
 3750.00    0.69041   0.53241    0.055
 3751.00    0.67459   0.59053    0.044
 3752.00    0.65562   0.63152    0.042
 3753.00    0.63564   0.62095    0.041
 3754.00    0.61331   0.56077    0.041
 3755.00    0.59034   0.50855    0.042
 3756.00    0.58492   0.51172    0.041
 3757.00    0.58335   0.54752    0.040
 3758.00    0.48256   0.57522    0.039
 3759.00    0.36445   0.58362    0.039
 3760.00    0.42091   0.57430    0.056
 3761.00    0.50055   0.56500    0.112
 3762.00    0.44799   0.55853    0.062
 3763.00    0.38300   0.52783    0.040
 3764.00    0.41083   0.49017    0.039
 3765.00    0.44402   0.47691    0.039
 3766.00    0.37528   0.46607    0.039
 3767.00    0.30509   0.44628    0.039
 3768.00    0.35324   0.45773    0.039
 3769.00    0.40663   0.50908    0.039
 3770.00    0.58737   0.55893    0.041
 3771.00    0.75693   0.58395    0.043
 3772.00    0.77991   0.59869    0.043
 3773.00    0.79704   0.62127    0.042
 3774.00    0.76264   0.64874    0.040
 3775.00    0.70724   0.67300    0.038
 3776.00    0.51566   0.70304    0.037
 3777.00    0.33087   0.73304    0.036
 3778.00    0.18050   0.74531    0.036
 3779.00    0.07881   0.74748    0.036
 3780.00    0.17641   0.75732    0.037
 3781.00    0.24655   0.76234    0.037
 3782.00    0.22350   0.72796    0.037
 3783.00    0.18505   0.66605    0.037
 3784.00    0.10254   0.62348    0.037
 3785.00    0.06789   0.60481    0.037
 3786.00    0.15016   0.59337    0.038
 3787.00    0.21995   0.59348    0.038
 3788.00    0.26341   0.60276    0.039
 3789.00    0.30096   0.59204    0.039
 3790.00    0.32766   0.54895    0.038
 3791.00    0.34774   0.49625    0.038
 3792.00    0.35720   0.45770    0.038
 3793.00    0.37307   0.42584    0.038
 3794.00    0.39792   0.38540    0.038
 3795.00    0.55730   0.36196    0.039
 3796.00    0.88297   0.39198    0.040
 3797.00    0.99521   0.46366    0.042
 3798.00    0.87491   0.53417    0.045
 3799.00    0.67312   0.59071    0.045
 3800.00    0.39300   0.63939    0.041
 3801.00    0.29930   0.66685    0.039
 3802.00    0.36356   0.66654    0.040
 3803.00    0.45844   0.65061    0.041
 3804.00    0.57617   0.64900    0.042
 3805.00    0.66831   0.68187    0.042
 3806.00    0.74367   0.72890    0.040
 3807.00    0.86608   0.75877    0.042
 3808.00    1.01549   0.75627    0.045
 3809.00    0.85081   0.72071    0.043
 3810.00    0.52914   0.67086    0.040
 3811.00    0.36976   0.63495    0.039
 3812.00    0.28056   0.62221    0.039
 3813.00    0.42703   0.63717    0.038
 3814.00    0.66088   0.67121    0.037
 3815.00    0.74187   0.68048    0.037
 3816.00    0.77479   0.64288    0.037
 3817.00    0.69604   0.60100    0.042
 3818.00    0.58799   0.60481    0.050
 3819.00    0.79966   0.63378    0.047
 3820.00    1.07982   0.62847    0.042
 3821.00    1.12675   0.58115    0.043
 3822.00    1.13409   0.53843    0.044
 3823.00    0.87057   0.52241    0.042
 3824.00    0.57230   0.51542    0.040
 3825.00    0.33725   0.50556    0.038
 3826.00    0.10787   0.49722    0.036
 3827.00    0.00566   0.48710    0.037
 3828.00   -0.08972   0.45432    0.000
 3829.00    0.07154   0.39909    0.038
 3830.00    0.23590   0.35181    0.037
 3831.00    0.22705   0.32728    0.038
 3832.00    0.22238   0.32813    0.038
 3833.00    0.31035   0.34990    0.038
 3834.00    0.38494   0.37140    0.038
 3835.00    0.29318   0.38828    0.038
 3836.00    0.21817   0.41167    0.039
 3837.00    0.28476   0.44474    0.042
 3838.00    0.36043   0.49661    0.044
 3839.00    0.49316   0.56198    0.043
 3840.00    0.62161   0.61317    0.041
 3841.00    0.72892   0.63968    0.041
 3842.00    0.75651   0.65092    0.040
 3843.00    0.46494   0.66447    0.040
 3844.00    0.21178   0.68600    0.040
 3845.00    0.08633   0.69339    0.039
 3846.00    0.00618   0.67673    0.039
 3847.00    0.05324   0.67240    0.000
 3848.00    0.15761   0.70100    0.000
 3849.00    0.39961   0.72771    0.000
 3850.00    0.65752   0.72811    0.000
 3851.00    0.94844   0.71182    0.000
 3852.00    1.05310   0.69226    0.000
 3853.00    0.82181   0.68144    0.000
 3854.00    0.65915   0.68130    0.000
 3855.00    0.60471   0.66703    0.000
 3856.00    0.57300   0.64214    0.000
 3857.00    0.57275   0.64810    0.000
 3858.00    0.59744   0.69307    0.000
 3859.00    0.65252   0.73962    0.000
 3860.00    0.72625   0.75995    0.000
 3861.00    0.82000   0.75499    0.000
 3862.00    0.77571   0.73924    0.000
 3863.00    0.60062   0.73182    0.000
 3864.00    0.50173   0.73688    0.000
 3865.00    0.46648   0.74001    0.000
 3866.00    0.60611   0.72821    0.000
 3867.00    0.87437   0.69884    0.000
 3868.00    1.02388   0.66217    0.000
 3869.00    1.09670   0.63903    0.000
 3870.00    0.98550   0.65133    0.000
 3871.00    0.77030   0.69114    0.000
 3872.00    0.66813   0.71937    0.000
 3873.00    0.62154   0.70488    0.000
 3874.00    0.46298   0.65092    0.000
 3875.00    0.25679   0.60304    0.000
 3876.00    0.17435   0.60396    0.000
 3877.00    0.13699   0.62168    0.000
 3878.00    0.22335   0.60642    0.000
 3879.00    0.34785   0.57792    0.000
 3880.00    0.40378   0.57375    0.000
 3881.00    0.44210   0.56720    0.039
 3882.00    0.50169   0.51630    0.039
 3883.00    0.56572   0.44871    0.039
 3884.00    0.44209   0.40654    0.039
 3885.00    0.28752   0.38761    0.039
 3886.00    0.16765   0.39653    0.039
 3887.00    0.05207   0.44883    0.038
 3888.00    0.28961   0.52109    0.038
 3889.00    0.55736   0.57624    0.039
 3890.00    0.31987   0.60234    0.038
 3891.00    0.05719   0.60979    0.038
 3892.00    0.33890   0.61706    0.038
 3893.00    0.62219   0.64332    0.039
 3894.00    0.43201   0.67386    0.038
 3895.00    0.25553   0.67962    0.037
 3896.00    0.35912   0.67720    0.037
 3897.00    0.46194   0.69789    0.037
 3898.00    0.55568   0.72958    0.036
 3899.00    0.62942   0.73541    0.035
 3900.00    0.54022   0.72454    0.034
 3901.00    0.48184   0.71642    0.034
 3902.00    0.61169   0.70177    0.034
 3903.00    0.71726   0.70458    0.034
 3904.00    0.70596   0.74695    0.032
 3905.00    0.68818   0.79798    0.031
 3906.00    0.64498   0.82732    0.031
 3907.00    0.62679   0.84013    0.031
 3908.00    0.69013   0.85067    0.033
 3909.00    0.72401   0.85061    0.034
 3910.00    0.67666   0.83467    0.034
 3911.00    0.63004   0.82349    0.035
 3912.00    0.58514   0.82076    0.036
 3913.00    0.57356   0.81021    0.036
 3914.00    0.63002   0.79759    0.037
 3915.00    0.64388   0.78289    0.037
 3916.00    0.58210   0.75877    0.038
 3917.00    0.56109   0.73516    0.038
 3918.00    0.60343   0.72935    0.038
 3919.00    0.61220   0.74082    0.039
 3920.00    0.57517   0.75583    0.039
 3921.00    0.50052   0.76156    0.039
 3922.00    0.38067   0.74358    0.039
 3923.00    0.44184   0.70670    0.040
 3924.00    0.69471   0.66151    0.041
 3925.00    0.78517   0.60944    0.041
 3926.00    0.72391   0.55656    0.041
 3927.00    0.71455   0.50382    0.041
 3928.00    0.74793   0.44254    0.040
 3929.00    0.71758   0.37403    0.040
 3930.00    0.64102   0.32552    0.041
 3931.00    0.52973   0.33005    0.041
 3932.00    0.39634   0.38864    0.040
 3933.00    0.31774   0.47070    0.040
 3934.00    0.26961   0.54501    0.039
 3935.00    0.33855   0.60616    0.040
 3936.00    0.46415   0.65785    0.040
 3937.00    0.90697   0.69272    0.041
 3938.00    1.48243   0.70471    0.043
 3939.00    1.26021   0.70020    0.042
 3940.00    0.75266   0.68909    0.041
 3941.00    0.54430   0.69674    0.040
 3942.00    0.42637   0.73878    0.039
 3943.00    0.43059   0.77772    0.039
 3944.00    0.46548   0.77879    0.039
 3945.00    0.48419   0.76798    0.039
 3946.00    0.49959   0.77893    0.038
 3947.00    0.65715   0.80073    0.038
 3948.00    0.83748   0.80162    0.039
 3949.00    0.65165   0.78448    0.039
 3950.00    0.42211   0.78679    0.039
 3951.00    0.46221   0.80516    0.039
 3952.00    0.52427   0.79067    0.039
 3953.00    0.65651   0.74919    0.039
 3954.00    0.79197   0.73142    0.039
 3955.00    0.73518   0.74239    0.038
 3956.00    0.67507   0.73917    0.038
 3957.00    0.57012   0.68782    0.038
 3958.00    0.47421   0.60972    0.037
 3959.00    0.54963   0.55573    0.038
 3960.00    0.63844   0.52957    0.000
 3961.00    0.87809   0.49710    0.000
 3962.00    1.05664   0.43968    0.000
 3963.00    0.75487   0.36196    0.000
 3964.00    0.48098   0.28461    0.000
 3965.00    0.37250   0.23253    0.000
 3966.00    0.33849   0.22273    0.000
 3967.00    0.65412   0.25676    0.000
 3968.00    0.88079   0.31938    0.000
 3969.00    0.76656   0.38811    0.000
 3970.00    0.70169   0.45252    0.000
 3971.00    0.79459   0.51570    0.000
 3972.00    0.87576   0.57437    0.000
 3973.00    0.92513   0.62112    0.000
 3974.00    1.02345   0.66538    0.000
 3975.00    1.23545   0.71525    0.000
 3976.00    1.37713   0.76181    0.000
 3977.00    1.37756   0.78954    0.000
 3978.00    1.29055   0.79050    0.000
 3979.00    1.05055   0.78238    0.000
 3980.00    0.87879   0.78831    0.000
 3981.00    0.81148   0.80862    0.042
 3982.00    0.84264   0.82940    0.042
 3983.00    1.00621   0.84409    0.042
 3984.00    1.13396   0.86510    0.043
 3985.00    1.21927   0.88682    0.043
 3986.00    1.16643   0.88656    0.043
 3987.00    0.96936   0.88283    0.042
 3988.00    0.86417   0.89987    0.041
 3989.00    0.84364   0.92359    0.041
 3990.00    0.72573   0.93250    0.040
 3991.00    0.52877   0.92256    0.040
 3992.00    0.57259   0.90303    0.040
 3993.00    0.78844   0.87889    0.040
 3994.00    1.02211   0.86287    0.040
 3995.00    1.26694   0.88058    0.040
 3996.00    1.27026   0.92687    0.040
 3997.00    1.14122   0.95946    0.040
 3998.00    1.18563   0.96768    0.040
 3999.00    1.31267   0.97379    0.040
 4000.00    1.10285   0.96436    0.039
 4001.00    0.75457   0.91181    0.038
 4002.00    0.80745   0.85485    0.039
 4003.00    1.00121   0.85880    0.039
 4004.00    0.96538   0.91194    0.039
 4005.00    0.86151   0.95546    0.039
 4006.00    0.93709   0.97001    0.039
 4007.00    1.05674   0.97305    0.039
 4008.00    1.24697   0.97432    0.039
 4009.00    1.45122   0.97336    0.040
 4010.00    1.33431   0.97496    0.039
 4011.00    1.16750   0.98283    0.039
 4012.00    0.94929   0.99354    0.038
 4013.00    0.72517   0.98964    0.037
 4014.00    0.80174   0.97665    0.038
 4015.00    0.90155   0.98750    0.039
 4016.00    1.00937   1.01329    0.040
 4017.00    1.11753   1.01591    0.040
 4018.00    0.90411   0.99987    0.040
 4019.00    0.69606   0.98924    0.039
 4020.00    0.85221   0.97783    0.039
 4021.00    1.00758   0.96188    0.039
 4022.00    1.14929   0.96849    0.040
 4023.00    1.26615   1.00222    0.040
 4024.00    1.11560   1.03121    0.040
 4025.00    0.96762   1.02966    0.040
 4026.00    0.83916   0.98375    0.040
 4027.00    0.74011   0.91259    0.041
 4028.00    0.81073   0.86736    0.041
 4029.00    0.85907   0.85924    0.041
 4030.00    0.80534   0.86812    0.041
 4031.00    0.78056   0.89354    0.040
 4032.00    0.86434   0.93897    0.040
 4033.00    0.95959   0.99617    0.040
 4034.00    1.09083   1.04159    0.040
 4035.00    1.14626   1.05247    0.040
 4036.00    1.00000   1.03185    0.039
 4037.00    0.89741   1.00539    0.039
 4038.00    0.89452   1.00111    0.039
 4039.00    0.85368   1.00764    0.040
 4040.00    0.73782   0.97212    0.040
 4041.00    0.67023   0.88210    0.041
 4042.00    0.68579   0.80703    0.041
 4043.00    0.70480   0.82292    0.041
 4044.00    0.72901   0.90824    0.041
 4045.00    0.88894   0.97733    0.041
 4046.00    1.22878   1.00637    0.042
 4047.00    1.41098   1.01902    0.043
 4048.00    1.40913   1.01442    0.042
 4049.00    1.38528   0.99103    0.042
 4050.00    1.33880   0.96394    0.042
 4051.00    1.32114   0.94325    0.042
 4052.00    1.32965   0.93487    0.041
 4053.00    1.27184   0.92870    0.041
 4054.00    1.16096   0.91214    0.040
 4055.00    1.17593   0.91138    0.040
 4056.00    1.27953   0.94637    0.041
 4057.00    1.31586   0.98204    0.041
 4058.00    1.31064   0.96757    0.041
 4059.00    1.20725   0.89799    0.041
 4060.00    1.05088   0.83574    0.040
 4061.00    0.90344   0.84554    0.040
 4062.00    0.76017   0.89586    0.040
 4063.00    0.70860   0.91651    0.039
 4064.00    0.69407   0.92408    0.039
 4065.00    0.77261   0.96018    0.038
 4066.00    0.88324   0.98624    0.038
 4067.00    0.86600   0.94871    0.038
 4068.00    0.81163   0.88849    0.038
 4069.00    0.87687   0.88834    0.038
 4070.00    0.97083   0.93765    0.038
 4071.00    1.06579   0.95631    0.039
 4072.00    1.16095   0.91483    0.039
 4073.00    1.08232   0.84594    0.039
 4074.00    0.97750   0.80533    0.039
 4075.00    0.79390   0.82773    0.038
 4076.00    0.60158   0.89278    0.037
 4077.00    0.68970   0.95679    0.038
 4078.00    0.79835   0.98604    0.038
 4079.00    0.81080   0.96905    0.038
 4080.00    0.81957   0.93111    0.038
 4081.00    0.87485   0.90571    0.038
 4082.00    0.93461   0.90552    0.039
 4083.00    1.15305   0.93034    0.039
 4084.00    1.34902   0.96660    0.039
 4085.00    1.17453   0.98748    0.039
 4086.00    1.01171   0.97913    0.039
 4087.00    0.96905   0.95286    0.039
 4088.00    0.92643   0.92343    0.038
 4089.00    0.88409   0.90222    0.038
 4090.00    0.85769   0.89301    0.038
 4091.00    0.92068   0.86958    0.039
 4092.00    0.98397   0.81740    0.000
 4093.00    1.04857   0.76814    0.000
 4094.00    1.03680   0.74066    0.000
 4095.00    0.74454   0.71623    0.000
 4096.00    0.53579   0.66879    0.000
 4097.00    0.58387   0.59329    0.000
 4098.00    0.71218   0.53388    0.000
 4099.00    1.05020   0.54565    0.000
 4100.00    1.24665   0.61358    0.000
 4101.00    1.12515   0.68650    0.000
 4102.00    1.09720   0.74730    0.000
 4103.00    1.25131   0.79216    0.000
 4104.00    1.20174   0.81518    0.000
 4105.00    0.80658   0.82233    0.000
 4106.00    0.58502   0.82203    0.000
 4107.00    0.62152   0.82420    0.000
 4108.00    0.70840   0.83878    0.000
 4109.00    0.86111   0.86710    0.000
 4110.00    0.98849   0.90032    0.000
 4111.00    1.08672   0.92657    0.000
 4112.00    1.11654   0.94508    0.000
 4113.00    1.07693   0.95331    0.040
 4114.00    0.93210   0.93680    0.040
 4115.00    0.69309   0.90523    0.039
 4116.00    0.69113   0.89674    0.039
 4117.00    0.87622   0.91530    0.038
 4118.00    0.79101   0.92656    0.038
 4119.00    0.51822   0.92485    0.038
 4120.00    0.53944   0.93431    0.038
 4121.00    0.73958   0.95832    0.038
 4122.00    0.74843   0.96995    0.038
 4123.00    0.65566   0.95410    0.038
 4124.00    0.72246   0.92777    0.038
 4125.00    0.86283   0.91475    0.039
 4126.00    1.08389   0.91577    0.039
 4127.00    1.33699   0.90755    0.039
 4128.00    1.24250   0.87974    0.039
 4129.00    1.03038   0.85665    0.039
 4130.00    0.92707   0.86444    0.038
 4131.00    0.85472   0.90031    0.037
 4132.00    0.92587   0.94895    0.037
 4133.00    1.03071   0.98224    0.037
 4134.00    1.08440   0.99300    0.037
 4135.00    1.12842   1.00520    0.037
 4136.00    0.91999   1.01779    0.037
 4137.00    0.67469   1.01204    0.036
 4138.00    0.65475   0.97045    0.036
 4139.00    0.65876   0.89463    0.035
 4140.00    0.93903   0.84055    0.037
 4141.00    1.23841   0.86111    0.038
 4142.00    1.18854   0.92380    0.038
 4143.00    1.12663   0.96621    0.037
 4144.00    1.10394   0.97640    0.038
 4145.00    1.08048   0.96638    0.039
 4146.00    1.02879   0.94860    0.037
 4147.00    0.98022   0.94198    0.036
 4148.00    0.97971   0.94593    0.037
 4149.00    0.96646   0.94196    0.037
 4150.00    0.82759   0.92643    0.038
 4151.00    0.70197   0.91283    0.038
 4152.00    0.67053   0.91111    0.037
 4153.00    0.65746   0.91644    0.037
 4154.00    0.74466   0.93291    0.037
 4155.00    0.82245   0.96152    0.036
 4156.00    0.85908   0.98280    0.036
 4157.00    0.88102   0.98755    0.036
 4158.00    0.85016   0.99267    0.036
 4159.00    0.78244   1.00770    0.036
 4160.00    0.60350   1.01310    0.036
 4161.00    0.53886   1.00304    0.035
 4162.00    0.76777   0.98818    0.036
 4163.00    0.95882   0.96615    0.036
 4164.00    1.06626   0.94997    0.037
 4165.00    1.08210   0.96250    0.038
 4166.00    0.92247   0.98219    0.037
 4167.00    0.89845   0.96539    0.037
 4168.00    1.10105   0.90823    0.038
 4169.00    1.20843   0.85423    0.038
 4170.00    1.17632   0.84743    0.037
 4171.00    1.03108   0.87916    0.037
 4172.00    0.74013   0.90898    0.037
 4173.00    0.71984   0.91296    0.037
 4174.00    1.00669   0.90021    0.038
 4175.00    1.08276   0.90292    0.039
 4176.00    0.94787   0.92924    0.038
 4177.00    0.93144   0.94580    0.038
 4178.00    1.01957   0.93550    0.038
 4179.00    1.07588   0.92620    0.038
 4180.00    1.10744   0.94036    0.038
 4181.00    1.08138   0.96701    0.038
 4182.00    1.01593   0.97463    0.038
 4183.00    1.09790   0.94168    0.038
 4184.00    1.26824   0.90715    0.038
 4185.00    1.19201   0.92122    0.038
 4186.00    0.98684   0.95772    0.038
 4187.00    0.91244   0.96833    0.038
 4188.00    0.89737   0.96813    0.037
 4189.00    0.92817   0.99198    0.038
 4190.00    0.97686   1.01460    0.039
 4191.00    0.98108   0.99386    0.038
 4192.00    0.97053   0.94684    0.037
 4193.00    0.95044   0.91096    0.037
 4194.00    0.92769   0.88561    0.037
 4195.00    1.00360   0.87107    0.038
 4196.00    1.10214   0.88378    0.038
 4197.00    1.07231   0.90001    0.038
 4198.00    1.01888   0.89446    0.038
 4199.00    0.88047   0.89577    0.037
 4200.00    0.73006   0.91842    0.037
 4201.00    0.79229   0.94005    0.036
 4202.00    0.87620   0.95891    0.036
 4203.00    0.97846   0.98245    0.035
 4204.00    1.08191   1.00133    0.035
 4205.00    0.98506   1.00324    0.035
 4206.00    0.88213   0.98950    0.034
 4207.00    0.81970   0.98414    0.035
 4208.00    0.76758   0.99980    0.036
 4209.00    1.01822   1.01139    0.036
 4210.00    1.24506   0.99089    0.037
 4211.00    1.12523   0.93787    0.036
 4212.00    1.02736   0.89469    0.036
 4213.00    1.13706   0.91404    0.036
 4214.00    1.21907   0.97572    0.036
 4215.00    1.11060   1.01960    0.035
 4216.00    1.01769   1.03613    0.035
 4217.00    1.00748   1.04280    0.035
 4218.00    0.95311   1.03253    0.034
 4219.00    0.71019   0.99456    0.034
 4220.00    0.52709   0.93743    0.034
 4221.00    0.55475   0.86394    0.035
 4222.00    0.58956   0.77596    0.035
 4223.00    0.64560   0.71897    0.034
 4224.00    0.68767   0.75848    0.034
 4225.00    0.69449   0.87242    0.033
 4226.00    0.78258   0.96936    0.033
 4227.00    1.04723   1.01417    0.033
 4228.00    1.20303   1.01325    0.034
 4229.00    1.15358   0.97397    0.033
 4230.00    1.11326   0.93987    0.033
 4231.00    1.08797   0.93448    0.033
 4232.00    1.08989   0.92740    0.033
 4233.00    1.13109   0.92059    0.032
 4234.00    1.12282   0.93175    0.032
 4235.00    1.05175   0.94201    0.032
 4236.00    1.01454   0.95062    0.032
 4237.00    1.01522   0.97522    0.032
 4238.00    1.05889   0.99960    0.031
 4239.00    1.14497   1.00855    0.031
 4240.00    1.15285   1.02562    0.031
 4241.00    1.09268   1.04862    0.032
 4242.00    0.99339   1.03723    0.032
 4243.00    0.86412   0.99136    0.032
 4244.00    0.83516   0.95230    0.032
 4245.00    0.87380   0.93308    0.033
 4246.00    0.91130   0.91210    0.033
 4247.00    0.94811   0.90154    0.034
 4248.00    0.94127   0.92996    0.034
 4249.00    0.91196   0.96076    0.034
 4250.00    0.88700   0.94674    0.034
 4251.00    0.86398   0.92080    0.034
 4252.00    0.84925   0.93968    0.034
 4253.00    0.83770   0.98951    0.034
 4254.00    0.99356   1.00496    0.034
 4255.00    1.20398   0.96318    0.034
 4256.00    1.06857   0.90292    0.034
 4257.00    0.83875   0.87420    0.034
 4258.00    0.77885   0.90677    0.033
 4259.00    0.75701   0.97830    0.033
 4260.00    0.69066   1.03415    0.034
 4261.00    0.61633   1.05798    0.034
 4262.00    0.72145   1.06522    0.035
 4263.00    0.85112   1.05197    0.035
 4264.00    1.25384   1.01677    0.035
 4265.00    1.68324   0.97958    0.036
 4266.00    1.33054   0.93694    0.035
 4267.00    0.93001   0.87160    0.035
 4268.00    0.93043   0.81749    0.035
 4269.00    0.94067   0.82024    0.034
 4270.00    0.75522   0.84806    0.035
 4271.00    0.57704   0.86433    0.035
 4272.00    0.59057   0.90011    0.034
 4273.00    0.60517   0.96437    0.033
 4274.00    0.63449   1.01506    0.034
 4275.00    0.68814   1.02162    0.034
 4276.00    0.96277   0.98939    0.034
 4277.00    1.19144   0.95635    0.035
 4278.00    1.11393   0.94822    0.035
 4279.00    1.00406   0.95562    0.035
 4280.00    0.72665   0.96480    0.035
 4281.00    0.52735   0.95919    0.035
 4282.00    0.65411   0.94054   -2.000
 4283.00    0.73081   0.93198   -2.000
 4284.00    0.63470   0.92221   -2.000
 4285.00    0.57474   0.87896   -2.000
 4286.00    0.61985   0.82395   -2.000
 4287.00    0.73828   0.82039   -2.000
 4288.00    1.03859   0.87723   -2.000
 4289.00    1.21722   0.93458   -2.000
 4290.00    1.13575   0.94408   -2.000
 4291.00    1.03185   0.92600   -2.000
 4292.00    0.88633   0.91669   -2.000
 4293.00    0.79288   0.90464   -2.000
 4294.00    0.78386   0.86720   -2.000
 4295.00    0.81807   0.80341   -2.000
 4296.00    0.91378   0.74673   -2.000
 4297.00    1.04560   0.73793   -2.000
 4298.00    1.22261   0.75706    0.037
 4299.00    1.25110   0.77052    0.036
 4300.00    1.11574   0.78783    0.036
 4301.00    0.94320   0.80479    0.035
 4302.00    0.73449   0.79997    0.034
 4303.00    0.63870   0.77095    0.034
 4304.00    0.63980   0.73112    0.035
 4305.00    0.61071   0.71435    0.035
 4306.00    0.55881   0.74030    0.034
 4307.00    0.75888   0.78659    0.035
 4308.00    1.12629   0.82602    0.036
 4309.00    1.15865   0.85096    0.036
 4310.00    0.99616   0.86747    0.035
 4311.00    0.95012   0.90207    0.034
 4312.00    0.96310   0.97790    0.034
 4313.00    0.88939   1.05653    0.034
 4314.00    0.77764   1.08456    0.033
 4315.00    0.80894   1.07012    0.033
 4316.00    0.89412   1.04291    0.033
 4317.00    1.00124   1.01389    0.033
 4318.00    1.11536   0.98944    0.034
 4319.00    1.22143   0.95140    0.034
 4320.00    1.32535   0.87627    0.034
 4321.00    1.30638   0.78815    0.034
 4322.00    1.26053   0.74597    0.034
 4323.00    1.27316   0.79304    0.034
 4324.00    1.29596   0.89598    0.034
 4325.00    1.19990   0.96997    0.034
 4326.00    1.08812   0.97702    0.035
 4327.00    1.11396   0.95320    0.034
 4328.00    1.15266   0.94335    0.034
 4329.00    1.18488   0.94573    0.034
 4330.00    1.21673   0.94562    0.000
 4331.00    1.12755   0.94310    0.000
 4332.00    1.03671   0.91719    0.000
 4333.00    1.07883   0.83767    0.000
 4334.00    1.11632   0.73127    0.000
 4335.00    1.04243   0.64552    0.000
 4336.00    0.96939   0.58513    0.000
 4337.00    0.90731   0.57180    0.000
 4338.00    0.85923   0.63466    0.000
 4339.00    0.93346   0.72324    0.000
 4340.00    1.03221   0.78059    0.000
 4341.00    1.28933   0.82454    0.000
 4342.00    1.48681   0.86848    0.000
 4343.00    1.38338   0.89544    0.000
 4344.00    1.24238   0.92094    0.000
 4345.00    0.94807   0.95991    0.000
 4346.00    0.75608   0.96804    0.000
 4347.00    0.91024   0.90633    0.000
 4348.00    1.01445   0.83085    0.000
 4349.00    0.97612   0.82771    0.000
 4350.00    0.97006   0.88562    0.000
 4351.00    1.04268   0.93680    0.033
 4352.00    1.12765   0.97021    0.033
 4353.00    1.23863   0.99916    0.033
 4354.00    1.28311   1.00265    0.033
 4355.00    1.20600   0.97759    0.033
 4356.00    1.10798   0.97025    0.033
 4357.00    0.97655   1.00381    0.033
 4358.00    0.95041   1.04129    0.033
 4359.00    1.07189   1.05379    0.032
 4360.00    1.07541   1.06380    0.032
 4361.00    0.93337   1.08643    0.032
 4362.00    0.87376   1.08794    0.032
 4363.00    0.90378   1.04808    0.032
 4364.00    0.99173   1.00390    0.032
 4365.00    1.13525   0.99349    0.032
 4366.00    1.21943   1.00490    0.032
 4367.00    1.25343   1.01598    0.032
 4368.00    1.17773   1.02254    0.032
 4369.00    1.02032   1.00874    0.033
 4370.00    0.83158   0.96198    0.032
 4371.00    0.62234   0.91568    0.031
 4372.00    0.61599   0.92150    0.031
 4373.00    0.72585   0.98054    0.032
 4374.00    0.88647   1.04007    0.032
 4375.00    1.07241   1.05957    0.032
 4376.00    1.05480   1.04661    0.032
 4377.00    0.94936   1.02136    0.033
 4378.00    0.94393   0.96607    0.033
 4379.00    0.97552   0.86053    0.032
 4380.00    1.02329   0.76647    0.032
 4381.00    1.07613   0.77100    0.032
 4382.00    0.97253   0.86112    0.032
 4383.00    0.82799   0.94593    0.032
 4384.00    0.76046   0.97662    0.032
 4385.00    0.70939   0.97423    0.032
 4386.00    0.82904   0.96460    0.031
 4387.00    0.97756   0.96342    0.031
 4388.00    0.94717   0.98296    0.031
 4389.00    0.89392   1.00429    0.031
 4390.00    0.98153   0.99607    0.031
 4391.00    1.08171   0.97419    0.031
 4392.00    1.07319   0.98966    0.031
 4393.00    1.05887   1.04354    0.031
 4394.00    1.09745   1.07663    0.031
 4395.00    1.13497   1.05564    0.030
 4396.00    1.00278   1.00384    0.031
 4397.00    0.88306   0.97499    0.031
 4398.00    1.03762   0.99753    0.031
 4399.00    1.17268   1.01316    0.032
 4400.00    1.06689   0.95981    0.032
 4401.00    0.97488   0.89546    0.033
 4402.00    0.99883   0.90328    0.032
 4403.00    1.03076   0.94691    0.032
 4404.00    1.11274   0.96099    0.032
 4405.00    1.16165   0.97183    0.032
 4406.00    1.04795   1.01680    0.032
 4407.00    0.96780   1.06909    0.032
 4408.00    1.02155   1.10065    0.032
 4409.00    1.06368   1.10337    0.032
 4410.00    1.06720   1.05639    0.032
 4411.00    1.04325   0.97785    0.032
 4412.00    0.94232   0.94051    0.031
 4413.00    0.87178   0.96573    0.031
 4414.00    0.87408   1.01496    0.032
 4415.00    0.88822   1.06674    0.033
 4416.00    0.92690   1.10235    0.033
 4417.00    0.91729   1.09436    0.032
 4418.00    0.82076   1.04976    0.032
 4419.00    0.82024   1.01643    0.032
 4420.00    0.97085   1.02305    0.032
 4421.00    1.06547   1.04143    0.032
 4422.00    1.08273   1.04285    0.033
 4423.00    1.03840   1.03848    0.033
 4424.00    0.91914   1.04730    0.032
 4425.00    0.98422   1.05587    0.032
 4426.00    1.24696   1.03966    0.032
 4427.00    1.26696   1.02568    0.032
 4428.00    1.05739   1.04048    0.032
 4429.00    0.89907   1.04419    0.032
 4430.00    0.78351   1.00521    0.033
 4431.00    0.77570   0.95655    0.033
 4432.00    0.84701   0.95358    0.033
 4433.00    0.98480   1.00862    0.033
 4434.00    1.16546   1.07885    0.033
 4435.00    1.14877   1.12135    0.033
 4436.00    1.02076   1.11865    0.033
 4437.00    0.98316   1.07362    0.033
 4438.00    0.98994   1.01298    0.032
 4439.00    1.02997   0.97387    0.033
 4440.00    1.08409   0.98461    0.034
 4441.00    1.10856   1.04102    0.034
 4442.00    1.12225   1.09317    0.033
 4443.00    1.15918   1.10263    0.033
 4444.00    1.20326   1.09577    0.033
 4445.00    1.08920   1.09602    0.033
 4446.00    0.93465   1.08556    0.034
 4447.00    0.88312   1.07308    0.033
 4448.00    0.85307   1.07579    0.032
 4449.00    1.06108   1.06650    0.032
 4450.00    1.30820   1.01972    0.033
 4451.00    1.39942   0.96221    0.033
 4452.00    1.47143   0.94454    0.033
 4453.00    1.30516   0.96632    0.032
 4454.00    1.11863   0.98197    0.032
 4455.00    1.01046   0.97730    0.032
 4456.00    0.90616   0.97000    0.032
 4457.00    1.09086   0.95954    0.032
 4458.00    1.27780   0.95459    0.032
 4459.00    1.31573   0.98604    0.032
 4460.00    1.34910   1.03348    0.032
 4461.00    1.28988   1.05118    0.000
 4462.00    1.22837   1.04571    0.000
 4463.00    1.13981   1.04060    0.000
 4464.00    1.05755   1.03182    0.000
 4465.00    1.02642   1.01429    0.000
 4466.00    1.00601   1.00914    0.000
 4467.00    1.05077   1.03039    0.000
 4468.00    1.10088   1.06479    0.000
 4469.00    1.17666   1.09895    0.000
 4470.00    1.24324   1.12207    0.000
 4471.00    1.27388   1.12460    0.000
 4472.00    1.31812   1.12320    0.000
 4473.00    1.40660   1.14017    0.000
 4474.00    1.47701   1.15468    0.000
 4475.00    1.49773   1.12777    0.000
 4476.00    1.43830   1.05854    0.000
 4477.00    1.18998   0.98860    0.000
 4478.00    1.02711   0.96716    0.000
 4479.00    1.03825   1.00902    0.000
 4480.00    1.06067   1.07828    0.000
 4481.00    1.10307   1.13073    0.000
 4482.00    1.08930   1.15364    0.031
 4483.00    0.98841   1.14624    0.032
 4484.00    0.96438   1.10648    0.032
 4485.00    1.04502   1.05393    0.032
 4486.00    1.16657   1.02716    0.032
 4487.00    1.33718   1.04466    0.032
 4488.00    1.34244   1.08322    0.032
 4489.00    1.17288   1.09844    0.032
 4490.00    1.13680   1.07112    0.031
 4491.00    1.22518   1.03529    0.031
 4492.00    1.24937   1.03012    0.031
 4493.00    1.22081   1.05666    0.032
 4494.00    1.16526   1.09657    0.032
 4495.00    1.09019   1.12653    0.032
 4496.00    1.01064   1.12653    0.032
 4497.00    0.92825   1.10159    0.032
 4498.00    1.03863   1.09582    0.032
 4499.00    1.25609   1.13723    0.031
 4500.00    1.30671   1.18719    0.031
 4501.00    1.27672   1.20340    0.032
 4502.00    1.15133   1.18924    0.032
 4503.00    0.98613   1.16428    0.032
 4504.00    1.01989   1.14554    0.032
 4505.00    1.12465   1.14607    0.032
 4506.00    1.06369   1.16249    0.031
 4507.00    0.95275   1.17202    0.031
 4508.00    1.09391   1.15759    0.031
 4509.00    1.29821   1.12952    0.031
 4510.00    1.28727   1.10518    0.031
 4511.00    1.23257   1.09534    0.031
 4512.00    1.19639   1.10202    0.031
 4513.00    1.16315   1.10637    0.031
 4514.00    1.14909   1.09961    0.031
 4515.00    1.13731   1.10337    0.031
 4516.00    0.95859   1.12421    0.031
 4517.00    0.76636   1.14013    0.030
 4518.00    0.92156   1.12695    0.031
 4519.00    1.09255   1.09610    0.032
 4520.00    1.11583   1.08026    0.031
 4521.00    1.13560   1.06991    0.030
 4522.00    1.06932   1.04230    0.031
 4523.00    1.01034   1.00587    0.031
 4524.00    1.08829   0.97674    0.031
 4525.00    1.13712   0.96651    0.031
 4526.00    0.85964   0.97927    0.031
 4527.00    0.63085   1.00502    0.030
 4528.00    0.78317   1.03052    0.030
 4529.00    0.94043   1.03056    0.030
 4530.00    1.12700   0.99834    0.030
 4531.00    1.27025   0.97445    0.031
 4532.00    1.21069   1.00319    0.031
 4533.00    1.17755   1.07808    0.031
 4534.00    1.24536   1.13606    0.031
 4535.00    1.28373   1.13726    0.031
 4536.00    1.22821   1.10452    0.031
 4537.00    1.17767   1.07905    0.031
 4538.00    1.14057   1.08516    0.031
 4539.00    1.07519   1.10640    0.031
 4540.00    0.94429   1.10429    0.030
 4541.00    0.86284   1.08149    0.030
 4542.00    0.88054   1.07311    0.030
 4543.00    0.97483   1.07950    0.030
 4544.00    1.20282   1.06887    0.031
 4545.00    1.28688   1.03452    0.031
 4546.00    1.15097   1.02061    0.030
 4547.00    1.09598   1.04955    0.030
 4548.00    1.14960   1.07441    0.031
 4549.00    1.13487   1.06470    0.031
 4550.00    1.03933   1.03833    0.000
 4551.00    1.03096   1.02184    0.000
 4552.00    1.11346   1.03815    0.000
 4553.00    1.15626   1.08383    0.000
 4554.00    1.16256   1.12326    0.000
 4555.00    1.05269   1.13877    0.000
 4556.00    0.84866   1.14356    0.000
 4557.00    0.89571   1.14911    0.000
 4558.00    1.12181   1.14735    0.000
 4559.00    1.22854   1.11926    0.000
 4560.00    1.26055   1.07461    0.000
 4561.00    1.19726   1.05069    0.000
 4562.00    1.08184   1.06843    0.000
 4563.00    1.04637   1.11504    0.000
 4564.00    1.04890   1.15319    0.000
 4565.00    1.09532   1.16033    0.000
 4566.00    1.15974   1.13888    0.000
 4567.00    1.20369   1.09595    0.000
 4568.00    1.24046   1.07180    0.000
 4569.00    1.28139   1.10073    0.000
 4570.00    1.32355   1.13966    0.000
 4571.00    1.36146   1.14628    0.000
 4572.00    1.39833   1.13977    0.000
 4573.00    1.19115   1.13733    0.000
 4574.00    0.93560   1.12597    0.000
 4575.00    1.00090   1.09488    0.000
 4576.00    1.11586   1.05763    0.000
 4577.00    0.99919   1.04082    0.000
 4578.00    0.85601   1.05074    0.000
 4579.00    1.06669   1.06221    0.000
 4580.00    1.30455   1.06035    0.000
 4581.00    1.29348   1.05607    0.000
 4582.00    1.27205   1.05884    0.000
 4583.00    1.26976   1.07729    0.000
 4584.00    1.26471   1.10810    0.000
 4585.00    1.13380   1.13146    0.000
 4586.00    1.01666   1.13205    0.000
 4587.00    1.14015   1.10913    0.000
 4588.00    1.24780   1.08141    0.000
 4589.00    1.18585   1.07116    0.000
 4590.00    1.14315   1.07386    0.000
 4591.00    1.24587   1.07263    0.000
 4592.00    1.30007   1.07121    0.000
 4593.00    1.07534   1.07697    0.000
 4594.00    0.88789   1.08680    0.000
 4595.00    0.87072   1.09438    0.000
 4596.00    0.89513   1.08670    0.000
 4597.00    1.07515   1.07515    0.000
 4598.00    1.19839   1.08042    0.000
 4599.00    1.14406   1.09155    0.000
 4600.00    1.11722   1.09412    0.000
 4601.00    1.16334   1.08927    0.000
 4602.00    1.21506   1.09201    0.000
 4603.00    1.27954   1.11430    0.000
 4604.00    1.25876   1.15080    0.000
 4605.00    1.06973   1.18051    0.000
 4606.00    1.03429   1.18167    0.000
 4607.00    1.26291   1.15882    0.000
 4608.00    1.32416   1.13603    0.000
 4609.00    1.13341   1.12445    0.000
 4610.00    1.01775   1.12823    0.000
 4611.00    1.00148   1.14157    0.000
 4612.00    0.95247   1.14558    0.000
 4613.00    0.86530   1.14488    0.000
 4614.00    0.90132   1.14097    0.000
 4615.00    1.06396   1.12596    0.000
 4616.00    1.14220   1.12337    0.000
 4617.00    1.14394   1.14315    0.000
 4618.00    1.17660   1.15572    0.000
 4619.00    1.23397   1.15498    0.000
 4620.00    1.18416   1.15391    0.000
 4621.00    1.05903   1.14659    0.000
 4622.00    1.01314   1.13693    0.000
 4623.00    1.01611   1.13835    0.000
 4624.00    1.03931   1.13867    0.000
 4625.00    1.07340   1.12572    0.000
 4626.00    1.14410   1.12354    0.000
 4627.00    1.23193   1.14429    0.000
 4628.00    1.15574   1.15230    0.000
 4629.00    1.01344   1.12976    0.000
 4630.00    1.17200   1.10718    0.000
 4631.00    1.43406   1.10456    0.000
 4632.00    1.48604   1.10698    0.000
 4633.00    1.47717   1.09671    0.000
 4634.00    1.28217   1.08034    0.000
 4635.00    1.04260   1.07136    0.000
 4636.00    1.04756   1.07349    0.000
 4637.00    1.09974   1.09362    0.000
 4638.00    1.08657   1.11803    0.000
 4639.00    1.06360   1.12040    0.000
 4640.00    1.11386   1.10397    0.000
 4641.00    1.17218   1.07783    0.000
 4642.00    1.12694   1.03979    0.000
 4643.00    1.07416   1.01075    0.000
 4644.00    1.03471   1.01430    0.000
 4645.00    0.99577   1.04386    0.000
 4646.00    0.98510   1.07921    0.000
 4647.00    0.97327   1.10438    0.000
 4648.00    0.91319   1.11721    0.000
 4649.00    0.87495   1.11809    0.000
 4650.00    1.19367   1.09785    0.000
 4651.00    1.45901   1.06948    0.000
 4652.00    1.17801   1.05917    0.000
 4653.00    0.94851   1.07727    0.000
 4654.00    1.09537   1.12113    0.000
 4655.00    1.21985   1.16791    0.000
 4656.00    1.21920   1.18804    0.000
 4657.00    1.18138   1.17277    0.000
 4658.00    0.97774   1.13720    0.000
 4659.00    0.85880   1.10396    0.000
 4660.00    1.05012   1.08888    0.000
 4661.00    1.16810   1.07862    0.000
 4662.00    1.06102   1.03909    0.000
 4663.00    1.00415   0.98038    0.000
 4664.00    1.07820   0.95848    0.000
 4665.00    1.08025   0.99247    0.000
 4666.00    0.92090   1.04778    0.000
 4667.00    0.87506   1.09054    0.000
 4668.00    1.04969   1.10508    0.000
 4669.00    1.11652   1.09720    0.000
 4670.00    1.00078   1.09075    0.000
 4671.00    0.93292   1.10238    0.000
 4672.00    0.93611   1.12608    0.000
 4673.00    1.00007   1.13464    0.000
 4674.00    1.14330   1.11392    0.000
 4675.00    1.22774   1.08356    0.000
 4676.00    1.24462   1.06336    0.000
 4677.00    1.23453   1.05497    0.000
 4678.00    1.19713   1.06149    0.000
 4679.00    1.05324   1.08445    0.000
 4680.00    0.81420   1.10623    0.000
 4681.00    0.81288   1.11310    0.000
 4682.00    0.99879   1.11008    0.000
 4683.00    1.08906   1.10144    0.000
 4684.00    1.11308   1.09355    0.000
 4685.00    1.10049   1.09331    0.000
 4686.00    1.06566   1.09190    0.000
 4687.00    1.09588   1.08410    0.000
 4688.00    1.16059   1.08329    0.000
 4689.00    1.14208   1.09419    0.000
 4690.00    1.08526   1.10991    0.000
 4691.00    1.02932   1.12851    0.000
 4692.00    0.97371   1.14053    0.000
 4693.00    1.04897   1.12655    0.000
 4694.00    1.16842   1.08728    0.000
 4695.00    1.23174   1.05675    0.000
 4696.00    1.27912   1.05528    0.000
 4697.00    1.24024   1.05811    0.000
 4698.00    1.18118   1.04415    0.000
 4699.00    1.20909   1.03089    0.000
 4700.00    1.25337   1.04533    0.000
 4701.00    1.20340   1.07427    0.000
 4702.00    1.13972   1.08191    0.000
 4703.00    1.06641   1.06297    0.000
 4704.00    0.99207   1.04232    0.000
 4705.00    1.02060   1.03862    0.000
 4706.00    1.05620   1.05849    0.000
 4707.00    1.15001   1.09345    0.000
 4708.00    1.24581   1.11326    0.000
 4709.00    1.06813   1.10125    0.000
 4710.00    0.89745   1.07367    0.000
 4711.00    0.96820   1.06605    0.000
 4712.00    1.03725   1.09308    0.000
 4713.00    1.07999   1.12588    0.000
 4714.00    1.11538   1.14266    0.000
 4715.00    1.07856   1.15422    0.000
 4716.00    1.04940   1.16377    0.000
 4717.00    1.07444   1.15995    0.000
 4718.00    1.10453   1.14540    0.000
 4719.00    1.16209   1.14026    0.000
 4720.00    1.21697   1.15384    0.000
 4721.00    1.26022   1.16687    0.000
 4722.00    1.27820   1.15035    0.000
 4723.00    1.20555   1.10001    0.000
 4724.00    1.14628   1.05080    0.000
 4725.00    1.12735   1.03398    0.000
 4726.00    1.11141   1.04027    0.000
 4727.00    1.10314   1.05327    0.000
 4728.00    1.12788   1.07348    0.000
 4729.00    1.22540   1.09474    0.000
 4730.00    1.27215   1.10902    0.000
 4731.00    1.22182   1.11334    0.000
 4732.00    1.16769   1.09829    0.000
 4733.00    1.10722   1.08481    0.000
 4734.00    1.07050   1.10281    0.000
 4735.00    1.06853   1.12655    0.000
 4736.00    1.06524   1.12370    0.000
 4737.00    1.06025   1.11049    0.000
 4738.00    1.05473   1.11310    0.000
 4739.00    1.04860   1.12753    0.000
 4740.00    1.05645   1.13246    0.000
 4741.00    1.07825   1.12826    0.000
 4742.00    1.11590   1.13449    0.000
 4743.00    1.16750   1.14650    0.000
 4744.00    1.16937   1.14794    0.000
 4745.00    1.13262   1.14541    0.000
 4746.00    1.11569   1.14742    0.000
 4747.00    1.11230   1.14431    0.000
 4748.00    1.10777   1.12919    0.000
 4749.00    1.10256   1.11177    0.000
 4750.00    1.10509   1.09903    0.000
 4751.00    1.11166   1.09262    0.000
 4752.00    1.14403   1.09131    0.000
 4753.00    1.18808   1.09563    0.000
 4754.00    1.09308   1.10651    0.000
 4755.00    0.94393   1.11994    0.000
 4756.00    0.96786   1.12542    0.000
 4757.00    1.04915   1.10797    0.000
 4758.00    1.15879   1.07440    0.000
 4759.00    1.27633   1.05140    0.000
 4760.00    1.26697   1.04138    0.000
 4761.00    1.22858   1.03037    0.025
 4762.00    1.14889   1.02550    0.025
 4763.00    1.06164   1.04095    0.025
 4764.00    1.05429   1.07101    0.025
 4765.00    1.05819   1.10128    0.025
 4766.00    1.09161   1.11493    0.025
 4767.00    1.12803   1.10207    0.026
 4768.00    1.09431   1.08556    0.026
 4769.00    1.05604   1.09437    0.026
 4770.00    1.19781   1.12263    0.026
 4771.00    1.34467   1.14030    0.026
 4772.00    1.31278   1.13989    0.025
 4773.00    1.27703   1.14086    0.025
 4774.00    1.12975   1.14240    0.025
 4775.00    0.99385   1.13279    0.025
 4776.00    1.02250   1.12206    0.025
 4777.00    1.04780   1.11750    0.025
 4778.00    1.04163   1.10595    0.025
 4779.00    1.03793   1.08727    0.025
 4780.00    1.05123   1.08387    0.025
 4781.00    1.07521   1.08954    0.025
 4782.00    1.15583   1.08003    0.025
 4783.00    1.20440   1.07197    0.025
 4784.00    1.11644   1.07736    0.024
 4785.00    1.05879   1.07811    0.024
 4786.00    1.10763   1.07889    0.024
 4787.00    1.16779   1.09007    0.025
 4788.00    1.26138   1.10684    0.025
 4789.00    1.29134   1.13146    0.025
 4790.00    1.16106   1.16084    0.025
 4791.00    1.06133   1.17641    0.025
 4792.00    1.02782   1.16858    0.025
 4793.00    1.02973   1.14529    0.025
 4794.00    1.09831   1.11557    0.025
 4795.00    1.11522   1.08988    0.025
 4796.00    1.04725   1.08488    0.025
 4797.00    1.00702   1.10712    0.025
 4798.00    1.00679   1.13821    0.025
 4799.00    1.03951   1.14992    0.025
 4800.00    1.11398   1.13366    0.026
 4801.00    1.13860   1.10817    0.026
 4802.00    1.10752   1.09575    0.026
 4803.00    1.10742   1.09051    0.026
 4804.00    1.13781   1.08591    0.026
 4805.00    1.14022   1.09197    0.026
 4806.00    1.11833   1.10587    0.025
 4807.00    1.21077   1.11333    0.025
 4808.00    1.39071   1.11295    0.026
 4809.00    1.31206   1.11252    0.026
 4810.00    1.05948   1.11648    0.025
 4811.00    1.10702   1.12462    0.026
 4812.00    1.33142   1.13512    0.026
 4813.00    1.34371   1.14502    0.026
 4814.00    1.24701   1.15252    0.026
 4815.00    1.24020   1.15750    0.026
 4816.00    1.27340   1.15567    0.026
 4817.00    1.23669   1.14456    0.026
 4818.00    1.17324   1.11731    0.026
 4819.00    1.22609   1.07483    0.026
 4820.00    1.31676   1.05440    0.026
 4821.00    1.24452   1.07751    0.026
 4822.00    1.12792   1.10939    0.025
 4823.00    1.07759   1.11676    0.025
 4824.00    1.04206   1.10461    0.026
 4825.00    0.98924   1.09466    0.026
 4826.00    0.93335   1.09320    0.026
 4827.00    1.14164   1.08368    0.026
 4828.00    1.38593   1.06902    0.026
 4829.00    1.23883   1.07448    0.026
 4830.00    1.05369   1.09463    0.025
 4831.00    1.11494   1.10422    0.026
 4832.00    1.19113   1.10143    0.026
 4833.00    1.16442   1.09738    0.026
 4834.00    1.13511   1.08619    0.027
 4835.00    1.12731   1.06307    0.026
 4836.00    1.11569   1.04613    0.025
 4837.00    1.00427   1.04863    0.025
 4838.00    0.91240   1.05363    0.025
 4839.00    1.08737   1.04916    0.025
 4840.00    1.23448   1.05475    0.025
 4841.00    1.12981   1.07548    0.025
 4842.00    1.04570   1.08516    0.025
 4843.00    1.09804   1.06733    0.025
 4844.00    1.13098   1.03515    0.025
 4845.00    1.06389   1.02062    0.025
 4846.00    1.01754   1.03209    0.024
 4847.00    1.05753   1.04044    0.025
 4848.00    1.09511   1.03288    0.000
 4849.00    1.12435   1.01570    0.000
 4850.00    1.12828   0.97881    0.000
 4851.00    1.05880   0.93003    0.000
 4852.00    1.03204   0.90923    0.000
 4853.00    1.11104   0.91722    0.000
 4854.00    1.18992   0.90446    0.000
 4855.00    1.26855   0.84081    0.000
 4856.00    1.33162   0.74207    0.000
 4857.00    1.36586   0.66791    0.000
 4858.00    1.38305   0.68364    0.000
 4859.00    1.37263   0.76640    0.000
 4860.00    1.36564   0.83990    0.000
 4861.00    1.36348   0.88873    0.000
 4862.00    1.30898   0.92777    0.000
 4863.00    1.18907   0.95351    0.000
 4864.00    1.11283   0.96753    0.000
 4865.00    1.08467   0.97279    0.000
 4866.00    1.09738   0.95090    0.000
 4867.00    1.14977   0.90874    0.000
 4868.00    1.18574   0.90050    0.000
 4869.00    1.20764   0.94183    0.000
 4870.00    1.17293   0.98463    0.000
 4871.00    1.09552   1.00157    0.000
 4872.00    0.99756   1.01093    0.000
 4873.00    0.88599   1.02484    0.000
 4874.00    0.92940   1.04368    0.000
 4875.00    1.06277   1.07113    0.024
 4876.00    1.09879   1.08222    0.024
 4877.00    1.08558   1.06184    0.024
 4878.00    1.03608   1.04533    0.024
 4879.00    0.97069   1.04953    0.024
 4880.00    0.94601   1.04535    0.024
 4881.00    0.93662   1.02169    0.024
 4882.00    1.00742   1.00431    0.024
 4883.00    1.10380   1.00998    0.024
 4884.00    1.14320   1.02328    0.024
 4885.00    1.16743   1.01864    0.024
 4886.00    1.16253   0.98688    0.024
 4887.00    1.15129   0.96070    0.024
 4888.00    1.11517   0.99258    0.024
 4889.00    1.07474   1.06615    0.024
 4890.00    1.08917   1.12703    0.024
 4891.00    1.11083   1.15892    0.024
 4892.00    1.13792   1.16750    0.024
 4893.00    1.16551   1.16340    0.024
 4894.00    1.08449   1.15099    0.024
 4895.00    0.99730   1.12562    0.024
 4896.00    1.00901   1.10353    0.024
 4897.00    1.02298   1.10287    0.024
 4898.00    1.03712   1.10272    0.024
 4899.00    1.05215   1.08949    0.024
 4900.00    1.08825   1.09033    0.024
 4901.00    1.11942   1.11908    0.024
 4902.00    1.08678   1.14724    0.024
 4903.00    1.05382   1.14504    0.024
 4904.00    1.01811   1.11506    0.024
 4905.00    0.98926   1.07518    0.024
 4906.00    1.00468   1.04488    0.024
 4907.00    1.01851   1.04466    0.024
 4908.00    1.02433   1.07084    0.024
 4909.00    1.03748   1.09832    0.024
 4910.00    1.08043   1.11982    0.024
 4911.00    1.11665   1.13908    0.024
 4912.00    1.13016   1.14035    0.024
 4913.00    1.14084   1.10416    0.024
 4914.00    1.14346   1.03349    0.024
 4915.00    1.12892   0.96106    0.024
 4916.00    1.07265   0.92769    0.024
 4917.00    1.07202   0.95143    0.024
 4918.00    1.18820   1.00469    0.025
 4919.00    1.25012   1.03521    0.025
 4920.00    1.21305   1.03629    0.024
 4921.00    1.19097   1.04855    0.024
 4922.00    1.19282   1.08503    0.024
 4923.00    1.18417   1.11768    0.024
 4924.00    1.16085   1.13757    0.024
 4925.00    1.16431   1.15374    0.024
 4926.00    1.20076   1.16004    0.024
 4927.00    1.21577   1.15260    0.024
 4928.00    1.20749   1.12461    0.024
 4929.00    1.19401   1.07742    0.024
 4930.00    1.17555   1.05442    0.024
 4931.00    1.19216   1.07515    0.024
 4932.00    1.23840   1.08899    0.024
 4933.00    1.22313   1.05952    0.025
 4934.00    1.16214   1.01402    0.025
 4935.00    1.13665   1.00336    0.025
 4936.00    1.13435   1.04511    0.025
 4937.00    1.09943   1.10066    0.024
 4938.00    1.04588   1.13142    0.024
 4939.00    1.03513   1.14576    0.024
 4940.00    1.04570   1.15027    0.000
 4941.00    1.02055   1.13714    0.000
 4942.00    0.98001   1.12460    0.000
 4943.00    1.01536   1.13319    0.000
 4944.00    1.07872   1.14962    0.000
 4945.00    1.11478   1.15762    0.000
 4946.00    1.14229   1.16180    0.000
 4947.00    1.14997   1.16404    0.000
 4948.00    1.15247   1.15403    0.000
 4949.00    1.17289   1.13622    0.000
 4950.00    1.19712   1.12388    0.000
 4951.00    1.17358   1.10483    0.000
 4952.00    1.14199   1.04883    0.000
 4953.00    1.21288   0.97336    0.000
 4954.00    1.29681   0.96322    0.000
 4955.00    1.22032   1.03631    0.000
 4956.00    1.12959   1.10785    0.000
 4957.00    1.13129   1.12982    0.000
 4958.00    1.13788   1.12744    0.000
 4959.00    1.13858   1.12496    0.000
 4960.00    1.13920   1.11090    0.000
 4961.00    1.14192   1.07987    0.000
 4962.00    1.14872   1.05738    0.000
 4963.00    1.24423   1.05503    0.000
 4964.00    1.32347   1.05968    0.000
 4965.00    1.20291   1.06676    0.000
 4966.00    1.10288   1.07726    0.000
 4967.00    1.17464   1.09267    0.000
 4968.00    1.23646   1.11030    0.000
 4969.00    1.23615   1.12376    0.000
 4970.00    1.22330   1.13261    0.000
 4971.00    1.14895   1.13260    0.000
 4972.00    1.08795   1.12217    0.000
 4973.00    1.08010   1.10345    0.000
 4974.00    1.09795   1.07875    0.000
 4975.00    1.20084   1.06172    0.000
 4976.00    1.25278   1.05068    0.000
 4977.00    1.16227   1.02062    0.000
 4978.00    1.10117   0.97244    0.000
 4979.00    1.11042   0.94505    0.000
 4980.00    1.12019   0.95792    0.000
 4981.00    1.13107   0.99248    0.000
 4982.00    1.09180   1.03482    0.000
 4983.00    0.96245   1.07585    0.000
 4984.00    0.93734   1.09406    0.000
 4985.00    1.07601   1.08552    0.000
 4986.00    1.12634   1.06752    0.000
 4987.00    1.05480   1.05927    0.000
 4988.00    1.05430   1.06723    0.000
 4989.00    1.14003   1.07245    0.000
 4990.00    1.18111   1.07266    0.000
 4991.00    1.17440   1.08353    0.000
 4992.00    1.13821   1.09438    0.000
 4993.00    1.07418   1.09228    0.000
 4994.00    1.10064   1.07585    0.000
 4995.00    1.20243   1.04519    0.000
 4996.00    1.20114   1.01672    0.000
 4997.00    1.12432   1.00627    0.000
 4998.00    1.08716   1.01135    0.000
 4999.00    1.07553   1.02018    0.000
 5000.00    1.06852   1.01270    0.000
 5001.00    1.06410   0.98117    0.000
 5002.00    1.10539   0.95771    0.000
 5003.00    1.16909   0.97958    0.000
 5004.00    1.20161   1.03030    0.000
 5005.00    1.22094   1.06217    0.000
 5006.00    1.23848   1.05901    0.000
 5007.00    1.25535   1.03097    0.000
 5008.00    1.15629   0.98996    0.000
 5009.00    1.02167   0.95628    0.000
 5010.00    0.96680   0.94818    0.000
 5011.00    0.93230   0.96807    0.000
 5012.00    0.91810   0.99024    0.000
 5013.00    0.90811   0.98729    0.000
 5014.00    0.96390   0.97600    0.000
 5015.00    1.03046   0.98640    0.000
 5016.00    1.00189   1.00692    0.000
 5017.00    0.96164   1.01011    0.000
 5018.00    0.99170   1.00314    0.000
 5019.00    1.02770   1.01413    0.000
 5020.00    1.05990   1.03909    0.000
 5021.00    1.09191   1.05200    0.000
 5022.00    1.07649   1.04306    0.000
 5023.00    1.05990   1.02251    0.000
 5024.00    1.01657   1.02123    0.000
 5025.00    0.97632   1.04567    0.000
 5026.00    0.99785   1.06735    0.000
 5027.00    1.02341   1.08210    0.000
 5028.00    1.09618   1.10258    0.000
 5029.00    1.16116   1.11746    0.029
 5030.00    1.16330   1.10088    0.029
 5031.00    1.17565   1.05421    0.029
 5032.00    1.24992   1.02025    0.029
 5033.00    1.29772   1.02149    0.029
 5034.00    1.21891   1.01941    0.026
 5035.00    1.13194   0.98244    0.024
 5036.00    1.01322   0.92689    0.023
 5037.00    0.92981   0.90025    0.023
 5038.00    0.96092   0.94071    0.023
 5039.00    1.01497   1.01735    0.023
 5040.00    1.13198   1.07614    0.023
 5041.00    1.21849   1.11078    0.024
 5042.00    1.23328   1.12353    0.024
 5043.00    1.19760   1.10138    0.024
 5044.00    1.05932   1.05360    0.023
 5045.00    0.97171   1.01613    0.023
 5046.00    0.97374   1.00593    0.023
 5047.00    1.01468   1.00987    0.023
 5048.00    1.11584   1.02283    0.023
 5049.00    1.14283   1.04935    0.023
 5050.00    1.06897   1.07705    0.023
 5051.00    1.01618   1.09076    0.023
 5052.00    0.98859   1.09282    0.023
 5053.00    1.00651   1.09603    0.023
 5054.00    1.07245   1.10323    0.023
 5055.00    1.09261   1.10843    0.023
 5056.00    1.07017   1.11544    0.023
 5057.00    1.12031   1.12603    0.023
 5058.00    1.23002   1.12495    0.023
 5059.00    1.19840   1.09514    0.023
 5060.00    1.06471   1.04443    0.023
 5061.00    1.03436   1.01418    0.023
 5062.00    1.06955   1.02237    0.023
 5063.00    1.09557   1.03437    0.022
 5064.00    1.11651   1.03425    0.022
 5065.00    1.08650   1.04319    0.022
 5066.00    1.03194   1.05887    0.022
 5067.00    1.04926   1.05321    0.022
 5068.00    1.09650   1.03509    0.022
 5069.00    1.10173   1.03725    0.022
 5070.00    1.09200   1.04969    0.022
 5071.00    1.05729   1.04999    0.022
 5072.00    1.01508   1.04963    0.022
 5073.00    1.02056   1.05170    0.022
 5074.00    1.03795   1.02608    0.021
 5075.00    1.05903   0.97185    0.021
 5076.00    1.08085   0.94264    0.022
 5077.00    1.02272   0.96097    0.022
 5078.00    0.95188   0.98922    0.022
 5079.00    0.94775   1.00364    0.022
 5080.00    0.95151   1.02000    0.022
 5081.00    0.98238   1.04389    0.022
 5082.00    1.01543   1.05814    0.022
 5083.00    1.05022   1.05870    0.021
 5084.00    1.08508   1.05981    0.021
 5085.00    1.07601   1.06631    0.021
 5086.00    1.06759   1.07055    0.021
 5087.00    1.11759   1.07536    0.021
 5088.00    1.15794   1.08925    0.021
 5089.00    1.01888   1.10332    0.021
 5090.00    0.89302   1.10098    0.021
 5091.00    0.91425   1.08074    0.021
 5092.00    0.93818   1.05131    0.021
 5093.00    0.98316   1.01660    0.021
 5094.00    1.01899   0.98210    0.021
 5095.00    1.00099   0.97003    0.022
 5096.00    0.99222   0.99726    0.023
 5097.00    1.02654   1.03930    0.022
 5098.00    1.05327   1.06072    0.022
 5099.00    1.05101   1.05706    0.021
 5100.00    1.04377   1.04612    0.021
 5101.00    1.02065   1.03799    0.022
 5102.00    1.00527   1.02514    0.022
 5103.00    1.01071   1.00721    0.022
 5104.00    1.02361   0.99910    0.022
 5105.00    1.05375   0.99930    0.022
 5106.00    1.04853   1.00306    0.023
 5107.00    0.97257   1.02174    0.022
 5108.00    0.94875   1.04604    0.022
 5109.00    1.01578   1.05950    0.023
 5110.00    1.03537   1.06680    0.023
 5111.00    0.98261   1.07344    0.022
 5112.00    0.97619   1.08377    0.023
 5113.00    1.03184   1.09788    0.023
 5114.00    1.07367   1.10292    0.023
 5115.00    1.09919   1.09212    0.023
 5116.00    1.08818   1.07088    0.023
 5117.00    1.03917   1.04622    0.023
 5118.00    1.04895   1.01826    0.023
 5119.00    1.11267   0.98742    0.023
 5120.00    1.07513   0.97034    0.023
 5121.00    0.95565   0.97601    0.023
 5122.00    0.90414   0.98780    0.022
 5123.00    0.90100   0.99130    0.023
 5124.00    0.90637   0.98848    0.023
 5125.00    0.91705   0.98821    0.023
 5126.00    0.95051   0.99977    0.022
 5127.00    0.99640   1.01925    0.022
 5128.00    0.97494   1.03098    0.022
 5129.00    0.92154   1.03450    0.022
 5130.00    0.94399   1.04508    0.022
 5131.00    0.99749   1.05797    0.023
 5132.00    1.00935   1.04810    0.022
 5133.00    1.00664   1.01825    0.022
 5134.00    1.01987   0.98929    0.022
 5135.00    1.03779   0.97833    0.022
 5136.00    1.00790   0.99454    0.022
 5137.00    0.96633   1.00446    0.022
 5138.00    1.04245   0.98748    0.022
 5139.00    1.14182   0.98378    0.022
 5140.00    1.08895   1.00242    0.022
 5141.00    1.01260   1.00626    0.022
 5142.00    1.02147   0.99172    0.022
 5143.00    1.04004   0.98261    0.021
 5144.00    1.01290   0.99090    0.021
 5145.00    0.98228   1.00574    0.021
 5146.00    0.93241   1.00507    0.021
 5147.00    0.88176   0.99047    0.021
 5148.00    0.87527   0.97952    0.021
 5149.00    0.87049   0.97680    0.021
 5150.00    0.92223   0.98437    0.021
 5151.00    0.96996   1.00716    0.021
 5152.00    0.94808   1.03812    0.021
 5153.00    0.93578   1.06331    0.021
 5154.00    1.02541   1.07294    0.021
 5155.00    1.10664   1.07184    0.021
 5156.00    1.12462   1.06963    0.021
 5157.00    1.13599   1.05834    0.021
 5158.00    1.10944   1.03743    0.021
 5159.00    1.07802   1.02102    0.021
 5160.00    1.02432   0.99433    0.021
 5161.00    0.97612   0.93097    0.021
 5162.00    0.94840   0.84094    0.021
 5163.00    0.91999   0.77146    0.021
 5164.00    0.88941   0.77010    0.021
 5165.00    0.86439   0.82715    0.021
 5166.00    0.85412   0.86683    0.021
 5167.00    0.83988   0.82951    0.021
 5168.00    0.81665   0.76459    0.021
 5169.00    0.79098   0.77549    0.021
 5170.00    0.76053   0.86963    0.021
 5171.00    0.77200   0.96024    0.021
 5172.00    0.85542   1.00038    0.022
 5173.00    0.92639   1.01341    0.022
 5174.00    0.97864   1.01909    0.022
 5175.00    0.99320   1.01277    0.022
 5176.00    0.95798   0.98931    0.022
 5177.00    0.93404   0.93745    0.022
 5178.00    0.92322   0.84665    0.022
 5179.00    0.88727   0.76193    0.022
 5180.00    0.82554   0.76765    0.022
 5181.00    0.85755   0.86433    0.022
 5182.00    0.97439   0.96183    0.022
 5183.00    1.00584   1.00408    0.021
 5184.00    0.96920   1.01089    0.022
 5185.00    0.96270   1.02016    0.022
 5186.00    0.97736   1.01731    0.022
 5187.00    0.97100   0.97365    0.022
 5188.00    0.95169   0.93220    0.022
 5189.00    0.94808   0.94008    0.022
 5190.00    0.95292   0.96572    0.000
 5191.00    0.93032   0.97512    0.000
 5192.00    0.89493   0.98501    0.000
 5193.00    0.96005   1.00539    0.000
 5194.00    1.06561   1.02681    0.000
 5195.00    1.14696   1.04443    0.000
 5196.00    1.22000   1.05176    0.000
 5197.00    1.14095   1.04478    0.000
 5198.00    1.01797   1.02945    0.000
 5199.00    0.98173   1.00411    0.000
 5200.00    0.96620   0.96019    0.000
 5201.00    0.94805   0.91746    0.000
 5202.00    0.92941   0.90365    0.000
 5203.00    0.85156   0.90315    0.000
 5204.00    0.76485   0.89865    0.000
 5205.00    0.81142   0.91351    0.000
 5206.00    0.87258   0.95535    0.000
 5207.00    0.93540   1.00498    0.000
 5208.00    0.99834   1.04713    0.000
 5209.00    0.97177   1.06539    0.000
 5210.00    0.94187   1.04965    0.000
 5211.00    0.96028   1.01501    0.021
 5212.00    0.97814   0.99611    0.020
 5213.00    0.96762   1.00999    0.021
 5214.00    0.95631   1.04245    0.021
 5215.00    0.93221   1.06988    0.021
 5216.00    0.91570   1.08365    0.021
 5217.00    0.97648   1.08666    0.021
 5218.00    1.02853   1.07491    0.021
 5219.00    1.01704   1.04389    0.021
 5220.00    0.99994   0.99636    0.021
 5221.00    0.95160   0.93836    0.021
 5222.00    0.91114   0.89033    0.021
 5223.00    0.90572   0.89419    0.021
 5224.00    0.89630   0.95695    0.021
 5225.00    0.87230   1.02274    0.021
 5226.00    0.85741   1.05470    0.021
 5227.00    0.87042   1.05410    0.021
 5228.00    0.88732   1.02428    0.021
 5229.00    0.91431   0.99331    0.021
 5230.00    0.93629   0.99235    0.021
 5231.00    0.94704   1.01889    0.021
 5232.00    0.96358   1.05518    0.021
 5233.00    0.99134   1.08144    0.021
 5234.00    0.98976   1.08883    0.021
 5235.00    0.93856   1.08586    0.021
 5236.00    0.95011   1.08450    0.021
 5237.00    1.05459   1.08445    0.021
 5238.00    1.11500   1.08066    0.021
 5239.00    1.11803   1.08311    0.021
 5240.00    1.10014   1.09549    0.021
 5241.00    1.05825   1.08988    0.021
 5242.00    1.00085   1.05166    0.021
 5243.00    0.92777   1.01775    0.021
 5244.00    0.88028   1.01500    0.021
 5245.00    0.85561   1.01539    0.021
 5246.00    0.89063   1.00514    0.021
 5247.00    0.97259   1.01018    0.021
 5248.00    1.04582   1.03110    0.021
 5249.00    1.11303   1.03946    0.022
 5250.00    1.09787   1.02772    0.022
 5251.00    1.03277   1.02528    0.022
 5252.00    0.96620   1.05584    0.022
 5253.00    0.89885   1.09689    0.022
 5254.00    0.92954   1.11713    0.022
 5255.00    1.00526   1.10966    0.022
 5256.00    0.94950   1.07834    0.022
 5257.00    0.84176   1.02922    0.021
 5258.00    0.87323   0.97373    0.021
 5259.00    0.95159   0.92613    0.022
 5260.00    0.96099   0.89200    0.022
 5261.00    0.95087   0.87569    0.022
 5262.00    0.98727   0.89203    0.022
 5263.00    1.03453   0.92439    0.022
 5264.00    1.01849   0.91032    0.022
 5265.00    0.99059   0.85456    0.022
 5266.00    0.89430   0.85037    0.022
 5267.00    0.78811   0.92013    0.021
 5268.00    0.83827   0.98583    0.021
 5269.00    0.90488   1.00469    0.021
 5270.00    0.88546   0.99554    0.022
 5271.00    0.86018   0.98874    0.022
 5272.00    0.89261   1.01514    0.021
 5273.00    0.92697   1.06730    0.021
 5274.00    0.93103   1.09960    0.021
 5275.00    0.93695   1.09226    0.021
 5276.00    1.00399   1.06257    0.021
 5277.00    1.06657   1.03242    0.021
 5278.00    1.06144   1.00891    0.021
 5279.00    1.04654   0.99699    0.021
 5280.00    0.93626   1.01639    0.021
 5281.00    0.84364   1.06897    0.020
 5282.00    0.87530   1.11528    0.020
 5283.00    0.91976   1.12711    0.020
 5284.00    1.03364   1.12036    0.021
 5285.00    1.12265   1.12109    0.021
 5286.00    1.10358   1.13011    0.020
 5287.00    1.07224   1.13113    0.020
 5288.00    0.99697   1.11977    0.020
 5289.00    0.95917   1.10806    0.021
 5290.00    1.03392   1.09971    0.020
 5291.00    1.09266   1.07700    0.020
 5292.00    1.11045   1.02880    0.021
 5293.00    1.11681   0.98054    0.021
 5294.00    1.09803   0.97463    0.021
 5295.00    1.05973   1.00994    0.021
 5296.00    0.98418   1.03909    0.021
 5297.00    0.95149   1.04452    0.021
 5298.00    0.99015   1.05491    0.021
 5299.00    1.02543   1.08541    0.022
 5300.00    1.05578   1.11735    0.021
 5301.00    1.05408   1.12801    0.021
 5302.00    1.01123   1.11622    0.021
 5303.00    1.01628   1.10312    0.021
 5304.00    1.07547   1.10787    0.021
 5305.00    1.06343   1.12378    0.021
 5306.00    0.98035   1.13193    0.021
 5307.00    0.96367   1.12723    0.021
 5308.00    1.00540   1.11651    0.021
 5309.00    1.04238   1.10703    0.021
 5310.00    1.07568   1.09919    0.021
 5311.00    1.09784   1.08456    0.021
 5312.00    1.11242   1.06746    0.021
 5313.00    1.11305   1.06679    0.021
 5314.00    1.10535   1.08023    0.021
 5315.00    1.08368   1.08903    0.021
 5316.00    1.05472   1.08938    0.021
 5317.00    1.00420   1.08459    0.020
 5318.00    0.94394   1.06890    0.020
 5319.00    0.96776   1.04037    0.020
 5320.00    1.02426   1.02042    0.020
 5321.00    1.04447   1.01930    0.020
 5322.00    1.05270   0.99638    0.020
 5323.00    0.99501   0.92762    0.020
 5324.00    0.91905   0.87784    0.020
 5325.00    0.94904   0.91383    0.020
 5326.00    1.00319   0.99700    0.019
 5327.00    0.95893   1.05052    0.019
 5328.00    0.89671   1.06142    0.020
 5329.00    0.94930   1.06744    0.020
 5330.00    1.01800   1.08610    0.019
 5331.00    1.10361   1.09787    0.019
 5332.00    1.19092   1.09222    0.020
 5333.00    1.12955   1.08106    0.020
 5334.00    1.05865   1.06397    0.020
 5335.00    1.02297   1.02909    0.019
 5336.00    0.98841   0.99816    0.019
 5337.00    0.98446   1.00855    0.019
 5338.00    0.98203   1.04817    0.019
 5339.00    1.02339   1.07571    0.020
 5340.00    1.06230   1.07677    0.020
 5341.00    1.06624   1.06413    0.020
 5342.00    1.07420   1.05708    0.019
 5343.00    1.11982   1.05373    0.019
 5344.00    1.16115   1.04197    0.019
 5345.00    1.17317   1.03797    0.019
 5346.00    1.18125   1.06015    0.020
 5347.00    1.16849   1.09132    0.020
 5348.00    1.16022   1.10694    0.020
 5349.00    1.17103   1.11379    0.020
 5350.00    1.16479   1.12836    0.020
 5351.00    1.09877   1.14413    0.020
 5352.00    1.04008   1.15018    0.020
 5353.00    1.00302   1.15013    0.020
 5354.00    0.99961   1.14897    0.020
 5355.00    1.08077   1.14417    0.020
 5356.00    1.11876   1.12929    0.020
 5357.00    1.06333   1.10550    0.020
 5358.00    1.02206   1.08586    0.020
 5359.00    1.00741   1.07541    0.020
 5360.00    1.03379   1.06556    0.020
 5361.00    1.12748   1.05789    0.020
 5362.00    1.15965   1.05792    0.020
 5363.00    1.10334   1.05773    0.020
 5364.00    1.09766   1.04420    0.020
 5365.00    1.15602   1.00840    0.020
 5366.00    1.13700   0.96600    0.020
 5367.00    1.03169   0.95831    0.020
 5368.00    1.00406   1.00275   -2.000
 5369.00    1.05282   1.06516   -2.000
 5370.00    1.04866   1.10625   -2.000
 5371.00    0.99861   1.11852   -2.000
 5372.00    0.92254   1.11232   -2.000
 5373.00    0.82658   1.10586   -2.000
 5374.00    0.84750   1.10672   -2.000
 5375.00    0.94689   1.10350   -2.000
 5376.00    1.02317   1.09211   -2.000
 5377.00    1.08586   1.08023   -2.000
 5378.00    1.08331   1.07036   -2.000
 5379.00    1.04729   1.06836   -2.000
 5380.00    1.03244   1.08144   -2.000
 5381.00    1.02700   1.09692   -2.000
 5382.00    1.04576   1.10006   -2.000
 5383.00    1.07377   1.09293    0.019
 5384.00    1.04907   1.07880    0.019
 5385.00    1.00728   1.05997    0.019
 5386.00    1.04964   1.04499    0.019
 5387.00    1.11486   1.03831    0.019
 5388.00    1.11219   1.03598    0.019
 5389.00    1.09438   1.03539    0.019
 5390.00    1.05945   1.03403    0.019
 5391.00    1.02147   1.01924    0.019
 5392.00    1.01831   0.98897    0.019
 5393.00    1.01987   0.97867    0.019
 5394.00    1.00857   1.00783    0.019
 5395.00    0.99604   1.04028    0.019
 5396.00    0.96860   1.05236    0.019
 5397.00    0.94027   1.05808    0.019
 5398.00    0.93170   1.05311    0.019
 5399.00    0.92406   1.01736    0.019
 5400.00    0.98559   0.96483    0.019
 5401.00    1.04344   0.93632    0.019
 5402.00    1.00653   0.95305    0.019
 5403.00    0.97224   0.99072    0.019
 5404.00    0.97334   1.00573    0.019
 5405.00    0.96792   0.99409    0.019
 5406.00    0.90383   0.99527    0.019
 5407.00    0.85692   1.02762    0.019
 5408.00    0.92362   1.06251    0.019
 5409.00    0.97922   1.07288    0.019
 5410.00    0.97767   1.06769    0.019
 5411.00    0.98374   1.07256    0.019
 5412.00    1.02142   1.09152    0.019
 5413.00    1.04941   1.10387    0.019
 5414.00    1.04415   1.09765    0.019
 5415.00    1.04390   1.08114    0.019
 5416.00    1.05814   1.07032    0.019
 5417.00    1.05966   1.07314    0.019
 5418.00    1.02976   1.07270    0.019
 5419.00    1.02249   1.05382    0.019
 5420.00    1.06339   1.04203    0.019
 5421.00    1.08202   1.06321    0.019
 5422.00    1.05944   1.09579    0.019
 5423.00    1.05109   1.09699    0.019
 5424.00    1.06574   1.05157    0.019
 5425.00    1.08059   1.00348    0.018
 5426.00    1.09571   1.00490    0.018
 5427.00    1.08169   1.03160    0.018
 5428.00    1.03134   1.03212    0.018
 5429.00    0.99264   1.00945    0.018
 5430.00    0.96674   0.99357    0.018
 5431.00    0.97829   0.99995    0.018
 5432.00    1.02615   1.02672    0.018
 5433.00    1.01919   1.06424    0.018
 5434.00    0.96538   1.09957    0.018
 5435.00    0.96283   1.12111    0.018
 5436.00    0.99888   1.12823    0.018
 5437.00    1.02022   1.12849    0.018
 5438.00    1.03182   1.12614    0.018
 5439.00    1.04193   1.11316    0.018
 5440.00    1.05116   1.07749    0.018
 5441.00    1.07443   1.02275    0.018
 5442.00    1.10478   0.98014    0.018
 5443.00    1.11739   0.98666    0.018
 5444.00    1.12225   1.03285    0.018
 5445.00    1.13374   1.07333    0.018
 5446.00    1.14773   1.08770    0.018
 5447.00    1.10094   1.08487    0.018
 5448.00    1.03481   1.07283    0.018
 5449.00    1.00322   1.04634    0.018
 5450.00    0.98081   1.00415    0.019
 5451.00    0.96638   0.97710    0.018
 5452.00    0.95368   0.99896    0.018
 5453.00    0.96346   1.04973    0.018
 5454.00    0.97713   1.08417    0.019
 5455.00    0.99449   1.08749    0.019
 5456.00    1.01233   1.07134    0.019
 5457.00    1.00759   1.04670    0.018
 5458.00    1.00078   1.02188    0.018
 5459.00    1.08779   1.01654    0.018
 5460.00    1.18007   1.03634    0.019
 5461.00    1.15739   1.05556    0.019
 5462.00    1.13258   1.06174    0.019
 5463.00    1.15298   1.06709    0.019
 5464.00    1.17160   1.07069    0.019
 5465.00    1.14835   1.06328    0.019
 5466.00    1.12445   1.05343    0.018
 5467.00    1.09221   1.04967    0.018
 5468.00    1.06664   1.04231    0.018
 5469.00    1.09872   1.03027    0.018
 5470.00    1.11787   1.01877    0.019
 5471.00    1.05416   0.99352    0.018
 5472.00    0.99478   0.96384    0.018
 5473.00    0.95711   0.97225    0.018
 5474.00    0.92340   1.01499    0.018
 5475.00    0.90576   1.03899    0.018
 5476.00    0.91038   1.02433    0.018
 5477.00    0.98994   1.00581    0.018
 5478.00    1.06080   1.01417   -2.000
 5479.00    1.10691   1.04279   -2.000
 5480.00    1.13481   1.07138   -2.000
 5481.00    1.11849   1.07985   -2.000
 5482.00    1.11810   1.06090   -2.000
 5483.00    1.15109   1.03794   -2.000
 5484.00    1.08652   1.03660   -2.000
 5485.00    0.84426   1.04869   -2.000
 5486.00    0.70204   1.05860   -2.000
 5487.00    0.71904   1.06479   -2.000
 5488.00    0.80343   1.06233   -2.000
 5489.00    0.98195   1.05476   -2.000
 5490.00    1.16985   1.05614   -2.000
 5491.00    1.36927   1.05902   -2.000
 5492.00    1.35096   1.04815   -2.000
 5493.00    1.09670   1.04017   -2.000
 5494.00    0.99025   1.05494   -2.000
 5495.00    1.02511   1.06968   -2.000
 5496.00    1.06847   1.05741   -2.000
 5497.00    1.11901   1.03400   -2.000
 5498.00    1.14658   1.02687   -2.000
 5499.00    1.15710   1.03503   -2.000
 5500.00    1.12772   1.03797   -2.000
 5501.00    1.07235   1.02445   -2.000
 5502.00    1.05813   1.01342    0.018
 5503.00    1.06741   1.02622    0.018
 5504.00    1.05698   1.04667    0.018
 5505.00    1.03677   1.05114    0.018
 5506.00    1.05375   1.03892    0.018
 5507.00    1.08669   1.01695    0.018
 5508.00    1.06894   0.99833    0.018
 5509.00    1.03251   0.99704    0.018
 5510.00    1.04135   1.01067    0.018
 5511.00    1.06433   1.02800    0.018
 5512.00    1.06142   1.04463    0.018
 5513.00    1.05177   1.06417    0.018
 5514.00    1.03133   1.08254    0.018
 5515.00    1.00860   1.08849    0.018
 5516.00    1.00236   1.08366    0.018
 5517.00    0.99888   1.07864    0.018
 5518.00    1.06513   1.07753    0.017
 5519.00    1.14021   1.07650    0.017
 5520.00    1.12252   1.06908    0.017
 5521.00    1.09665   1.05208    0.017
 5522.00    1.06759   1.02545    0.017
 5523.00    1.03836   0.99745    0.017
 5524.00    1.06847   0.99251    0.017
 5525.00    1.09926   1.02030    0.017
 5526.00    1.09685   1.05294    0.017
 5527.00    1.09148   1.06498    0.017
 5528.00    1.02240   1.06071    0.017
 5529.00    0.96071   1.05072    0.017
 5530.00    0.98909   1.03986    0.017
 5531.00    1.01637   1.03814    0.017
 5532.00    1.03443   1.04752    0.017
 5533.00    1.04779   1.05560    0.017
 5534.00    1.03195   1.06214    0.017
 5535.00    1.02573   1.07473    0.017
 5536.00    1.06653   1.08672    0.017
 5537.00    1.10222   1.08531    0.017
 5538.00    1.11767   1.07043    0.017
 5539.00    1.11638   1.05759    0.019
 5540.00    1.05983   1.05571    0.046
 5541.00    1.01987   1.05744   -1.000
 5542.00    1.02619   1.06189   -1.000
 5543.00    1.03375   1.07540   -1.000
 5544.00    1.04426   1.09083   -1.000
 5545.00    1.06410   1.09814   -1.000
 5546.00    1.10317   1.09832   -1.000
 5547.00    1.12835   1.09254   -1.000
 5548.00    1.12862   1.07891   -1.000
 5549.00    1.11506   1.06289   -1.000
 5550.00    1.07981   1.05644   -1.000
 5551.00    1.07309   1.06158    0.084
 5552.00    1.10565   1.06657    0.025
 5553.00    1.11063   1.06607    0.018
 5554.00    1.08218   1.06640    0.018
 5555.00    1.04387   1.06804    0.017
 5556.00    0.99503   1.06519    0.017
 5557.00    0.96961   1.05551    0.017
 5558.00    0.96625   1.04373    0.017
 5559.00    0.95216   1.03872    0.017
 5560.00    0.92915   1.03769    0.017
 5561.00    0.93497   1.03269    0.017
 5562.00    0.96188   1.02929    0.017
 5563.00    0.97441   1.03090    0.017
 5564.00    0.97770   1.02976    0.017
 5565.00    0.96336   1.02976    0.017
 5566.00    0.93912   1.03786    0.016
 5567.00    0.95294   1.03734    0.016
 5568.00    0.98536   1.02496    0.016
 5569.00    0.97656   1.02812    0.016
 5570.00    0.95034   1.04555    0.016
 5571.00    0.96976   1.05301    0.016
 5572.00    1.00569   1.05431    0.016
 5573.00    1.03821   1.05877    0.016
 5574.00    1.06969   1.06219    0.016
 5575.00    1.00567   1.06490    0.016
 5576.00    0.91733   1.06418    0.016
 5577.00    0.93054   1.05718    0.016
 5578.00    0.96477   1.05297    0.017
 5579.00    0.99160   1.05208    0.017
 5580.00    1.01722   1.04070    0.017
 5581.00    1.01846   1.01150    0.017
 5582.00    1.01672   0.97414    0.017
 5583.00    1.00104   0.94873    0.017
 5584.00    0.98420   0.94676    0.017
 5585.00    0.98851   0.96511    0.017
 5586.00    0.99384   0.99172    0.017
 5587.00    1.00618   1.00981    0.017
 5588.00    1.01848   1.01186    0.017
 5589.00    1.02195   1.00656    0.017
 5590.00    1.02467   1.01360    0.017
 5591.00    1.01240   1.03849    0.017
 5592.00    1.00132   1.05205    0.017
 5593.00    1.00393   1.03432    0.018
 5594.00    1.00962   1.00989    0.018
 5595.00    1.04006   0.99999    0.018
 5596.00    1.06642   0.99261    0.018
 5597.00    1.06810   0.98093    0.018
 5598.00    1.06883   0.98067    0.018
 5599.00    1.06507   1.00579    0.018
 5600.00    1.04973   1.04536    0.018
 5601.00    0.98938   1.07573    0.018
 5602.00    0.94333   1.08818    0.018
 5603.00    0.94354   1.08867    0.017
 5604.00    0.95581   1.08522    0.017
 5605.00    1.00112   1.08301    0.017
 5606.00    1.04044   1.08508    0.017
 5607.00    1.06570   1.09004    0.017
 5608.00    1.07961   1.08606    0.017
 5609.00    1.07050   1.05474    0.017
 5610.00    1.06308   1.00017    0.016
 5611.00    1.05863   0.96696    0.016
 5612.00    1.05222   0.98340    0.016
 5613.00    1.04277   1.01678    0.016
 5614.00    1.03133   1.03076    0.016
 5615.00    1.01718   1.03216    0.016
 5616.00    1.00218   1.04013    0.016
 5617.00    0.98615   1.05162    0.016
 5618.00    0.98301   1.04617    0.016
 5619.00    0.99347   1.01730    0.016
 5620.00    1.01544   0.99192    0.016
 5621.00    1.04811   0.99676    0.016
 5622.00    1.05225   1.01982    0.016
 5623.00    1.03304   1.03860    0.016
 5624.00    1.00236   1.05323    0.016
 5625.00    0.96344   1.06730    0.017
 5626.00    0.93696   1.07543    0.017
 5627.00    0.91836   1.07492    0.017
 5628.00    0.92058   1.06801    0.017
 5629.00    0.93432   1.05801    0.017
 5630.00    0.97097   1.04755    0.017
 5631.00    1.01865   1.03595    0.017
 5632.00    1.04506   1.02379    0.017
 5633.00    1.06263   1.01918    0.017
 5634.00    1.04340   1.02565    0.017
 5635.00    1.01110   1.03045    0.017
 5636.00    0.98195   1.02399    0.017
 5637.00    0.95373   1.01811    0.017
 5638.00    0.96692   1.02281    0.017
 5639.00    0.99043   1.03066    0.017
 5640.00    1.00908   1.03672    0.017
 5641.00    1.02675   1.04293    0.016
 5642.00    1.01440   1.04896    0.016
 5643.00    0.99730   1.05122    0.016
 5644.00    0.99626   1.04708    0.016
 5645.00    0.99710   1.04233    0.017
 5646.00    1.04119   1.04645    0.017
 5647.00    1.08873   1.05762    0.017
 5648.00    1.06801   1.06201    0.016
 5649.00    1.04427   1.05071    0.016
 5650.00    1.02588   1.03507    0.016
 5651.00    1.00787   1.02991    0.016
 5652.00    1.00479   1.01966    0.016
 5653.00    1.00171   0.98757    0.016
 5654.00    0.99849   0.96553    0.016
 5655.00    0.99471   0.98249    0.016
 5656.00    0.98457   1.00734    0.016
 5657.00    0.97711   1.00800    0.016
 5658.00    0.99050   1.00292    0.016
 5659.00    1.00164   1.01628    0.016
 5660.00    0.99958   1.03802    0.016
 5661.00    0.99207   1.04641    0.016
 5662.00    0.95917   1.03792    0.016
 5663.00    0.93228   1.02705    0.016
 5664.00    0.92824   1.02528    0.016
 5665.00    0.93485   1.03031    0.016
 5666.00    0.97521   1.03819    0.016
 5667.00    1.01346   1.05145    0.016
 5668.00    1.04602   1.06793    0.016
 5669.00    1.06030   1.07592    0.016
 5670.00    1.03237   1.07194    0.017
 5671.00    1.01148   1.06868    0.017
 5672.00    1.00467   1.07228    0.017
 5673.00    1.00828   1.07212    0.017
 5674.00    1.03002   1.06464    0.017
 5675.00    1.04728   1.05844    0.017
 5676.00    1.05771   1.05186    0.017
 5677.00    1.06532   1.03638    0.017
 5678.00    1.06916   1.02153    0.017
 5679.00    1.07455   1.02269    0.017
 5680.00    1.08178   1.03279    0.017
 5681.00    1.06810   1.03324    0.017
 5682.00    1.03271   1.02131    0.016
 5683.00    1.01747   1.01186    0.016
 5684.00    1.02069   1.01697    0.016
 5685.00    1.03738   1.03365    0.016
 5686.00    1.06496   1.05102    0.016
 5687.00    1.06130   1.06400    0.016
 5688.00    1.03545   1.07039    0.016
 5689.00    1.02779   1.06835    0.016
 5690.00    1.03149   1.06390    0.016
 5691.00    1.06440   1.06307    0.016
 5692.00    1.11323   1.05960    0.016
 5693.00    1.13348   1.04665    0.016
 5694.00    1.14020   1.03312    0.016
 5695.00    1.09872   1.02487    0.016
 5696.00    1.03756   1.01489    0.016
 5697.00    0.99077   1.00735    0.016
 5698.00    0.94899   1.01349    0.017
 5699.00    0.93216   1.02720    0.017
 5700.00    0.92268   1.03024    0.017
 5701.00    0.90691   1.01678    0.017
 5702.00    0.88960   0.99778    0.017
 5703.00    0.89960   0.98040    0.017
 5704.00    0.91497   0.96666    0.016
 5705.00    0.95362   0.96406    0.016
 5706.00    0.99585   0.97020    0.016
 5707.00    0.98471   0.98036    0.016
 5708.00    0.96751   1.00217    0.016
 5709.00    1.01723   1.02936    0.016
 5710.00    1.07201   1.04626    0.017
 5711.00    1.06577   1.05365    0.016
 5712.00    1.05705   1.05639    0.016
 5713.00    1.03246   1.05684    0.016
 5714.00    1.00866   1.06076    0.016
 5715.00    1.02230   1.06806    0.016
 5716.00    1.03632   1.07510    0.016
 5717.00    1.05687   1.08228    0.016
 5718.00    1.06967   1.08744    0.017
 5719.00    1.00060   1.08721    0.016
 5720.00    0.94062   1.08141    0.016
 5721.00    0.94876   1.06863    0.016
 5722.00    0.96288   1.05283    0.016
 5723.00    1.01114   1.04904    0.016
 5724.00    1.05201   1.05989    0.016
 5725.00    1.05926   1.06545    0.016
 5726.00    1.06258   1.05508    0.016
 5727.00    1.05127   1.04615    0.016
 5728.00    1.04873   1.05441    0.015
 5729.00    1.07348   1.07022    0.016
 5730.00    1.08822   1.07864    0.016
 5731.00    1.07653   1.07698    0.016
 5732.00    1.05892   1.07061    0.016
 5733.00    1.02783   1.06586    0.016
 5734.00    1.01575   1.06469    0.016
 5735.00    1.04100   1.06518    0.015
 5736.00    1.07566   1.06487    0.016
 5737.00    1.12646   1.06181    0.016
 5738.00    1.15122   1.05891    0.016
 5739.00    1.13693   1.06348    0.016
 5740.00    1.11315   1.07495    0.000
 5741.00    1.07688   1.08033    0.000
 5742.00    1.05900   1.06879    0.000
 5743.00    1.06247   1.05039    0.000
 5744.00    1.04959   1.04785    0.000
 5745.00    1.01996   1.06231    0.000
 5746.00    1.02615   1.07010    0.000
 5747.00    1.06468   1.05570    0.000
 5748.00    1.09072   1.02833    0.000
 5749.00    1.10681   1.01101    0.000
 5750.00    1.12228   1.02029    0.000
 5751.00    1.13731   1.04822    0.000
 5752.00    1.12654   1.07232    0.000
 5753.00    1.09992   1.08102    0.000
 5754.00    1.08805   1.07454    0.000
 5755.00    1.08409   1.05716    0.000
 5756.00    1.05569   1.03518    0.000
 5757.00    1.01590   1.01595    0.000
 5758.00    1.02324   1.01184    0.000
 5759.00    1.04949   1.03161    0.000
 5760.00    1.05183   1.06047    0.000
 5761.00    1.04599   1.07773    0.000
 5762.00    1.05557   1.08261    0.000
 5763.00    1.06959   1.08217    0.000
 5764.00    1.08142   1.07888    0.000
 5765.00    1.09274   1.07429    0.000
 5766.00    1.10590   1.06871    0.000
 5767.00    1.11940   1.06196    0.000
 5768.00    1.15813   1.05709    0.000
 5769.00    1.20061   1.05404    0.000
 5770.00    1.18548   1.05286    0.000
 5771.00    1.16406   1.05758    0.000
 5772.00    1.13946   1.06508    0.000
 5773.00    1.11462   1.06661    0.000
 5774.00    1.09138   1.05593    0.000
 5775.00    1.06819   1.03000    0.000
 5776.00    1.10987   0.99808    0.000
 5777.00    1.14983   0.98140    0.000
 5778.00    1.11896   0.98431    0.000
 5779.00    1.08749   0.98785    0.000
 5780.00    1.04643   0.98423    0.000
 5781.00    1.01356   0.99023    0.000
 5782.00    1.06348   1.01259    0.000
 5783.00    1.10302   1.03529    0.000
 5784.00    1.06734   1.04645    0.000
 5785.00    1.03625   1.04339    0.000
 5786.00    1.03070   1.03356    0.000
 5787.00    1.01632   1.03359    0.000
 5788.00    0.96277   1.04597    0.000
 5789.00    0.91805   1.06079    0.000
 5790.00    0.90553   1.07134    0.000
 5791.00    0.90361   1.07035   -2.000
 5792.00    0.93404   1.05520   -2.000
 5793.00    0.97728   1.04223   -2.000
 5794.00    1.05382   1.05060   -2.000
 5795.00    1.10167   1.07324   -2.000
 5796.00    1.08551   1.09002   -2.000
 5797.00    1.07260   1.09444   -2.000
 5798.00    1.06596   1.08616   -2.000
 5799.00    1.05287   1.06772   -2.000
 5800.00    1.02887   1.05209   -2.000
 5801.00    1.01379   1.04884   -2.000
 5802.00    1.01190   1.05433   -2.000
 5803.00    1.01960   1.06076   -2.000
 5804.00    1.03977   1.06501   -2.000
 5805.00    1.05842   1.06937   -2.000
 5806.00    1.07531   1.07435   -2.000
 5807.00    1.06860   1.07634   -2.000
 5808.00    1.03803   1.07371   -2.000
 5809.00    1.01965   1.06568   -2.000
 5810.00    1.01214   1.05176   -2.000
 5811.00    1.01423   1.03950    0.000
 5812.00    1.02387   1.04225    0.000
 5813.00    1.03017   1.06031    0.000
 5814.00    1.03416   1.07811    0.000
 5815.00    1.03464   1.08619    0.000
 5816.00    1.03300   1.08695    0.000
 5817.00    1.04185   1.08341    0.000
 5818.00    1.05624   1.07835    0.000
 5819.00    1.07361   1.07628    0.000
 5820.00    1.09234   1.07855    0.000
 5821.00    1.09466   1.08058    0.000
 5822.00    1.09051   1.07990    0.000
 5823.00    1.11794   1.07977    0.000
 5824.00    1.15598   1.08246    0.000
 5825.00    1.16034   1.08463    0.000
 5826.00    1.15518   1.08325    0.000
 5827.00    1.12578   1.08082    0.000
 5828.00    1.09073   1.07795    0.000
 5829.00    1.08059   1.07206    0.000
 5830.00    1.07510   1.06725    0.000
 5831.00    1.07154   1.06938    0.000
 5832.00    1.06824   1.07220    0.000
 5833.00    1.05458   1.06871    0.000
 5834.00    1.03984   1.06682    0.000
 5835.00    1.06098   1.07391    0.000
 5836.00    1.08454   1.08420    0.000
 5837.00    1.11951   1.09016    0.000
 5838.00    1.15484   1.09067    0.000
 5839.00    1.17119   1.08651    0.000
 5840.00    1.18640   1.07823    0.000
 5841.00    1.16610   1.06690    0.000
 5842.00    1.14517   1.05561    0.000
 5843.00    1.11482   1.05027    0.000
 5844.00    1.08690   1.05264    0.000
 5845.00    1.08254   1.05642    0.000
 5846.00    1.07737   1.05335    0.000
 5847.00    1.06648   1.04004    0.000
 5848.00    1.06097   1.02378    0.000
 5849.00    1.08448   1.01852    0.000
 5850.00    1.09774   1.02332    0.000
 5851.00    1.06660   1.01882    0.000
 5852.00    1.04003   0.99898    0.000
 5853.00    1.02981   0.98517    0.000
 5854.00    1.03398   0.99438    0.000
 5855.00    1.08130   1.01606    0.000
 5856.00    1.11318   1.03132    0.000
 5857.00    1.10568   1.03333    0.000
 5858.00    1.08907   1.03215    0.000
 5859.00    1.05249   1.03728    0.000
 5860.00    1.02732   1.04130    0.000
 5861.00    1.02387   1.03556    0.000
 5862.00    1.01713   1.02923    0.000
 5863.00    1.00492   1.03542    0.000
 5864.00    0.99680   1.04999    0.000
 5865.00    0.99463   1.06081    0.000
 5866.00    1.00672   1.06269    0.000
 5867.00    1.03709   1.05749    0.000
 5868.00    1.07474   1.05161    0.000
 5869.00    1.12061   1.05148    0.000
 5870.00    1.15091   1.05440    0.000
 5871.00    1.16571   1.05291    0.000
 5872.00    1.18316   1.04695    0.000
 5873.00    1.20296   1.03972    0.000
 5874.00    1.19635   1.03062    0.000
 5875.00    1.16933   1.02120    0.000
 5876.00    1.14351   1.01928    0.000
 5877.00    1.11849   1.02436    0.000
 5878.00    1.11161   1.02485    0.000
 5879.00    1.11554   1.01947    0.000
 5880.00    1.09516   1.01788    0.000
 5881.00    1.06214   1.01798    0.000
 5882.00    1.03099   1.00079    0.000
 5883.00    1.00069   0.94322    0.000
 5884.00    0.97357   0.84724    0.000
 5885.00    0.94770   0.77217    0.000
 5886.00    0.92183   0.78208    0.000
 5887.00    0.89597   0.85229    0.000
 5888.00    0.88348   0.90861    0.000
 5889.00    0.87468   0.91245    0.000
 5890.00    0.90902   0.86601    0.000
 5891.00    0.95318   0.82021    0.000
 5892.00    0.96425   0.83783    0.000
 5893.00    0.96930   0.90234    0.000
 5894.00    0.97259   0.95465    0.000
 5895.00    0.97564   0.98298    0.000
 5896.00    0.98273   1.00231    0.000
 5897.00    0.99023   1.01459    0.000
 5898.00    0.95819   1.02009    0.000
 5899.00    0.92363   1.02171    0.000
 5900.00    0.90808   1.01898    0.000
 5901.00    0.89319   1.01595    0.015
 5902.00    0.91652   1.01958    0.015
 5903.00    0.94032   1.02710    0.015
 5904.00    0.97755   1.03076    0.015
 5905.00    1.01341   1.03171    0.015
 5906.00    1.02979   1.03490    0.015
 5907.00    1.04133   1.03465    0.015
 5908.00    1.00778   1.02156    0.015
 5909.00    0.98157   1.00143    0.015
 5910.00    1.00520   0.99071    0.015
 5911.00    1.02402   0.99420    0.015
 5912.00    1.01750   1.00554    0.015
 5913.00    1.01016   1.01711    0.015
 5914.00    0.99937   1.02508    0.015
 5915.00    0.99842   1.03016    0.015
 5916.00    1.03193   1.03018    0.015
 5917.00    1.05454   1.02566    0.015
 5918.00    1.04516   1.02446    0.015
 5919.00    1.04049   1.02924    0.015
 5920.00    1.04766   1.03533    0.015
 5921.00    1.06096   1.03900    0.015
 5922.00    1.08749   1.03687    0.015
 5923.00    1.10203   1.02726    0.016
 5924.00    1.09411   1.01372    0.015
 5925.00    1.08097   1.00597    0.015
 5926.00    1.05930   1.01349    0.015
 5927.00    1.04624   1.02854    0.015
 5928.00    1.04554   1.03228    0.015
 5929.00    1.03011   1.02175    0.015
 5930.00    0.99608   1.01415    0.015
 5931.00    0.97665   1.02087    0.015
 5932.00    0.97348   1.03279    0.015
 5933.00    0.97217   1.04021    0.020
 5934.00    0.97268   1.04181    0.063
 5935.00    0.97645   1.03431   -1.000
 5936.00    0.98305   1.02015   -1.000
 5937.00    0.98991   1.01271   -1.000
 5938.00    0.99699   1.01755   -1.000
 5939.00    0.99252   1.02789   -1.000
 5940.00    0.98032   1.03757   -1.000
 5941.00    0.97864   1.04197   -1.000
 5942.00    0.98312   1.03548   -1.000
 5943.00    0.98423   1.01922   -1.000
 5944.00    0.98363   1.00729   -1.000
 5945.00    0.99079   1.01161   -1.000
 5946.00    1.00141   1.02108   -1.000
 5947.00    0.99972   1.01803    0.040
 5948.00    0.99335   1.00971    0.017
 5949.00    0.96684   1.01300    0.015
 5950.00    0.93382   1.02102    0.015
 5951.00    0.95320   1.01807    0.015
 5952.00    0.98677   1.00924    0.015
 5953.00    1.02094   1.00881    0.015
 5954.00    1.05524   1.01878    0.015
 5955.00    1.05845   1.03225    0.015
 5956.00    1.05616   1.04285    0.015
 5957.00    1.05610   1.04766    0.015
 5958.00    1.05634   1.04704    0.015
 5959.00    1.04074   1.04250    0.015
 5960.00    1.02361   1.03487    0.015
 5961.00    0.98533   1.02950    0.014
 5962.00    0.94580   1.03274    0.014
 5963.00    0.94391   1.04054    0.014
 5964.00    0.94325   1.04655    0.014
 5965.00    0.98325   1.05092    0.014
 5966.00    1.02166   1.05420    0.014
 5967.00    1.01952   1.05483    0.014
 5968.00    1.01809   1.05230    0.014
 5969.00    1.02624   1.04497    0.014
 5970.00    1.03521   1.03113    0.014
 5971.00    1.05160   1.01539    0.014
 5972.00    1.06382   1.00606    0.014
 5973.00    1.04857   1.00703    0.014
 5974.00    1.03201   1.01702    0.014
 5975.00    1.00872   1.03071    0.015
 5976.00    0.98700   1.03842    0.015
 5977.00    0.97180   1.03260    0.015
 5978.00    0.96396   1.01358    0.015
 5979.00    0.98136   0.99394    0.015
 5980.00    0.99093   0.99086    0.015
 5981.00    0.97789   1.00326    0.015
 5982.00    0.96823   1.01541    0.015
 5983.00    0.96686   1.02277    0.015
 5984.00    0.97397   1.02945    0.015
 5985.00    0.99910   1.03230    0.015
 5986.00    1.02038   1.02842    0.015
 5987.00    1.03459   1.02711    0.015
 5988.00    1.04944   1.03617    0.015
 5989.00    1.06532   1.04720    0.015
 5990.00    1.07981   1.04827    0.014
 5991.00    1.09232   1.03765    0.015
 5992.00    1.09814   1.02255    0.015
 5993.00    1.09564   1.01377    0.015
 5994.00    1.08479   1.01635    0.015
 5995.00    1.06479   1.02447    0.014
 5996.00    1.03757   1.02769    0.014
 5997.00    1.00335   1.02126    0.014
 5998.00    0.97585   1.01419    0.014
 5999.00    0.95409   1.01679    0.014
 6000.00    0.94980   1.02164    0.014
 6001.00    0.95863   1.01564    0.014
 6002.00    0.97423   0.99903    0.014
 6003.00    0.99430   0.98631    0.014
 6004.00    1.00767   0.99418    0.014
 6005.00    1.01716   1.01707    0.014
 6006.00    1.02758   1.03005    0.014
 6007.00    1.03848   1.02245    0.015
 6008.00    1.03252   1.00856    0.015
 6009.00    1.01922   1.00563    0.015
 6010.00    1.02006   1.01052    0.015
 6011.00    1.02620   1.01011    0.015
 6012.00    1.01803   1.00727    0.015
 6013.00    1.00531   1.00869    0.015
 6014.00    1.01051   1.00650    0.015
 6015.00    1.02045   0.99767    0.016
 6016.00    1.01649   0.99321    0.015
 6017.00    1.00952   0.99749    0.015
 6018.00    1.00988   1.00359    0.015
 6019.00    1.01152   1.00873    0.015
 6020.00    1.01122   1.01671    0.015
 6021.00    1.01067   1.02387    0.015
 6022.00    1.00511   1.02653    0.015
 6023.00    0.99908   1.03129    0.014
 6024.00    0.98662   1.03876    0.014
 6025.00    0.97379   1.04228    0.014
 6026.00    0.97297   1.04252    0.014
 6027.00    0.97268   1.04513    0.014
 6028.00    0.99860   1.04936    0.014
 6029.00    1.02313   1.05104    0.014
 6030.00    1.01542   1.05031    0.014
 6031.00    1.00672   1.04971    0.014
 6032.00    0.98537   1.04988    0.014
 6033.00    0.96611   1.04869    0.014
 6034.00    0.96487   1.04425    0.014
 6035.00    0.96770   1.03883    0.014
 6036.00    0.99647   1.03586    0.014
 6037.00    1.02495   1.03677    0.014
 6038.00    1.05195   1.04290    0.014
 6039.00    1.07325   1.05080    0.015
 6040.00    1.07149   1.05497    0.015
 6041.00    1.06505   1.05602    0.015
 6042.00    1.04293   1.05650    0.015
 6043.00    1.02676   1.05598    0.015
 6044.00    1.02743   1.05534    0.015
 6045.00    1.02778   1.05684    0.015
 6046.00    1.02737   1.05739    0.015
 6047.00    1.03166   1.05218    0.015
 6048.00    1.04579   1.04299    0.015
 6049.00    1.04667   1.03513    0.015
 6050.00    1.02349   1.02917    0.015
 6051.00    1.01101   1.02413    0.014
 6052.00    1.01555   1.02409    0.014
 6053.00    1.02041   1.03098    0.014
 6054.00    1.02572   1.04066    0.014
 6055.00    1.02693   1.04711    0.014
 6056.00    1.02312   1.04681    0.014
 6057.00    1.02160   1.03965    0.014
 6058.00    1.02257   1.02759    0.014
 6059.00    1.00654   1.01145    0.014
 6060.00    0.97428   0.99763    0.014
 6061.00    0.95666   1.00248    0.014
 6062.00    0.95134   1.02659    0.014
 6063.00    0.96564   1.04927    0.014
 6064.00    0.99445   1.05901    0.014
 6065.00    1.01311   1.06092    0.014
 6066.00    1.02516   1.06158    0.014
 6067.00    1.03481   1.06267    0.014
 6068.00    1.04309   1.06351    0.014
 6069.00    1.06096   1.06318    0.014
 6070.00    1.08358   1.06055    0.015
 6071.00    1.08649   1.05372    0.015
 6072.00    1.08096   1.04100    0.015
 6073.00    1.04700   1.02539    0.015
 6074.00    1.00258   1.01724    0.015
 6075.00    0.98348   1.01891    0.015
 6076.00    0.97225   1.01810    0.015
 6077.00    0.96643   1.01221    0.015
 6078.00    0.96202   1.01172    0.014
 6079.00    0.97322   1.01592    0.014
 6080.00    0.98773   1.01708    0.014
 6081.00    0.99511   1.01818    0.014
 6082.00    1.00129   1.02395    0.014
 6083.00    0.99003   1.02838    0.014
 6084.00    0.97656   1.02262    0.014
 6085.00    0.95992   1.01087    0.014
 6086.00    0.94299   1.00552    0.014
 6087.00    0.97192   1.00788    0.014
 6088.00    1.00322   1.01312    0.014
 6089.00    1.02646   1.02294    0.014
 6090.00    1.04908   1.03455    0.014
 6091.00    1.03767   1.03772    0.014
 6092.00    1.02605   1.03373    0.014
 6093.00    1.01006   1.03386    0.014
 6094.00    0.99516   1.03985    0.014
 6095.00    0.99362   1.03910    0.014
 6096.00    0.99251   1.01561    0.014
 6097.00    0.99492   0.97469    0.014
 6098.00    0.99511   0.95423    0.014
 6099.00    0.98157   0.97621    0.014
 6100.00    0.96655   1.01185    0.015
 6101.00    0.94436   1.02910    0.015
 6102.00    0.93189   1.02801    0.015
 6103.00    0.95792   1.02525    0.015
 6104.00    0.98540   1.03028    0.015
 6105.00    1.01768   1.03445    0.015
 6106.00    1.04080   1.03042    0.015
 6107.00    1.03843   1.02851    0.014
 6108.00    1.03471   1.03634    0.014
 6109.00    1.02778   1.04465    0.014
 6110.00    1.02187   1.04251    0.014
 6111.00    1.01805   1.03295    0.014
 6112.00    1.01530   1.02918    0.014
 6113.00    1.01446   1.03107    0.014
 6114.00    1.00935   1.02446    0.014
 6115.00    0.99755   1.00459    0.014
 6116.00    0.98965   0.97830    0.014
 6117.00    0.98709   0.96187    0.014
 6118.00    0.98662   0.97407    0.014
 6119.00    0.98867   1.00341    0.014
 6120.00    0.98971   1.01977    0.014
 6121.00    0.98967   1.01829    0.014
 6122.00    0.98497   1.01138    0.014
 6123.00    0.97589   1.00733    0.014
 6124.00    0.98469   1.01143    0.014
 6125.00    1.00831   1.02286    0.014
 6126.00    1.02965   1.03305    0.014
 6127.00    1.04931   1.03708    0.014
 6128.00    1.03842   1.03518    0.014
 6129.00    1.00794   1.02144    0.014
 6130.00    0.99218   0.98795    0.014
 6131.00    0.98468   0.94088    0.014
 6132.00    0.97804   0.91118    0.014
 6133.00    0.97183   0.92981    0.015
 6134.00    0.97065   0.97894    0.015
 6135.00    0.97160   1.00867    0.015
 6136.00    0.97705   1.00321    0.015
 6137.00    0.98411   0.99403    0.014
 6138.00    1.00452   1.00673    0.014
 6139.00    1.02900   1.02840    0.014
 6140.00    1.05418   1.03900    0.014
 6141.00    1.07954   1.03726    0.014
 6142.00    1.08971   1.02822    0.014
 6143.00    1.09675   1.01462    0.014
 6144.00    1.09172   1.00245    0.014
 6145.00    1.08473   0.99854    0.014
 6146.00    1.08574   1.00454    0.014
 6147.00    1.08773   1.01496    0.014
 6148.00    1.06102   1.01938    0.014
 6149.00    1.03191   1.01214    0.014
 6150.00    1.01493   1.00285    0.014
 6151.00    0.99852   1.00138    0.014
 6152.00    0.97967   1.00274    0.014
 6153.00    0.96080   1.00059    0.014
 6154.00    0.94241   0.99046    0.014
 6155.00    0.92392   0.96080    0.014
 6156.00    0.90356   0.91288    0.014
 6157.00    0.88241   0.87710    0.014
 6158.00    0.85216   0.87980    0.015
 6159.00    0.82634   0.91122    0.015
 6160.00    0.83591   0.94317    0.015
 6161.00    0.84725   0.96216    0.015
 6162.00    0.86926   0.96907    0.015
 6163.00    0.88647   0.95744    0.014
 6164.00    0.88093   0.93066    0.014
 6165.00    0.87964   0.92026    0.014
 6166.00    0.89482   0.94210    0.014
 6167.00    0.90858   0.96971    0.014
 6168.00    0.91777   0.98023    0.014
 6169.00    0.92062   0.98096    0.014
 6170.00    0.90614   0.98075    0.014
 6171.00    0.89750   0.97919    0.013
 6172.00    0.90252   0.98050    0.013
 6173.00    0.91248   0.98781    0.014
 6174.00    0.93242   0.99312    0.014
 6175.00    0.94787   0.99352    0.014
 6176.00    0.95539   0.99715    0.014
 6177.00    0.96978   1.00379    0.014
 6178.00    0.99477   1.00622    0.014
 6179.00    1.01232   1.00393    0.014
 6180.00    1.01981   0.99716    0.014
 6181.00    1.01910   0.98452    0.014
 6182.00    1.00862   0.97220    0.014
 6183.00    0.99805   0.96650    0.014
 6184.00    0.98739   0.96186    0.014
 6185.00    0.99299   0.94619    0.014
 6186.00    1.01367   0.92517    0.015
 6187.00    1.00386   0.92606    0.015
 6188.00    0.96912   0.95309    0.014
 6189.00    0.94662   0.97934    0.014
 6190.00    0.93292   0.99205    0.014
 6191.00    0.93606   0.99850    0.014
 6192.00    0.94983   1.00053    0.014
 6193.00    0.94828   0.99141    0.014
 6194.00    0.93826   0.97291    0.014
 6195.00    0.92535   0.96242    0.015
 6196.00    0.91107   0.97158   -2.000
 6197.00    0.96112   0.98977   -2.000
 6198.00    1.03784   1.00099   -2.000
 6199.00    1.13975   1.00272   -2.000
 6200.00    1.25060   1.00222   -2.000
 6201.00    1.23067   1.00383   -2.000
 6202.00    1.17161   1.00553   -2.000
 6203.00    1.06706   1.00525   -2.000
 6204.00    0.95122   1.00247   -2.000
 6205.00    0.92166   0.99687   -2.000
 6206.00    0.90948   0.98864   -2.000
 6207.00    0.92815   0.97450   -2.000
 6208.00    0.95169   0.95226    0.015
 6209.00    0.95497   0.93205    0.014
 6210.00    0.95589   0.92544    0.014
 6211.00    0.98832   0.93403    0.014
 6212.00    1.02326   0.94950    0.014
 6213.00    1.02972   0.95575    0.014
 6214.00    1.03493   0.94745    0.014
 6215.00    1.03885   0.93941    0.014
 6216.00    1.04243   0.94404    0.014
 6217.00    1.03050   0.95593    0.014
 6218.00    1.01737   0.96293    0.014
 6219.00    0.98248   0.96307    0.014
 6220.00    0.94965   0.96407    0.014
 6221.00    0.93939   0.96765    0.014
 6222.00    0.93182   0.96893    0.014
 6223.00    0.94493   0.96236    0.014
 6224.00    0.95797   0.94177    0.014
 6225.00    0.97066   0.91426    0.014
 6226.00    0.97893   0.90219    0.014
 6227.00    0.96672   0.91415    0.014
 6228.00    0.95867   0.93869    0.014
 6229.00    0.96642   0.96510    0.014
 6230.00    0.97530   0.98308    0.014
 6231.00    0.98777   0.98470    0.014
 6232.00    0.99246   0.97355    0.014
 6233.00    0.97623   0.95825    0.014
 6234.00    0.95776   0.94431    0.014
 6235.00    0.93414   0.93710    0.013
 6236.00    0.91519   0.93799    0.013
 6237.00    0.90555   0.93557    0.014
 6238.00    0.90566   0.92594    0.014
 6239.00    0.92270   0.92103    0.014
 6240.00    0.93109   0.92293    0.014
 6241.00    0.92636   0.92810    0.014
 6242.00    0.92563   0.94151    0.014
 6243.00    0.93024   0.96014    0.014
 6244.00    0.94267   0.97178    0.014
 6245.00    0.96430   0.96980    0.014
 6246.00    0.97391   0.95314    0.014
 6247.00    0.97105   0.92935    0.014
 6248.00    0.96567   0.91447    0.014
 6249.00    0.95796   0.91384    0.013
 6250.00    0.95738   0.91693    0.013
 6251.00    0.96255   0.91286    0.013
 6252.00    0.96329   0.90219    0.013
 6253.00    0.96089   0.89640    0.013
 6254.00    0.95232   0.90667    0.014
 6255.00    0.93992   0.92782    0.013
 6256.00    0.93041   0.94684    0.013
 6257.00    0.92247   0.96306    0.014
 6258.00    0.93478   0.97420    0.014
 6259.00    0.95667   0.97075    0.015
 6260.00    0.99071   0.95957    0.016
 6261.00    1.02971   0.95841    0.017
 6262.00    1.03259   0.96629    0.017
 6263.00    1.02291   0.96899    0.018
 6264.00    1.03203   0.96440    0.017
 6265.00    1.04665   0.96135    0.017
 6266.00    1.01713   0.96486    0.016
 6267.00    0.97688   0.97226    0.015
 6268.00    0.97575   0.97717    0.015
 6269.00    0.98229   0.97727    0.014
 6270.00    1.01268   0.97646    0.014
 6271.00    1.04671   0.97647    0.014
 6272.00    1.04569   0.97505    0.014
 6273.00    1.04071   0.96998    0.014
 6274.00    1.00326   0.95989    0.014
 6275.00    0.96336   0.94933    0.013
 6276.00    0.94990   0.94799    0.013
 6277.00    0.93749   0.95743    0.013
 6278.00    0.93152   0.97010    0.013
 6279.00    0.92576   0.97828    0.014
 6280.00    0.92638   0.98069    0.000
 6281.00    0.92752   0.98433    0.000
 6282.00    0.93771   0.99246    0.000
 6283.00    0.94828   0.99946    0.000
 6284.00    0.96276   0.99865    0.000
 6285.00    0.97321   0.98914    0.000
 6286.00    0.95355   0.97775    0.000
 6287.00    0.93482   0.97157    0.000
 6288.00    0.92137   0.97230    0.000
 6289.00    0.91664   0.97581    0.000
 6290.00    0.95142   0.97235    0.000
 6291.00    0.98715   0.95895    0.000
 6292.00    1.02642   0.94772    0.000
 6293.00    1.05732   0.94908    0.000
 6294.00    1.06225   0.95589    0.000
 6295.00    1.05443   0.95347    0.000
 6296.00    1.01297   0.94176    0.000
 6297.00    0.98562   0.93700    0.000
 6298.00    0.99021   0.94755    0.000
 6299.00    0.99405   0.96219    0.000
 6300.00    0.99646   0.97060    0.000
 6301.00    0.99714   0.97813    0.000
 6302.00    0.99489   0.98948    0.000
 6303.00    0.98570   0.99686    0.000
 6304.00    0.96614   0.99335    0.000
 6305.00    0.94650   0.98235    0.000
 6306.00    0.92675   0.97291    0.000
 6307.00    0.91902   0.97071    0.000
 6308.00    0.92523   0.96953    0.000
 6309.00    0.93546   0.96009    0.000
 6310.00    0.94981   0.94921    0.000
 6311.00    0.95785   0.94597    0.000
 6312.00    0.96018   0.94155    0.000
 6313.00    0.94971   0.93398    0.000
 6314.00    0.92907   0.93852    0.000
 6315.00    0.92317   0.95498    0.000
 6316.00    0.92757   0.96663    0.000
 6317.00    0.93492   0.96990    0.000
 6318.00    0.94409   0.97520    0.000
 6319.00    0.94501   0.98487    0.000
 6320.00    0.94151   0.99139    0.000
 6321.00    0.93703   0.99131    0.014
 6322.00    0.93209   0.98886    0.014
 6323.00    0.93797   0.98908    0.014
 6324.00    0.94819   0.98898    0.013
 6325.00    0.95288   0.98605    0.013
 6326.00    0.95568   0.98732    0.013
 6327.00    0.96034   0.99465    0.013
 6328.00    0.96553   0.99616    0.013
 6329.00    0.97207   0.98006    0.013
 6330.00    0.97894   0.95340    0.013
 6331.00    0.97718   0.93874    0.013
 6332.00    0.97377   0.94526    0.013
 6333.00    0.96154   0.95998    0.013
 6334.00    0.94799   0.97258    0.013
 6335.00    0.94422   0.98389    0.013
 6336.00    0.94151   0.98931    0.013
 6337.00    0.94604   0.98155    0.013
 6338.00    0.95109   0.96511    0.013
 6339.00    0.92179   0.95456    0.013
 6340.00    0.89125   0.95751    0.013
 6341.00    0.89068   0.96615    0.013
 6342.00    0.89060   0.97376    0.013
 6343.00    0.90382   0.98206    0.014
 6344.00    0.91744   0.98993    0.014
 6345.00    0.93739   0.99403    0.014
 6346.00    0.95575   0.99484    0.014
 6347.00    0.95803   0.99194    0.014
 6348.00    0.96230   0.98226    0.014
 6349.00    0.98086   0.96824    0.013
 6350.00    0.99641   0.96031    0.013
 6351.00    0.99529   0.96100    0.013
 6352.00    0.99049   0.95734    0.013
 6353.00    0.96943   0.94387    0.013
 6354.00    0.95136   0.93254    0.013
 6355.00    0.94417   0.92887    0.013
 6356.00    0.93907   0.92521    0.013
 6357.00    0.94034   0.92098    0.013
 6358.00    0.93931   0.92428    0.013
 6359.00    0.93235   0.93619    0.013
 6360.00    0.92275   0.95026    0.013
 6361.00    0.90727   0.96302    0.013
 6362.00    0.90649   0.97509    0.013
 6363.00    0.93412   0.98358    0.013
 6364.00    0.96451   0.98380    0.014
 6365.00    0.99954   0.97966    0.014
 6366.00    1.02655   0.98106    0.014
 6367.00    1.04174   0.99012    0.014
 6368.00    1.03654   0.99863    0.014
 6369.00    1.00490   1.00074    0.014
 6370.00    0.98141   0.99955    0.014
 6371.00    0.96725   0.99798    0.014
 6372.00    0.96912   0.99291    0.014
 6373.00    0.98714   0.98348    0.014
 6374.00    0.99319   0.97572    0.013
 6375.00    0.98860   0.97378    0.013
 6376.00    0.97687   0.97725    0.013
 6377.00    0.95954   0.98309    0.013
 6378.00    0.95312   0.98504    0.013
 6379.00    0.95420   0.98223    0.013
 6380.00    0.95755   0.98203    0.013
 6381.00    0.96228   0.98713    0.013
 6382.00    0.97251   0.99206    0.013
 6383.00    0.98566   0.99352    0.013
 6384.00    0.98226   0.99353    0.013
 6385.00    0.97130   0.99163    0.013
 6386.00    0.94294   0.98135    0.013
 6387.00    0.90772   0.95954    0.013
 6388.00    0.90839   0.94023    0.013
 6389.00    0.92108   0.94374    0.013
 6390.00    0.94565   0.96710    0.013
 6391.00    0.97355   0.98893    0.013
 6392.00    0.95484   0.99496    0.013
 6393.00    0.92531   0.97970    0.013
 6394.00    0.90574   0.94931    0.014
 6395.00    0.88803   0.93229    0.014
 6396.00    0.90655   0.94962    0.014
 6397.00    0.93028   0.98178    0.014
 6398.00    0.93260   1.00152    0.014
 6399.00    0.93269   1.00568    0.014
 6400.00    0.93581   0.99993    0.014
 6401.00    0.93914   0.98648    0.013
 6402.00    0.93926   0.97083    0.013
 6403.00    0.93928   0.96585    0.013
 6404.00    0.93215   0.97347    0.013
 6405.00    0.92498   0.97557    0.013
 6406.00    0.91632   0.96620    0.013
 6407.00    0.90868   0.96209    0.013
 6408.00    0.91635   0.96866    0.013
 6409.00    0.92409   0.97600    0.013
 6410.00    0.93246   0.98101    0.013
 6411.00    0.93922   0.98491    0.013
 6412.00    0.93471   0.98469    0.013
 6413.00    0.93098   0.97691    0.013
 6414.00    0.93149   0.96105    0.013
 6415.00    0.92929   0.94508    0.013
 6416.00    0.91535   0.94491    0.013
 6417.00    0.90255   0.96511    0.013
 6418.00    0.89379   0.98852    0.013
 6419.00    0.89275   0.99869    0.013
 6420.00    0.91477   0.99981    0.014
 6421.00    0.93337   1.00242    0.014
 6422.00    0.94324   1.00599    0.013
 6423.00    0.94952   1.00158    0.013
 6424.00    0.94791   0.98298    0.013
 6425.00    0.94622   0.95806    0.013
 6426.00    0.94437   0.94704    0.013
 6427.00    0.95201   0.95784    0.013
 6428.00    0.97542   0.97693    0.013
 6429.00    0.99635   0.99139    0.013
 6430.00    1.01370   0.99869    0.013
 6431.00    1.01677   0.99707    0.013
 6432.00    1.00158   0.98166    0.013
 6433.00    0.98730   0.95796    0.013
 6434.00    0.97404   0.94944    0.013
 6435.00    0.96988   0.96826    0.013
 6436.00    0.97475   0.99527    0.013
 6437.00    0.98227   1.01027    0.013
 6438.00    0.99211   1.01381    0.013
 6439.00    0.99285   1.01419    0.014
 6440.00    0.98656   1.01562    0.014
 6441.00    0.98859   1.01521    0.014
 6442.00    0.99629   1.00341    0.014
 6443.00    0.98903   0.97221    0.014
 6444.00    0.97288   0.93308    0.014
 6445.00    0.96123   0.91767    0.013
 6446.00    0.95193   0.93824    0.013
 6447.00    0.95906   0.97053    0.013
 6448.00    0.97358   0.98870    0.013
 6449.00    0.97788   0.98542    0.013
 6450.00    0.97824   0.97046    0.014
 6451.00    0.95922   0.96432    0.013
 6452.00    0.93382   0.97687    0.013
 6453.00    0.91899   0.99707    0.013
 6454.00    0.90708   1.00902    0.013
 6455.00    0.90845   1.00259    0.013
 6456.00    0.91284   0.97486    0.013
 6457.00    0.92879   0.94297    0.013
 6458.00    0.94684   0.93704    0.013
 6459.00    0.94700   0.95911    0.013
 6460.00    0.94467   0.98392    0.013
 6461.00    0.95007   0.99801    0.013
 6462.00    0.95624   1.00254    0.013
 6463.00    0.95020   0.99903    0.013
 6464.00    0.94338   0.99010    0.013
 6465.00    0.92684   0.98033    0.013
 6466.00    0.91011   0.97416    0.013
 6467.00    0.91966   0.97633    0.013
 6468.00    0.92949   0.98206    0.013
 6469.00    0.94730   0.98085    0.013
 6470.00    0.96595   0.97674    0.013
 6471.00    0.99637   0.98028    0.013
 6472.00    1.02572   0.98848    0.013
 6473.00    1.04515   0.99228    0.013
 6474.00    1.06143   0.98954    0.013
 6475.00    1.05634   0.97838    0.013
 6476.00    1.04677   0.95889    0.013
 6477.00    1.01373   0.94354    0.013
 6478.00    0.98352   0.94522    0.013
 6479.00    0.96531   0.95941    0.013
 6480.00    0.95061   0.97298    0.013
 6481.00    0.94812   0.98061    0.013
 6482.00    0.94658   0.98396    0.013
 6483.00    0.94780   0.98323    0.013
 6484.00    0.95548   0.97668    0.013
 6485.00    0.97934   0.96608    0.013
 6486.00    0.99507   0.95384    0.013
 6487.00    0.99330   0.93375    0.013
 6488.00    0.98008   0.89808    0.013
 6489.00    0.94544   0.85895    0.013
 6490.00    0.91778   0.84078    0.013
 6491.00    0.90154   0.84935    0.013
 6492.00    0.89734   0.87143    0.013
 6493.00    0.91039   0.89250    0.013
 6494.00    0.92767   0.90870    0.013
 6495.00    0.95026   0.92620    0.013
 6496.00    0.97157   0.94428    0.013
 6497.00    0.99148   0.95750    0.013
 6498.00    1.00516   0.96564    0.013
 6499.00    1.01275   0.97145    0.013
 6500.00    1.00662   0.97647    0.013
 6501.00    0.98862   0.97834    0.013
 6502.00    0.97588   0.97452    0.013
 6503.00    0.96713   0.96879    0.013
 6504.00    0.95445   0.96820    0.013
 6505.00    0.93914   0.97302    0.013
 6506.00    0.93090   0.97728    0.019
 6507.00    0.92681   0.97797    0.075
 6508.00    0.93292   0.97540   -1.000
 6509.00    0.94423   0.96819   -1.000
 6510.00    0.95894   0.95721   -1.000
 6511.00    0.97516   0.94750   -1.000
 6512.00    0.99172   0.94155   -1.000
 6513.00    1.00841   0.94049   -1.000
 6514.00    1.01620   0.94824   -1.000
 6515.00    1.02113   0.96226   -1.000
 6516.00    1.00770   0.97269    0.033
 6517.00    0.98931   0.97590    0.015
 6518.00    0.97908   0.97636    0.013
 6519.00    0.97065   0.97651    0.013
 6520.00    0.97103   0.97226    0.013
 6521.00    0.97297   0.96265    0.013
 6522.00    0.97494   0.95695    0.013
 6523.00    0.97692   0.96146    0.013
 6524.00    0.96699   0.96941    0.013
 6525.00    0.95592   0.97095    0.013
 6526.00    0.96180   0.96407    0.013
 6527.00    0.96867   0.95526    0.013
 6528.00    0.97500   0.95318    0.000
 6529.00    0.98121   0.96010    0.000
 6530.00    0.97383   0.96920    0.000
 6531.00    0.96616   0.97237    0.000
 6532.00    0.95102   0.97073    0.000
 6533.00    0.93790   0.97196    0.000
 6534.00    0.95165   0.97713    0.000
 6535.00    0.96551   0.97914    0.000
 6536.00    0.98037   0.97354    0.000
 6537.00    0.99288   0.96363    0.000
 6538.00    0.98999   0.95371    0.000
 6539.00    0.99002   0.94212    0.000
 6540.00    1.00496   0.92687    0.000
 6541.00    1.02437   0.91656    0.000
 6542.00    1.06230   0.92064    0.000
 6543.00    1.10498   0.93208    0.000
 6544.00    1.16386   0.93746    0.000
 6545.00    1.20519   0.93331    0.000
 6546.00    1.19594   0.92507    0.000
 6547.00    1.17371   0.91684    0.000
 6548.00    1.11956   0.90619    0.000
 6549.00    1.06498   0.89193    0.000
 6550.00    1.00950   0.88041    0.000
 6551.00    0.96921   0.87784    0.000
 6552.00    0.95689   0.88036    0.000
 6553.00    0.97201   0.87755    0.000
 6554.00    1.03131   0.85972    0.000
 6555.00    1.15875   0.81251    0.000
 6556.00    1.38244   0.72593    0.000
 6557.00    1.67371   0.63997    0.000
 6558.00    2.04895   0.63188    0.000
 6559.00    2.31817   0.71112    0.000
 6560.00    2.47128   0.80493    0.000
 6561.00    2.43062   0.86225    0.000
 6562.00    2.20275   0.88543    0.000
 6563.00    1.89811   0.88936    0.000
 6564.00    1.52806   0.88838    0.000
 6565.00    1.25376   0.89189    0.000
 6566.00    1.05130   0.89497    0.000
 6567.00    0.93621   0.89045    0.000
 6568.00    0.87870   0.88280    0.000
 6569.00    0.86191   0.88227    0.000
 6570.00    0.86862   0.89491    0.000
 6571.00    0.87174   0.91652    0.000
 6572.00    0.87305   0.93501    0.000
 6573.00    0.88314   0.94238    0.000
 6574.00    0.89704   0.93874    0.000
 6575.00    0.94629   0.93045    0.000
 6576.00    1.00874   0.92750    0.000
 6577.00    1.13107   0.93360    0.000
 6578.00    1.27236   0.94156    0.000
 6579.00    1.41284   0.94407    0.000
 6580.00    1.55311   0.94161    0.000
 6581.00    1.57104   0.94100    0.000
 6582.00    1.56252   0.94712    0.000
 6583.00    1.43691   0.95574    0.000
 6584.00    1.29122   0.95981    0.000
 6585.00    1.16969   0.95383    0.000
 6586.00    1.05129   0.93268    0.000
 6587.00    0.99668   0.90284    0.000
 6588.00    0.94789   0.88749    0.000
 6589.00    0.93827   0.90004    0.000
 6590.00    0.93082   0.92418    0.000
 6591.00    0.93714   0.93744    0.000
 6592.00    0.94388   0.93680    0.000
 6593.00    0.96285   0.93405    0.000
 6594.00    0.98140   0.93965    0.000
 6595.00    0.99027   0.95185    0.000
 6596.00    0.99855   0.96101    0.000
 6597.00    0.99941   0.96165    0.000
 6598.00    0.99880   0.95516    0.000
 6599.00    0.98555   0.94610    0.000
 6600.00    0.97389   0.93912    0.000
 6601.00    0.97239   0.93421    0.000
 6602.00    0.96920   0.92707    0.000
 6603.00    0.95758   0.91851    0.000
 6604.00    0.94625   0.91895    0.000
 6605.00    0.93610   0.93354    0.000
 6606.00    0.92760   0.94999    0.000
 6607.00    0.92462   0.95494    0.000
 6608.00    0.92412   0.95207    0.000
 6609.00    0.93062   0.95322    0.013
 6610.00    0.93483   0.95928    0.013
 6611.00    0.93348   0.96226    0.013
 6612.00    0.93435   0.96089    0.013
 6613.00    0.93985   0.96054    0.013
 6614.00    0.94656   0.96315    0.013
 6615.00    0.95548   0.96596    0.013
 6616.00    0.95781   0.96534    0.013
 6617.00    0.94968   0.95848    0.013
 6618.00    0.94491   0.94578    0.013
 6619.00    0.94482   0.93409    0.013
 6620.00    0.96695   0.93212    0.013
 6621.00    1.01630   0.93870    0.013
 6622.00    1.03935   0.94476    0.013
 6623.00    1.03401   0.94632    0.013
 6624.00    1.02260   0.94479    0.013
 6625.00    1.00540   0.94123    0.013
 6626.00    0.98940   0.93410    0.013
 6627.00    0.97439   0.92197    0.013
 6628.00    0.95981   0.91066    0.013
 6629.00    0.94555   0.91088    0.013
 6630.00    0.94876   0.92375    0.013
 6631.00    0.96332   0.93866    0.013
 6632.00    0.95978   0.94645    0.013
 6633.00    0.94596   0.94598    0.013
 6634.00    0.94301   0.94275    0.013
 6635.00    0.94545   0.94329    0.013
 6636.00    0.96519   0.94403    0.013
 6637.00    0.99233   0.93589    0.013
 6638.00    1.00131   0.92467    0.013
 6639.00    1.00363   0.92460    0.013
 6640.00    0.98596   0.93395    0.013
 6641.00    0.96208   0.94032    0.013
 6642.00    0.93679   0.94123    0.013
 6643.00    0.91113   0.94223    0.013
 6644.00    0.91294   0.94401    0.013
 6645.00    0.92054   0.94316    0.013
 6646.00    0.92552   0.93988    0.013
 6647.00    0.93006   0.93755    0.013
 6648.00    0.93452   0.93760    0.013
 6649.00    0.93898   0.93900    0.013
 6650.00    0.94980   0.93972    0.013
 6651.00    0.96117   0.93910    0.013
 6652.00    0.95955   0.93905    0.013
 6653.00    0.95728   0.93947    0.013
 6654.00    0.96749   0.93764    0.013
 6655.00    0.97753   0.93250    0.013
 6656.00    0.95946   0.92363    0.013
 6657.00    0.94190   0.91138    0.013
 6658.00    0.93485   0.90345    0.013
 6659.00    0.92835   0.90704    0.013
 6660.00    0.92834   0.91543    0.013
 6661.00    0.92896   0.91959    0.013
 6662.00    0.93482   0.92143    0.013
 6663.00    0.93784   0.92661    0.013
 6664.00    0.92332   0.93523    0.013
 6665.00    0.90752   0.94271    0.013
 6666.00    0.88547   0.94584    0.013
 6667.00    0.86843   0.94584    0.013
 6668.00    0.87119   0.94540    0.013
 6669.00    0.87727   0.94464    0.013
 6670.00    0.89425   0.93872    0.013
 6671.00    0.91003   0.92126    0.013
 6672.00    0.92248   0.89843    0.013
 6673.00    0.92523   0.88992    0.013
 6674.00    0.90493   0.90159    0.013
 6675.00    0.87967   0.91677    0.013
 6676.00    0.84421   0.92427    0.013
 6677.00    0.82984   0.92809    0.013
 6678.00    0.85313   0.93215    0.013
 6679.00    0.87318   0.93521    0.013
 6680.00    0.88818   0.93569    0.013
 6681.00    0.89767   0.93404    0.013
 6682.00    0.89963   0.93195    0.013
 6683.00    0.90669   0.93168    0.013
 6684.00    0.91992   0.93351    0.013
 6685.00    0.92737   0.93527    0.013
 6686.00    0.92867   0.93554    0.013
 6687.00    0.92233   0.93482    0.013
 6688.00    0.90882   0.93290    0.013
 6689.00    0.89435   0.92693    0.013
 6690.00    0.87908   0.91649    0.013
 6691.00    0.88478   0.90853    0.013
 6692.00    0.90577   0.90920    0.013
 6693.00    0.91012   0.91655    0.013
 6694.00    0.90382   0.92605    0.013
 6695.00    0.89350   0.93334    0.013
 6696.00    0.88094   0.93423    0.000
 6697.00    0.88873   0.92813    0.000
 6698.00    0.90642   0.91947    0.000
 6699.00    0.92817   0.91536    0.000
 6700.00    0.95162   0.91871    0.000
 6701.00    0.95458   0.92492    0.000
 6702.00    0.95015   0.92860    0.000
 6703.00    0.95131   0.92847    0.000
 6704.00    0.95417   0.92539    0.000
 6705.00    0.95037   0.92204    0.000
 6706.00    0.94488   0.92014    0.000
 6707.00    0.94668   0.91685    0.000
 6708.00    0.94998   0.91033    0.000
 6709.00    0.99907   0.90186    0.000
 6710.00    1.05557   0.89119    0.000
 6711.00    1.11933   0.87940    0.000
 6712.00    1.18397   0.87462    0.000
 6713.00    1.21705   0.88410    0.000
 6714.00    1.24751   0.90047    0.000
 6715.00    1.22290   0.91040    0.000
 6716.00    1.19568   0.91271    0.000
 6717.00    1.13736   0.91498    0.000
 6718.00    1.07862   0.91877    0.000
 6719.00    1.02074   0.91871    0.000
 6720.00    0.96387   0.91384    0.000
 6721.00    0.92667   0.91060    0.000
 6722.00    0.89371   0.91315    0.000
 6723.00    0.90933   0.91856    0.000
 6724.00    0.93380   0.92312    0.000
 6725.00    1.02870   0.92544    0.000
 6726.00    1.11832   0.92470    0.000
 6727.00    1.17628   0.92160    0.000
 6728.00    1.21792   0.91923    0.000
 6729.00    1.18226   0.91989    0.000
 6730.00    1.13655   0.92191    0.000
 6731.00    1.05200   0.92070    0.000
 6732.00    0.97876   0.91409    0.000
 6733.00    0.94194   0.90667    0.000
 6734.00    0.91542   0.90499    0.000
 6735.00    0.91700   0.90840    0.000
 6736.00    0.90793   0.90961    0.000
 6737.00    0.87398   0.90645    0.000
 6738.00    0.85036   0.90512    0.000
 6739.00    0.84762   0.90807    0.000
 6740.00    0.85203   0.91001    0.000
 6741.00    0.86898   0.90800    0.000
 6742.00    0.88277   0.90385    0.000
 6743.00    0.89168   0.89896    0.000
 6744.00    0.88908   0.89513    0.000
 6745.00    0.87094   0.89529    0.000
 6746.00    0.85292   0.89779    0.000
 6747.00    0.83504   0.89886    0.000
 6748.00    0.82664   0.90111    0.000
 6749.00    0.82818   0.90680    0.000
 6750.00    0.83064   0.91286    0.000
 6751.00    0.83397   0.91821    0.000
 6752.00    0.86132   0.92351    0.000
 6753.00    0.90827   0.92782    0.014
 6754.00    0.95113   0.93005    0.015
 6755.00    0.99104   0.92985    0.015
 6756.00    0.98964   0.92788    0.015
 6757.00    0.96219   0.92659    0.015
 6758.00    0.90425   0.92680    0.015
 6759.00    0.82952   0.92504    0.015
 6760.00    0.86638   0.91796    0.015
 6761.00    0.95672   0.90756    0.015
 6762.00    1.04016   0.90117    0.016
 6763.00    1.12073   0.90295    0.016
 6764.00    1.12396   0.90686    0.015
 6765.00    1.09985   0.90629    0.015
 6766.00    1.09615   0.90539    0.015
 6767.00    1.09856   0.91077    0.015
 6768.00    1.07050   0.92066    0.015
 6769.00    1.03490   0.92916    0.015
 6770.00    1.01702   0.93336    0.015
 6771.00    1.00269   0.93387    0.014
 6772.00    0.99075   0.93354    0.014
 6773.00    0.97919   0.93485    0.014
 6774.00    0.95675   0.93549    0.014
 6775.00    0.93305   0.93124    0.014
 6776.00    0.89444   0.92107    0.014
 6777.00    0.85466   0.90731    0.014
 6778.00    0.88266   0.89515    0.014
 6779.00    0.91361   0.88987    0.014
 6780.00    0.90963   0.89194    0.015
 6781.00    0.90497   0.89875    0.015
 6782.00    0.88566   0.90770    0.014
 6783.00    0.86968   0.91433    0.014
 6784.00    0.91395   0.91632    0.014
 6785.00    0.95634   0.91649    0.014
 6786.00    0.97812   0.91597    0.014
 6787.00    0.99517   0.91242    0.014
 6788.00    0.97594   0.90747    0.014
 6789.00    0.96554   0.90577    0.014
 6790.00    1.00667   0.90741    0.014
 6791.00    1.03893   0.91009    0.014
 6792.00    1.03024   0.91253    0.014
 6793.00    1.02275   0.91443    0.014
 6794.00    1.01981   0.91685    0.014
 6795.00    1.01885   0.92002    0.014
 6796.00    1.02417   0.92194    0.014
 6797.00    1.02867   0.92054    0.014
 6798.00    1.03099   0.91697    0.014
 6799.00    1.03113   0.91488    0.014
 6800.00    1.02626   0.91436    0.014
 6801.00    1.01244   0.91350    0.014
 6802.00    0.98083   0.91384    0.014
 6803.00    0.95485   0.91481    0.014
 6804.00    0.93862   0.91377    0.014
 6805.00    0.91835   0.91332    0.014
 6806.00    0.89194   0.91544    0.014
 6807.00    0.87121   0.91624    0.014
 6808.00    0.85804   0.91240    0.013
 6809.00    0.88076   0.90725    0.013
 6810.00    0.94561   0.90799    0.014
 6811.00    0.98588   0.91522    0.014
 6812.00    1.00070   0.92077    0.014
 6813.00    0.99887   0.91909    0.014
 6814.00    0.98183   0.91355    0.015
 6815.00    0.96200   0.91175    0.015
 6816.00    0.93993   0.91672    0.014
 6817.00    0.93762   0.92384    0.014
 6818.00    0.94928   0.92807    0.014
 6819.00    0.94088   0.92891    0.014
 6820.00    0.92002   0.92718    0.014
 6821.00    0.91416   0.92158    0.014
 6822.00    0.91646   0.91279    0.014
 6823.00    0.90825   0.90764    0.014
 6824.00    0.89509   0.91124    0.014
 6825.00    0.89917   0.91869    0.013
 6826.00    0.91026   0.92214    0.013
 6827.00    0.92386   0.92137    0.013
 6828.00    0.93833   0.92181    0.014
 6829.00    0.94948   0.92481    0.014
 6830.00    0.95967   0.92596    0.014
 6831.00    0.93986   0.92236    0.014
 6832.00    0.91279   0.91491    0.014
 6833.00    0.90933   0.90492    0.014
 6834.00    0.91048   0.89348    0.014
 6835.00    0.90422   0.88267    0.014
 6836.00    0.89683   0.87684    0.014
 6837.00    0.89281   0.88064    0.014
 6838.00    0.88916   0.89328    0.015
 6839.00    0.89018   0.90785    0.015
 6840.00    0.89155   0.91716    0.015
 6841.00    0.90987   0.91996    0.015
 6842.00    0.92887   0.91971    0.015
 6843.00    0.92383   0.91856    0.014
 6844.00    0.92011   0.91693    0.014
 6845.00    0.97510   0.91595    0.014
 6846.00    1.02275   0.91617    0.013
 6847.00    0.94649   0.91508    0.013
 6848.00    0.87716   0.90779    0.013
 6849.00    0.88040   0.89544    0.013
 6850.00    0.88472   0.88796    0.013
 6851.00    0.89711   0.88996    0.013
 6852.00    0.90671   0.89563    0.013
 6853.00    0.90052   0.89972    0.013
 6854.00    0.89234   0.89915    0.013
 6855.00    0.87520   0.89304    0.013
 6856.00    0.86260   0.88920    0.013
 6857.00    0.86685   0.89649    0.014
 6858.00    0.87330   0.91053    0.014
 6859.00    0.88654   0.91877    0.014
 6860.00    0.89677   0.91581    0.014
 6861.00    0.89907   0.90539    0.014
 6862.00    0.89801   0.89503    0.014
 6863.00    0.88935   0.89255    0.014
 6864.00    0.89063   0.89810    0.013
 6865.00    0.91139   0.90225    0.014
 6866.00    0.93328   0.89998    0.014
 6867.00    0.95712   0.89743    0.014
 6868.00    0.95897   0.89943    0.014
 6869.00    0.92795   0.90272    0.014
 6870.00    0.89634   0.90547    0.014
 6871.00    0.86395   0.91036    0.013
 6872.00    0.85107   0.91683    0.013
 6873.00    0.86077   0.92021    0.013
 6874.00    0.87676   0.91773    0.013
 6875.00    0.89919   0.90972    0.013
 6876.00    0.91641   0.89925    0.014
 6877.00    0.92895   0.89341    0.014
 6878.00    0.94257   0.89689    0.014
 6879.00    0.95706   0.90436    0.014
 6880.00    0.94393   0.90835    0.014
 6881.00    0.91154   0.91112    0.014
 6882.00    0.89848   0.91679    0.014
 6883.00    0.89726   0.92271    0.013
 6884.00    0.90379   0.92651    0.013
 6885.00    0.91446   0.92904    0.013
 6886.00    0.91583   0.92937    0.013
 6887.00    0.91288   0.92690    0.013
 6888.00    0.91663   0.92392    0.013
 6889.00    0.92307   0.92127    0.013
 6890.00    0.93318   0.91898    0.013
 6891.00    0.94455   0.91917    0.013
 6892.00    0.94087   0.92199    0.013
 6893.00    0.93288   0.92331    0.013
 6894.00    0.93348   0.92109    0.013
 6895.00    0.93612   0.92007    0.013
 6896.00    0.92807   0.92392    0.013
 6897.00    0.91799   0.92835    0.013
 6898.00    0.94253   0.92841    0.013
 6899.00    0.97218   0.92631    0.014
 6900.00    0.98630   0.92716    0.014
 6901.00    0.99873   0.93164    0.014
 6902.00    0.97290   0.93554    0.014
 6903.00    0.94437   0.93618    0.014
 6904.00    0.93210   0.93426    0.014
 6905.00    0.92041   0.93049    0.014
 6906.00    0.89784   0.92510    0.014
 6907.00    0.87560   0.91774    0.014
 6908.00    0.86587   0.90932    0.014
 6909.00    0.85669   0.90495    0.014
 6910.00    0.85615   0.90664    0.015
 6911.00    0.85698   0.91000    0.015
 6912.00    0.87157   0.91343    0.015
 6913.00    0.88075   0.91844    0.015
 6914.00    0.85105   0.92451    0.015
 6915.00    0.83451   0.92964    0.014
 6916.00    0.89052   0.93097    0.014
 6917.00    0.93542   0.92545    0.014
 6918.00    0.93135   0.91342    0.014
 6919.00    0.92761   0.90194    0.014
 6920.00    0.92507   0.89963    0.014
 6921.00    0.91740   0.90755    0.014
 6922.00    0.89414   0.91833    0.014
 6923.00    0.88404   0.92464    0.014
 6924.00    0.90799   0.92586    0.014
 6925.00    0.92501   0.92403    0.014
 6926.00    0.92667   0.91927    0.014
 6927.00    0.92820   0.91324    0.014
 6928.00    0.92949   0.91199    0.014
 6929.00    0.92649   0.91750    0.014
 6930.00    0.91627   0.92304    0.014
 6931.00    0.91750   0.92411    0.014
 6932.00    0.93561   0.92358    0.014
 6933.00    0.93053   0.92514    0.014
 6934.00    0.89544   0.92884    0.014
 6935.00    0.88376   0.93145    0.014
 6936.00    0.89879   0.92950    0.014
 6937.00    0.89500   0.92209    0.014
 6938.00    0.87229   0.91092    0.014
 6939.00    0.87119   0.90142    0.014
 6940.00    0.88927   0.90154    0.014
 6941.00    0.89168   0.91166    0.014
 6942.00    0.88183   0.92279    0.014
 6943.00    0.89278   0.92835    0.014
 6944.00    0.91804   0.92687    0.014
 6945.00    0.91738   0.91948    0.014
 6946.00    0.90111   0.91187    0.014
 6947.00    0.89522   0.90870    0.014
 6948.00    0.89479   0.90913    0.014
 6949.00    0.89447   0.91242    0.014
 6950.00    0.89421   0.91868    0.014
 6951.00    0.89457   0.92494    0.014
 6952.00    0.89519   0.92783    0.014
 6953.00    0.91013   0.92809    0.014
 6954.00    0.92986   0.92831    0.014
 6955.00    0.93666   0.92971    0.014
 6956.00    0.93983   0.93181    0.014
 6957.00    0.92417   0.93373    0.014
 6958.00    0.90416   0.93422    0.014
 6959.00    0.92962   0.93175    0.014
 6960.00    0.96353   0.92862    0.014
 6961.00    0.93118   0.93037    0.014
 6962.00    0.88935   0.93683    0.014
 6963.00    0.91393   0.94078    0.014
 6964.00    0.94539   0.93808    0.014
 6965.00    0.92713   0.93246    0.014
 6966.00    0.90554   0.93080    0.014
 6967.00    0.89458   0.93396    0.014
 6968.00    0.88397   0.93463    0.014
 6969.00    0.90289   0.92765    0.014
 6970.00    0.92034   0.91471    0.014
 6971.00    0.89284   0.89747    0.014
 6972.00    0.86649   0.87816    0.014
 6973.00    0.85717   0.86820    0.014
 6974.00    0.85112   0.87860    0.014
 6975.00    0.87646   0.90214    0.014
 6976.00    0.90156   0.92306    0.014
 6977.00    0.92502   0.93537    0.014
 6978.00    0.93534   0.94077    0.014
 6979.00    0.87523   0.94184    0.014
 6980.00    0.82552   0.94062    0.014
 6981.00    0.82066   0.93743    0.014
 6982.00    0.83734   0.93135    0.014
 6983.00    0.93053   0.92429    0.014
 6984.00    1.00142   0.92190    0.015
 6985.00    1.00583   0.92671    0.014
 6986.00    0.98990   0.93401    0.014
 6987.00    0.92231   0.93736    0.014
 6988.00    0.86556   0.93546    0.014
 6989.00    0.83251   0.93280    0.014
 6990.00    0.81719   0.93329    0.014
 6991.00    0.83549   0.93478    0.014
 6992.00    0.86090   0.93142    0.014
 6993.00    0.89809   0.92142    0.014
 6994.00    0.91866   0.91204    0.014
 6995.00    0.91511   0.91238    0.014
 6996.00    0.92145   0.92003    0.014
 6997.00    0.94044   0.92355    0.014
 6998.00    0.93578   0.91811    0.014
 6999.00    0.90452   0.91051    0.014
 7000.00    0.89661   0.90820    0.014
 7001.00    0.91187   0.91196    0.014
 7002.00    0.90753   0.91896    0.014
 7003.00    0.88606   0.92575    0.014
 7004.00    0.88247   0.92835    0.020
 7005.00    0.89267   0.92639    0.070
 7006.00    0.91125   0.92500   -1.000
 7007.00    0.93552   0.92658   -1.000
 7008.00    0.94506   0.92417   -1.000
 7009.00    0.94585   0.90958   -1.000
 7010.00    0.92985   0.88889   -1.000
 7011.00    0.90513   0.88198   -1.000
 7012.00    0.89650   0.89756   -1.000
 7013.00    0.89510   0.92125   -1.000
 7014.00    0.89101   0.93670   -1.000
 7015.00    0.88588   0.94003   -1.000
 7016.00    0.89595   0.93228   -1.000
 7017.00    0.91102   0.91691   -1.000
 7018.00    0.89262   0.90371    0.037
 7019.00    0.86501   0.90204    0.016
 7020.00    0.86569   0.91014    0.015
 7021.00    0.87278   0.91861    0.015
 7022.00    0.89361   0.92319    0.015
 7023.00    0.91692   0.92630    0.015
 7024.00    0.90958   0.92959    0.015
 7025.00    0.89799   0.93161    0.015
 7026.00    0.91163   0.93093    0.015
 7027.00    0.92777   0.92852    0.015
 7028.00    0.92986   0.92688    0.015
 7029.00    0.93106   0.92800    0.015
 7030.00    0.91579   0.92987    0.015
 7031.00    0.90016   0.92483    0.015
 7032.00    0.91484   0.91242    0.015
 7033.00    0.92828   0.90831    0.015
 7034.00    0.90749   0.92332    0.015
 7035.00    0.88781   0.94653    0.015
 7036.00    0.88354   0.96222    0.015
 7037.00    0.88125   0.96550    0.015
 7038.00    0.89726   0.95902    0.015
 7039.00    0.90798   0.95024    0.015
 7040.00    0.88307   0.94806    0.015
 7041.00    0.86600   0.95426    0.015
 7042.00    0.88997   0.96245    0.015
 7043.00    0.91534   0.96602    0.015
 7044.00    0.94657   0.96280    0.015
 7045.00    0.96471   0.95252    0.015
 7046.00    0.93734   0.93421    0.015
 7047.00    0.92444   0.91151    0.015
 7048.00    0.95394   0.89371    0.015
 7049.00    0.96494   0.88720    0.015
 7050.00    0.92978   0.89142   -2.000
 7051.00    0.90476   0.89972   -2.000
 7052.00    0.90160   0.90253   -2.000
 7053.00    0.91390   0.89532   -2.000
 7054.00    0.95511   0.88403   -2.000
 7055.00    0.97697   0.87872   -2.000
 7056.00    0.96726   0.88177   -2.000
 7057.00    0.94999   0.88850   -2.000
 7058.00    0.92189   0.89502   -2.000
 7059.00    0.88475   0.89737   -2.000
 7060.00    0.83626   0.89153   -2.000
 7061.00    0.84658   0.87932   -2.000
 7062.00    0.92211   0.86828   -2.000
 7063.00    0.99165   0.86732   -2.000
 7064.00    1.05532   0.87867   -2.000
 7065.00    1.05851   0.89352   -2.000
 7066.00    1.00953   0.90260   -2.000
 7067.00    0.97373   0.90585   -2.000
 7068.00    0.94796   0.90685   -2.000
 7069.00    0.92576   0.90658   -2.000
 7070.00    0.90594   0.90540   -2.000
 7071.00    0.98441   0.90514   -2.000
 7072.00    1.12036   0.90682   -2.000
 7073.00    1.16579   0.90938   -2.000
 7074.00    1.16509   0.91182   -2.000
 7075.00    1.08076   0.91233   -2.000
 7076.00    0.95952   0.90608   -2.000
 7077.00    0.95295   0.89004   -2.000
 7078.00    0.98988   0.86950   -2.000
 7079.00    1.07329   0.85604   -2.000
 7080.00    1.17168   0.85412   -2.000
 7081.00    1.18476   0.85497   -2.000
 7082.00    1.17486   0.85132   -2.000
 7083.00    1.06032   0.84544   -2.000
 7084.00    0.92267   0.84109   -2.000
 7085.00    0.92163   0.84030   -2.000
 7086.00    0.94460   0.84236   -2.000
 7087.00    0.96709   0.84382   -2.000
 7088.00    0.98952   0.84388   -2.000
 7089.00    0.95714   0.84371   -2.000
 7090.00    0.91956   0.84394   -2.000
 7091.00    0.95883   0.84597   -2.000
 7092.00    1.00262   0.85192   -2.000
 7093.00    0.99546   0.86156   -2.000
 7094.00    0.98715   0.86871   -2.000
 7095.00    0.99417   0.86897   -2.000
 7096.00    0.99814   0.86500   -2.000
 7097.00    0.92631   0.86298   -2.000
 7098.00    0.85995   0.86650   -2.000
 7099.00    0.86634   0.87215   -2.000
 7100.00    0.87231   0.87343   -2.000
 7101.00    0.87449   0.87011   -2.000
 7102.00    0.87593   0.86756   -2.000
 7103.00    0.87246   0.86653   -2.000
 7104.00    0.86816   0.86220   -2.000
 7105.00    0.85965   0.85490   -2.000
 7106.00    0.85513   0.85209   -2.000
 7107.00    0.86705   0.85707   -2.000
 7108.00    0.86593   0.86482   -2.000
 7109.00    0.82037   0.87045   -2.000
 7110.00    0.80129   0.87395   -2.000
 7111.00    0.85831   0.87592   -2.000
 7112.00    0.88815   0.87606   -2.000
 7113.00    0.85127   0.87503   -2.000
 7114.00    0.84098   0.87311   -2.000
 7115.00    0.88695   0.86958   -2.000
 7116.00    0.90786   0.86588   -2.000
 7117.00    0.88271   0.86622   -2.000
 7118.00    0.89616   0.86848   -2.000
 7119.00    0.97165   0.86480   -2.000
 7120.00    0.99300   0.85570   -2.000
 7121.00    0.93802   0.84959   -2.000
 7122.00    0.90427   0.84874   -2.000
 7123.00    0.89685   0.84622   -2.000
 7124.00    0.95272   0.83771   -2.000
 7125.00    1.07781   0.83023   -2.000
 7126.00    1.09998   0.83279   -2.000
 7127.00    1.02289   0.84383   -2.000
 7128.00    0.95458   0.85561   -2.000
 7129.00    0.89372   0.86311   -2.000
 7130.00    0.91891   0.86652   -2.000
 7131.00    1.00854   0.86803   -2.000
 7132.00    1.06862   0.86642   -2.000
 7133.00    1.10926   0.86194   -2.000
 7134.00    1.05580   0.86033   -2.000
 7135.00    0.94812   0.86386   -2.000
 7136.00    0.89250   0.86753   -2.000
 7137.00    0.86300   0.86821   -2.000
 7138.00    0.87334   0.86743   -2.000
 7139.00    0.90097   0.86611   -2.000
 7140.00    0.94022   0.86234   -2.000
 7141.00    0.98381   0.85273   -2.000
 7142.00    0.97586   0.84058   -2.000
 7143.00    0.95163   0.83732   -2.000
 7144.00    0.89669   0.84580   -2.000
 7145.00    0.83364   0.85792   -2.000
 7146.00    0.87320   0.86902   -2.000
 7147.00    0.93488   0.87743   -2.000
 7148.00    0.94856   0.87949   -2.000
 7149.00    0.95403   0.87655   -2.000
 7150.00    0.88962   0.87668   -2.000
 7151.00    0.81617   0.88178   -2.000
 7152.00    0.84509   0.88362   -2.000
 7153.00    0.88332   0.87825   -2.000
 7154.00    0.89898   0.87192   -2.000
 7155.00    0.91341   0.87087   -2.000
 7156.00    0.87472   0.87181   -2.000
 7157.00    0.83450   0.86476   -2.000
 7158.00    0.75503   0.84798   -2.000
 7159.00    0.68922   0.83497   -2.000
 7160.00    0.93353   0.83899   -2.000
 7161.00    1.16321   0.85574   -2.000
 7162.00    1.20860   0.87061   -2.000
 7163.00    1.24191   0.87625   -2.000
 7164.00    1.17211   0.87661   -2.000
 7165.00    1.08771   0.87867   -2.000
 7166.00    0.91083   0.88375   -2.000
 7167.00    0.78199   0.88748   -2.000
 7168.00    0.89174   0.88568   -2.000
 7169.00    0.97287   0.87828   -2.000
 7170.00    0.93884   0.87067   -2.000
 7171.00    0.90724   0.87013   -2.000
 7172.00    0.88379   0.87450   -2.000
 7173.00    0.85827   0.87217   -2.000
 7174.00    0.82689   0.85913   -2.000
 7175.00    0.81752   0.84677   -2.000
 7176.00    0.86125   0.84846   -2.000
 7177.00    0.90664   0.86315   -2.000
 7178.00    0.95548   0.87692   -2.000
 7179.00    0.96987   0.87909   -2.000
 7180.00    0.92189   0.86875   -2.000
 7181.00    0.90738   0.85195   -2.000
 7182.00    0.94583   0.83958   -2.000
 7183.00    0.93571   0.83883   -2.000
 7184.00    0.85813   0.84753   -2.000
 7185.00    0.80131   0.85778   -2.000
 7186.00    0.76989   0.86195   -2.000
 7187.00    0.78692   0.86087   -2.000
 7188.00    0.85617   0.86201   -2.000
 7189.00    0.88421   0.86665   -2.000
 7190.00    0.87308   0.86775   -2.000
 7191.00    0.86686   0.86412   -2.000
 7192.00    0.86475   0.86370   -2.000
 7193.00    0.85515   0.86891   -2.000
 7194.00    0.84003   0.87261   -2.000
 7195.00    0.83593   0.87009   -2.000
 7196.00    0.83898   0.86636   -2.000
 7197.00    0.80307   0.86943   -2.000
 7198.00    0.74506   0.87780   -2.000
 7199.00    0.77940   0.87941   -2.000
 7200.00    0.85936   0.86580   -2.000
 7201.00    0.90168   0.84491   -2.000
 7202.00    0.92792   0.83466   -2.000
 7203.00    0.95752   0.84216   -2.000
 7204.00    0.98835   0.85976   -2.000
 7205.00    0.90210   0.87586   -2.000
 7206.00    0.77957   0.88171   -2.000
 7207.00    0.76856   0.87751   -2.000
 7208.00    0.78633   0.87087   -2.000
 7209.00    0.81472   0.86788   -2.000
 7210.00    0.84535   0.87043   -2.000
 7211.00    0.80209   0.87772   -2.000
 7212.00    0.74656   0.88513   -2.000
 7213.00    0.80073   0.88714   -2.000
 7214.00    0.86860   0.88406   -2.000
 7215.00    0.88403   0.87995   -2.000
 7216.00    0.89490   0.87672   -2.000
 7217.00    0.88478   0.87526   -2.000
 7218.00    0.87360   0.87842   -2.000
