###################################################################
## OUTPUT of StarlightChains_v04.for    [Cid@UFSC - 01/Apr/2007] ##
###################################################################

## Some input info
KUG0210-078._34_48.txt                   [arq_obs]
Base.CB07.vall.4m                        [arq_base]
Masks.EmLines.NEW.gm                     [arq_masks]
StCv04.C11.config                        [arq_config]
   66                                    [N_base]
    0                                    [N_YAV_components = # of components with extra extinction!]
    0                                    [i_FitPowerLaw (1/0 = Yes/No)]
-9.99                                    [alpha_PowerLaw]
CCM                                      [red_law_option]
 1.458241                                [q_norm = A(l_norm)/A(V)]

## (Re)Sampling Parameters
 3741.00                                 [l_ini (A)]
 7218.00                                 [l_fin (A)]
    1.00                                 [dl    (A)]     (OBS: dl_cushion =    50.00 A)

## Normalization info
 4020.00                                 [l_norm (A) - for base]
 4010.00                                 [llow_norm (A) - window for f_obs]
 4060.00                                 [lupp_norm (A) - window for f_obs]
4.568046E-18                             [fobs_norm (in input units)]

## S/N
 3691.00                                 [llow_SN (A) - window for S/N]
 7268.00                                 [lupp_SN (A) - window for S/N]
   3.376                                 [S/N in S/N window]
   2.292                                 [S/N in norm. window]
   0.008                                 [S/N_err in S/N window]
   0.005                                 [S/N_err in norm. window]
  1.0000                                 [fscale_chi2]

## etc...
    -2007553                             [idum_orig]
  2396                                   [NOl_eff]
  2368                                   [Nl_eff]
    28    NSIGMA                         [Ntot_cliped & clip_method]
  1577240                                [Nglobal_steps]
   7                                     [N_chains]
  38                                     [NEX0s_base = N_base in EX0s-fits]
 0   0   1       28   2.0   1.019E+03    [Clip-Bug, RC-Crash & Burn-In warning-flags, n_censored_weights, wei_nsig_threshold & wei_limit]
    30     29.299     28.884      0.415  [idt_all, wdt_TotTime, wdt_UsrTime & wdt_SysTime (sec)]

## Synthesis Results - Best model ##

 1.67765E-05                             [chi2/Nl_eff]
    35.94001                             [adev (%)]

   129.99998                             [sum-of-x (%)]
 2.38828E-16                             [Flux_tot (units of input spectrum!)]
 3.77952E-14                             [Mini_tot (???)]
 2.92802E-14                             [Mcor_tot (???)]

   0.00                                  [v0_min  (km/s)]
 150.00                                  [vd_min  (km/s)]
 2.7506                                  [AV_min  (mag)]
 0.0000                                  [YAV_min (mag)]

# j     x_j(%)      Mini_j(%)     Mcor_j(%)     age_j(yr)     Z_j      (L/M)_j    YAV?  Mstars   component_j        a/Fe...       SSP_chi2r SSP_adev(%)   SSP_AV   SSP_x(%)
  1     36.3878     1.6168E+01    2.0869E+01    1.000000E+06  0.00400  1.094E-02    0   1.0000   age020_m42            0.0000     1.5217E-05    38.7422   2.8832   149.8501
  2     15.4384     1.8728E+00    2.4172E+00    3.160000E+06  0.00400  4.007E-02    0   0.9999   age045_m42            0.0000     1.4821E-05    38.2501   2.1582   159.8005
  3      4.6237     8.8518E-01    1.0841E+00    5.010000E+06  0.00400  2.539E-02    0   0.9488   age055_m42            0.0000     1.5052E-05    38.6149   2.4812   155.9036
  4     10.9753     2.0362E+00    2.4233E+00    6.610000E+06  0.00400  2.620E-02    0   0.9220   age061_m42            0.0000     1.4934E-05    38.3332   2.0924   159.7278
  5      0.0000     0.0000E+00    0.0000E+00    1.000000E+07  0.00400  1.322E-02    0   0.8862   age070_m42            0.0000     1.5184E-05    39.1034   1.8604   160.8545
  6      0.0000     0.0000E+00    0.0000E+00    1.445000E+07  0.00400  7.883E-03    0   0.8571   age078_m42            0.0000     1.5229E-05    39.0754   2.1797   157.2518
  7      0.6239     5.7754E-01    6.0936E-01    2.512000E+07  0.00400  5.251E-03    0   0.8174   age090_m42            0.0000     1.5216E-05    39.2349   1.7390   161.3329
  8      0.0000     0.0000E+00    0.0000E+00    4.000000E+07  0.00400  3.649E-03    0   0.7851   age104_m42            0.0000     1.5113E-05    39.0215   1.5086   162.8125
  9      6.3910     1.0027E+01    9.8746E+00    5.500000E+07  0.00400  3.098E-03    0   0.7629   age110_m42            0.0000     1.5003E-05    38.5093   1.6371   163.8726
 10      0.0000     0.0000E+00    0.0000E+00    1.015200E+08  0.00400  2.228E-03    0   0.7207   age116_m42            0.0000     1.5002E-05    38.2285   1.6467   164.5834
 11      2.4426     1.0863E+01    9.3216E+00    2.861200E+08  0.00400  1.093E-03    0   0.6648   age125_m42            0.0000     1.5092E-05    38.1057   1.1004   168.1596
 12      0.0000     0.0000E+00    0.0000E+00    5.088000E+08  0.00400  6.597E-04    0   0.6365   age130_m42            0.0000     1.5007E-05    37.5237   1.0651   170.7248
 13      0.0000     0.0000E+00    0.0000E+00    1.434000E+09  0.00400  2.132E-04    0   0.5798   age139_m42            0.0000     1.4529E-05    36.6232   0.0832   174.6584
 14      0.0000     0.0000E+00    0.0000E+00    4.250000E+09  0.00400  5.895E-05    0   0.5377   age158_m42            0.0000     1.4300E-05    35.8422  -0.3932   169.7411
 15      0.0000     0.0000E+00    0.0000E+00    7.500000E+09  0.00400  3.510E-05    0   0.5212   age171_m42            0.0000     1.4288E-05    35.3419  -0.5948   169.2447
 16      0.0000     0.0000E+00    0.0000E+00    1.300000E+10  0.00400  2.005E-05    0   0.5034   age193_m42            0.0000     1.4333E-05    34.9205  -0.7775   169.0690
 17      0.0000     0.0000E+00    0.0000E+00    1.800000E+10  0.00400  1.525E-05    0   0.4967   age213_m42            0.0000     1.4321E-05    35.0373  -0.7945   168.1049
 18      9.9032     3.8883E+00    5.0191E+00    1.000000E+06  0.00800  1.238E-02    0   1.0000   age020_m52            0.0000     1.5209E-05    38.7622   2.8781   150.2190
 19      0.0000     0.0000E+00    0.0000E+00    3.160000E+06  0.00800  3.074E-02    0   0.9966   age045_m52            0.0000     1.5201E-05    38.7894   2.7982   151.7027
 20     14.1810     2.5836E+00    3.1492E+00    5.010000E+06  0.00800  2.668E-02    0   0.9443   age055_m52            0.0000     1.5105E-05    38.6893   2.5625   154.6044
 21      0.0000     0.0000E+00    0.0000E+00    6.610000E+06  0.00800  2.136E-02    0   0.9177   age061_m52            0.0000     1.4985E-05    38.7677   1.3556   163.0961
 22      0.0000     0.0000E+00    0.0000E+00    1.000000E+07  0.00800  1.215E-02    0   0.8827   age070_m52            0.0000     1.5258E-05    39.3103   2.0481   160.1631
 23      8.8993     4.9624E+00    5.4780E+00    1.445000E+07  0.00800  8.717E-03    0   0.8552   age078_m52            0.0000     1.5182E-05    39.0502   2.1450   159.4033
 24      0.0000     0.0000E+00    0.0000E+00    2.512000E+07  0.00800  5.592E-03    0   0.8162   age090_m52            0.0000     1.5170E-05    39.1916   1.8056   163.1324
 25      0.0000     0.0000E+00    0.0000E+00    4.000000E+07  0.00800  3.896E-03    0   0.7841   age104_m52            0.0000     1.5046E-05    38.7496   1.7051   164.8568
 26      0.0000     0.0000E+00    0.0000E+00    1.015200E+08  0.00800  2.148E-03    0   0.7226   age116_m52            0.0000     1.4984E-05    38.2327   1.6275   165.2366
 27      0.0000     0.0000E+00    0.0000E+00    2.861200E+08  0.00800  9.925E-04    0   0.6683   age125_m52            0.0000     1.4972E-05    37.4618   1.1326   172.1377
 28      0.0000     0.0000E+00    0.0000E+00    9.047900E+08  0.00800  3.141E-04    0   0.6138   age135_m52            0.0000     1.4489E-05    35.8371   0.2972   181.2000
 29      0.0000     0.0000E+00    0.0000E+00    1.434000E+09  0.00800  1.719E-04    0   0.5853   age139_m52            0.0000     1.4267E-05    35.6906  -0.2886   177.7697
 30      0.0000     0.0000E+00    0.0000E+00    2.500000E+09  0.00800  7.872E-05    0   0.5600   age150_m52            0.0000     1.4190E-05    35.1508  -0.5917   174.8235
 31      0.0000     0.0000E+00    0.0000E+00    4.250000E+09  0.00800  4.336E-05    0   0.5426   age158_m52            0.0000     1.4209E-05    35.0138  -0.6099   173.3214
 32      0.0000     0.0000E+00    0.0000E+00    6.250000E+09  0.00800  3.159E-05    0   0.5319   age166_m52            0.0000     1.4265E-05    34.5141  -0.8371   174.4116
 33      0.0000     0.0000E+00    0.0000E+00    1.300000E+10  0.00800  1.361E-05    0   0.5073   age193_m52            0.0000     1.4854E-05    35.5659  -1.0000   162.1712
 34      0.0000     0.0000E+00    0.0000E+00    1.800000E+10  0.00800  9.886E-06    0   0.4990   age213_m52            0.0000     1.5405E-05    36.0867  -1.0000   157.2449
 35      0.0000     0.0000E+00    0.0000E+00    1.000000E+06  0.02000  1.544E-02    0   1.0000   age020_m62            0.0000     1.5241E-05    38.8099   2.8744   150.5853
 36      8.2559     1.0667E+00    1.3574E+00    3.160000E+06  0.02000  3.762E-02    0   0.9858   age045_m62            0.0000     1.5269E-05    38.8497   2.8087   152.1598
 37      0.0000     0.0000E+00    0.0000E+00    5.010000E+06  0.02000  3.296E-02    0   0.9342   age055_m62            0.0000     1.5012E-05    38.5035   2.4346   158.0617
 38      0.0000     0.0000E+00    0.0000E+00    8.710000E+06  0.02000  1.154E-02    0   0.8861   age067_m62            0.0000     1.6124E-05    41.9585   1.5840   160.9036
 39      4.4366     2.8142E+00    3.0776E+00    1.445000E+07  0.02000  7.663E-03    0   0.8472   age078_m62            0.0000     1.5390E-05    39.8585   1.7212   162.6027
 40      0.0000     0.0000E+00    0.0000E+00    2.512000E+07  0.02000  4.532E-03    0   0.8099   age090_m62            0.0000     1.5474E-05    40.0058   1.7192   161.7673
 41      3.6974     6.5760E+00    6.4469E+00    5.500000E+07  0.02000  2.733E-03    0   0.7595   age110_m62            0.0000     1.5140E-05    38.8978   1.6927   163.4710
 42      0.0000     0.0000E+00    0.0000E+00    1.609000E+08  0.02000  1.369E-03    0   0.6985   age120_m62            0.0000     1.5100E-05    38.1366   1.5078   168.8315
 43      1.0209     5.5056E+00    4.7714E+00    2.861200E+08  0.02000  9.013E-04    0   0.6714   age125_m62            0.0000     1.5104E-05    37.6268   1.2447   174.2236
 44      0.0000     0.0000E+00    0.0000E+00    5.088000E+08  0.02000  5.028E-04    0   0.6449   age130_m62            0.0000     1.4763E-05    36.4190   0.8257   181.0153
 45      0.7115     1.4243E+01    1.1360E+01    9.047900E+08  0.02000  2.428E-04    0   0.6179   age135_m62            0.0000     1.4346E-05    35.5565   0.2151   181.2105
 46      0.0000     0.0000E+00    0.0000E+00    1.434000E+09  0.02000  1.263E-04    0   0.5908   age139_m62            0.0000     1.4240E-05    35.2794  -0.2399   179.0712
 47      0.0000     0.0000E+00    0.0000E+00    2.500000E+09  0.02000  5.985E-05    0   0.5673   age150_m62            0.0000     1.4222E-05    34.8063  -0.6359   178.1487
 48      0.0000     0.0000E+00    0.0000E+00    4.250000E+09  0.02000  3.271E-05    0   0.5468   age158_m62            0.0000     1.4287E-05    34.2482  -0.9768   178.3543
 49      0.0000     0.0000E+00    0.0000E+00    1.000000E+10  0.02000  1.360E-05    0   0.5167   age181_m62            0.0000     1.5044E-05    34.7595  -1.0000   165.5713
 50      0.0000     0.0000E+00    0.0000E+00    1.800000E+10  0.02000  7.124E-06    0   0.5013   age213_m62            0.0000     1.6210E-05    36.1262  -1.0000   155.7767
 51      0.0000     0.0000E+00    0.0000E+00    1.000000E+06  0.05000  2.592E-02    0   0.9998   age020_m72            0.0000     1.5304E-05    38.9093   2.8699   150.5474
 52      0.0000     0.0000E+00    0.0000E+00    3.160000E+06  0.05000  4.845E-02    0   0.9577   age045_m72            0.0000     1.5170E-05    38.7306   2.6895   154.1604
 53      0.0000     0.0000E+00    0.0000E+00    5.010000E+06  0.05000  3.072E-02    0   0.9147   age055_m72            0.0000     1.5312E-05    39.0952   2.2720   158.0241
 54      1.4793     4.9420E-01    5.6629E-01    6.610000E+06  0.05000  1.455E-02    0   0.8877   age061_m72            0.0000     1.6733E-05    42.9804   1.6489   160.9391
 55      0.0000     0.0000E+00    0.0000E+00    1.000000E+07  0.05000  9.074E-03    0   0.8524   age070_m72            0.0000     1.5335E-05    38.9964   2.4465   157.6436
 56      0.0000     0.0000E+00    0.0000E+00    2.512000E+07  0.05000  4.250E-03    0   0.7902   age090_m72            0.0000     1.5272E-05    38.9843   2.1582   160.0536
 57      0.0000     0.0000E+00    0.0000E+00    4.000000E+07  0.05000  3.087E-03    0   0.7618   age104_m72            0.0000     1.5323E-05    39.1565   1.9394   162.1921
 58      0.0000     0.0000E+00    0.0000E+00    1.015200E+08  0.05000  1.700E-03    0   0.7096   age116_m72            0.0000     1.5204E-05    38.4177   1.6644   167.3898
 59      0.0000     0.0000E+00    0.0000E+00    2.861200E+08  0.05000  7.384E-04    0   0.6633   age125_m72            0.0000     1.4863E-05    36.9462   1.0908   177.7549
 60      0.0000     0.0000E+00    0.0000E+00    5.088000E+08  0.05000  3.819E-04    0   0.6372   age130_m72            0.0000     1.4390E-05    35.9798   0.5563   182.9844
 61      0.5322     1.5436E+01    1.2174E+01    9.047900E+08  0.05000  1.676E-04    0   0.6110   age135_m72            0.0000     1.4170E-05    35.1028  -0.1868   182.1452
 62      0.0000     0.0000E+00    0.0000E+00    1.434000E+09  0.05000  8.837E-05    0   0.5874   age139_m72            0.0000     1.4237E-05    34.5976  -0.6494   181.3932
 63      0.0000     0.0000E+00    0.0000E+00    2.500000E+09  0.05000  4.233E-05    0   0.5598   age150_m72            0.0000     1.4296E-05    34.1646  -0.9969   180.9060
 64      0.0000     0.0000E+00    0.0000E+00    6.250000E+09  0.05000  1.435E-05    0   0.5249   age166_m72            0.0000     1.5408E-05    35.5060  -1.0000   161.1255
 65      0.0000     0.0000E+00    0.0000E+00    1.300000E+10  0.05000  6.513E-06    0   0.5036   age193_m72            0.0000     1.7409E-05    37.7757  -1.0000   150.6102
 66      0.0000     0.0000E+00    0.0000E+00    1.800000E+10  0.05000  4.527E-06    0   0.4945   age213_m72            0.0000     1.8919E-05    39.2327  -1.0000   143.0704


## Synthesis Results - Average & Chains ##

# j      x_j: min, <> & last-chain-values for 1 ...  7 chains
  1     36.3878      1.2609      2.5295      0.0667      0.0976      0.0015      0.5238      0.0000      0.1871
  2     15.4384      1.0463      0.0000      0.9564      0.5032      0.0000      0.6375      0.1209      0.0899
  3      4.6237      1.3721      0.8759      0.4348      0.9896      0.4514      1.3935      0.3554      0.0000
  4     10.9753      1.7082      0.0000      0.1553      0.2382      0.1669      1.0239      0.4922      0.0956
  5      0.0000      1.0950      2.0227      0.5114      0.0000      0.5392      0.0000      0.0000      0.2603
  6      0.0000      1.1914      0.4592      1.2033      0.0000      1.4209      0.2977      0.6152      0.0415
  7      0.6239      1.3951      0.3169      0.0000      0.2564      0.5965      1.3459      0.2229      0.6854
  8      0.0000      1.5754      0.4892      0.0000      0.0000      0.0513      0.0000      2.0786      2.2613
  9      6.3910      1.3493      0.0656      0.0000      1.6590      0.6677      0.6612      1.4229      1.3379
 10      0.0000      1.0757      0.1210      0.4162      0.1121      0.0000      0.0000      0.4149      0.0000
 11      2.4426      1.1377      1.3344      0.0000      0.4362      0.1413      1.0483      0.1624      0.0000
 12      0.0000      1.7366      0.1682      0.0197      1.7425      0.0000      0.0000      0.3235      0.3590
 13      0.0000      0.7932      0.0146      0.2197      0.6472      1.1602      1.2375      0.1367      0.0000
 14      0.0000      1.7297      1.1134      0.0000      2.1420      0.0000      0.0800      0.0000      1.4099
 15      0.0000      0.7172      1.9042      0.1675      0.8377      3.0862      0.0480      0.2708      0.8967
 16      0.0000      1.0189      0.0000      1.0502      0.4560      0.0000      0.5399      1.5642      0.0000
 17      0.0000      1.3360      1.1869      1.6328      1.0265      0.2020      0.2801      0.3095      0.8869
 18      9.9032      1.0334      0.0000      1.8624      0.0000      0.7352      0.3749      1.0195      0.0798
 19      0.0000      1.1463      0.6248      0.2610      0.4531      0.4684      1.1134      2.4801      0.0876
 20     14.1810      1.6722      0.7854      0.0000      0.6058      0.1273      0.4829      0.4267      0.2148
 21      0.0000      1.2684      0.6849      2.3292      0.0000      0.0000      0.0000      0.0000      0.1910
 22      0.0000      0.7897      0.0000      0.3319      0.6227      0.0000      0.0988      0.0775      1.0640
 23      8.8993      1.5016      0.1684      0.7117      0.0000      1.5561      0.4690      0.0295      1.0855
 24      0.0000      1.0455      0.0000      0.8980      0.0000      0.0000      0.0000      0.0000      1.1575
 25      0.0000      1.4652      2.3127      0.0000      1.4784      0.0000      0.1874      0.4585      0.7357
 26      0.0000      1.2587      0.3290      0.0000      0.3890      0.9480      0.1311      0.1528      0.0000
 27      0.0000      0.7441      0.2439      0.0000      0.2554      1.1182      0.7832      0.0000      0.4275
 28      0.0000      1.8020      0.2803      1.0516      0.5399      0.0000      0.1914      0.5817      0.2406
 29      0.0000      1.1346      0.1958      0.3373      0.1566      0.5909      0.0626      0.0000      1.3466
 30      0.0000      1.2395      0.7638      0.1353      0.3307      0.3602      0.9832      1.1121      0.3696
 31      0.0000      0.9613      0.0000      1.2306      0.2414      0.3357      1.6107      0.8819      1.0738
 32      0.0000      1.6866      1.3915      2.1467      0.0452      1.5674      1.2340      1.9201      2.1204
 33      0.0000      1.1413      0.0000      0.0000      0.0000      0.0505      0.1503      0.3830      2.2984
 34      0.0000      1.5611      0.1778      1.1495      1.1554      0.9149      0.4194      0.6289      0.6954
 35      0.0000      1.0741      0.1324      0.4347      0.3861      0.4856      0.1033      1.3701      0.1434
 36      8.2559      1.0828      0.1880      0.2815      0.0000      0.0000      0.6377      0.5374      0.0865
 37      0.0000      1.0027      0.2737      0.6061      0.0000      0.5294      0.0779      0.0000      0.0000
 38      0.0000      1.0876      0.1168      0.0000      0.4349      0.0000      0.0883      0.5319      1.3443
 39      4.4366      1.5284      0.0565      0.9350      0.0489      0.5418      0.6456      0.0000      1.0082
 40      0.0000      0.9489      0.5458      1.5064      0.0000      0.0000      0.0000      0.0807      0.2513
 41      3.6974      1.3966      1.7117      0.0000      0.0000      0.0000      0.9241      1.4815      1.5772
 42      0.0000      1.3276      1.4767      0.0000      0.0000      0.4842      0.4161      0.0000      1.0797
 43      1.0209      1.1312      0.0000      0.5201      0.3220      0.5877      0.6769      0.0000      0.0000
 44      0.0000      1.3142      0.0000      0.8891      0.0000      0.0000      0.0367      0.0000      0.6937
 45      0.7115      1.0513      0.3529      0.9023      0.2844      1.5588      1.1977      0.5379      0.0000
 46      0.0000      1.2742      2.2006      1.3135      0.0000      1.6644      0.2862      0.0000      0.0000
 47      0.0000      1.1009      0.8673      1.5584      0.0000      0.0000      0.4778      0.0000      0.8071
 48      0.0000      0.8182      0.0000      0.4877      0.0000      0.1187      0.0762      0.0000      0.0000
 49      0.0000      1.0144      0.0000      0.0000      0.4731      0.0000      0.5836      0.6213      0.9332
 50      0.0000      1.0726      1.3026      0.0000      0.1156      0.0000      0.4218      0.5601      0.0000
 51      0.0000      0.9915      0.3184      0.1179      0.4058      0.0000      0.5609      0.0000      0.0369
 52      0.0000      1.3075      1.7573      0.0000      0.5794      0.5341      0.0000      0.2498      0.0000
 53      0.0000      1.0786      0.0000      0.3504      0.3871      0.0000      0.0000      0.0000      0.5134
 54      1.4793      1.2958      0.0000      1.0617      1.3991      0.6590      0.6432      0.8290      0.0000
 55      0.0000      1.1130      1.1266      0.0000      0.5900      0.4366      0.1544      0.6369      0.3399
 56      0.0000      1.6089      0.0000      0.0000      0.0000      0.3933      0.0659      0.3885      2.5247
 57      0.0000      0.6775      0.3598      0.3004      0.4162      0.4779      0.0000      0.0000      0.0984
 58      0.0000      1.1434      0.4927      0.3188      0.1197      0.3887      0.7102      0.0000      0.6614
 59      0.0000      1.4382      0.0000      0.0000      1.6138      0.5825      0.6236      0.0000      0.0000
 60      0.0000      1.2725      0.7074      0.0000      0.0000      0.0000      0.5151      0.0682      0.4370
 61      0.5322      1.7943      0.8415      1.0946      2.6488      1.8345      1.7703      0.0000      0.9903
 62      0.0000      3.8845      3.2072      6.9131      7.2559      2.7730      8.0122      7.4987      7.1765
 63      0.0000      1.2587      0.0000      0.4876      0.7370      0.6123      0.4275      0.0000      0.4023
 64      0.0000      1.6276      0.0000      0.8116      0.5205      0.5324      0.3979      0.0000      0.0000
 65      0.0000     14.8201     26.1456     26.8213     28.4318     28.5946     29.0273     29.3833     25.9458
 66      0.0000     31.1783     62.1462     61.0732     63.0136     64.8449     62.6031     64.4338     60.2624

# j      m_j: min, <> & last-chain-values for 1 ...  7 chains
  1  2.0869E+01  2.2611E-03  2.5500E-03  6.7275E-05  9.5490E-05  1.4721E-06  5.1305E-04  0.0000E+00  1.9161E-04
  2  2.4172E+00  5.1221E-04  0.0000E+00  2.6336E-04  1.3436E-04  0.0000E+00  1.7046E-04  3.1501E-05  2.5128E-05
  3  1.0841E+00  1.0059E-03  3.6100E-04  1.7931E-04  3.9572E-04  1.7751E-04  5.5798E-04  1.3864E-04  0.0000E+00
  4  2.4233E+00  1.1793E-03  0.0000E+00  6.0306E-05  8.9683E-05  6.1794E-05  3.8610E-04  1.8083E-04  3.7672E-05
  5  0.0000E+00  1.4401E-03  1.4954E-03  3.7830E-04  0.0000E+00  3.8033E-04  0.0000E+00  0.0000E+00  1.9546E-04
  6  0.0000E+00  2.5413E-03  5.5065E-04  1.4437E-03  0.0000E+00  1.6257E-03  3.4679E-04  6.9828E-04  5.0490E-05
  7  6.0936E-01  4.2606E-03  5.4401E-04  0.0000E+00  4.2713E-04  9.7712E-04  2.2450E-03  3.6222E-04  1.1951E-03
  8  0.0000E+00  6.6499E-03  1.1608E-03  0.0000E+00  0.0000E+00  1.1608E-04  0.0000E+00  4.6686E-03  5.4500E-03
  9  9.8746E+00  6.5186E-03  1.7820E-04  0.0000E+00  4.3716E-03  1.7302E-03  1.7447E-03  3.6578E-03  3.6908E-03
 10  0.0000E+00  6.8265E-03  4.3163E-04  1.4856E-03  3.8802E-04  0.0000E+00  0.0000E+00  1.4012E-03  0.0000E+00
 11  9.3216E+00  1.3576E-02  8.9514E-03  0.0000E+00  2.8389E-03  9.0462E-04  6.8321E-03  1.0310E-03  0.0000E+00
 12  0.0000E+00  3.2871E-02  1.7898E-03  2.0945E-04  1.7991E-02  0.0000E+00  0.0000E+00  3.2579E-03  3.8798E-03
 13  0.0000E+00  4.2320E-02  4.3662E-04  6.5920E-03  1.8835E-02  3.3201E-02  3.6063E-02  3.8805E-03  0.0000E+00
 14  0.0000E+00  3.0953E-01  1.1200E-01  0.0000E+00  2.0907E-01  0.0000E+00  7.8147E-03  0.0000E+00  1.4406E-01
 15  0.0000E+00  2.0892E-01  3.1184E-01  2.7442E-02  1.3311E-01  4.8224E-01  7.6308E-03  4.1976E-02  1.4915E-01
 16  0.0000E+00  5.0186E-01  0.0000E+00  2.9096E-01  1.2251E-01  0.0000E+00  1.4524E-01  4.0998E-01  0.0000E+00
 17  0.0000E+00  8.5365E-01  4.2633E-01  5.8685E-01  3.5775E-01  6.9224E-02  9.7749E-02  1.0523E-01  3.2357E-01
 18  5.0191E+00  1.6377E-03  0.0000E+00  1.6601E-03  0.0000E+00  6.2492E-04  3.2450E-04  8.5966E-04  7.2212E-05
 19  0.0000E+00  7.2909E-04  2.2339E-04  9.3361E-05  1.5720E-04  1.5979E-04  3.8677E-04  8.3937E-04  3.1825E-05
 20  3.1492E+00  1.1611E-03  3.0659E-04  0.0000E+00  2.2944E-04  4.7426E-05  1.8313E-04  1.5766E-04  8.5164E-05
 21  0.0000E+00  1.0691E-03  3.2452E-04  1.1043E-03  0.0000E+00  0.0000E+00  0.0000E+00  0.0000E+00  9.1926E-05
 22  0.0000E+00  1.1255E-03  0.0000E+00  2.6606E-04  4.8410E-04  0.0000E+00  7.6893E-05  5.8771E-05  8.6591E-04
 23  5.4780E+00  2.8902E-03  1.8221E-04  7.7052E-04  0.0000E+00  1.6065E-03  4.9304E-04  3.0263E-05  1.1929E-03
 24  0.0000E+00  2.9937E-03  0.0000E+00  1.4463E-03  0.0000E+00  0.0000E+00  0.0000E+00  0.0000E+00  1.8925E-03
 25  0.0000E+00  5.7851E-03  5.1333E-03  0.0000E+00  3.1840E-03  0.0000E+00  4.0423E-04  9.6319E-04  1.6587E-03
 26  0.0000E+00  8.3069E-03  1.2206E-03  0.0000E+00  1.4003E-03  3.3558E-03  4.7242E-04  5.3657E-04  0.0000E+00
 27  0.0000E+00  9.8301E-03  1.8114E-03  0.0000E+00  1.8406E-03  7.9234E-03  5.6506E-03  0.0000E+00  3.2247E-03
 28  0.0000E+00  6.9084E-02  6.0416E-03  2.2677E-02  1.1289E-02  0.0000E+00  4.0068E-03  1.1867E-02  5.2658E-03
 29  0.0000E+00  7.5791E-02  7.3543E-03  1.2673E-02  5.7061E-03  2.1171E-02  2.2826E-03  0.0000E+00  5.1360E-02
 30  0.0000E+00  1.7299E-01  5.9928E-02  1.0622E-02  2.5176E-02  2.6962E-02  7.4950E-02  8.2587E-02  2.9456E-02
 31  0.0000E+00  2.3601E-01  0.0000E+00  1.6993E-01  3.2325E-02  4.4210E-02  2.1598E-01  1.1521E-01  1.5053E-01
 32  0.0000E+00  5.5715E-01  2.5839E-01  3.9887E-01  8.1399E-03  2.7771E-01  2.2264E-01  3.3749E-01  3.9994E-01
 33  0.0000E+00  8.3460E-01  0.0000E+00  0.0000E+00  0.0000E+00  1.9823E-02  6.0046E-02  1.4905E-01  9.5965E-01
 34  0.0000E+00  1.5459E+00  9.8965E-02  6.4026E-01  6.2406E-01  4.8593E-01  2.2682E-01  3.3139E-01  3.9317E-01
 35  0.0000E+00  1.3648E-03  9.4605E-05  3.1070E-04  2.6761E-04  3.3097E-04  7.1683E-05  9.2634E-04  1.0407E-04
 36  1.3574E+00  5.5666E-04  5.4330E-05  8.1387E-05  0.0000E+00  0.0000E+00  1.7906E-04  1.4701E-04  2.5396E-05
 37  0.0000E+00  5.5756E-04  8.5547E-05  1.8956E-04  0.0000E+00  1.5789E-04  2.3650E-05  0.0000E+00  0.0000E+00
 38  0.0000E+00  1.6384E-03  9.8926E-05  0.0000E+00  3.5736E-04  0.0000E+00  7.2640E-05  4.2633E-04  1.1563E-03
 39  3.0776E+00  3.3150E-03  6.8850E-05  1.1407E-03  5.7794E-05  6.3034E-04  7.6487E-04  0.0000E+00  1.2486E-03
 40  0.0000E+00  3.3267E-03  1.0758E-03  2.9707E-03  0.0000E+00  0.0000E+00  0.0000E+00  1.5057E-04  5.0310E-04
 41  6.4469E+00  7.6140E-03  5.2463E-03  0.0000E+00  0.0000E+00  0.0000E+00  2.7519E-03  4.2978E-03  4.9098E-03
 42  0.0000E+00  1.3289E-02  8.3095E-03  0.0000E+00  0.0000E+00  2.5997E-03  2.2750E-03  0.0000E+00  6.1709E-03
 43  4.7714E+00  1.6532E-02  0.0000E+00  4.2751E-03  2.5672E-03  4.6066E-03  5.4032E-03  0.0000E+00  0.0000E+00
 44  0.0000E+00  3.3070E-02  0.0000E+00  1.2584E-02  0.0000E+00  0.0000E+00  5.0396E-04  0.0000E+00  9.9670E-03
 45  1.1360E+01  5.2487E-02  9.9042E-03  2.5339E-02  7.7451E-03  4.1745E-02  3.2660E-02  1.4291E-02  0.0000E+00
 46  0.0000E+00  1.1694E-01  1.1353E-01  6.7800E-02  0.0000E+00  8.1927E-02  1.4345E-02  0.0000E+00  0.0000E+00
 47  0.0000E+00  2.0472E-01  9.0671E-02  1.6300E-01  0.0000E+00  0.0000E+00  4.8526E-02  0.0000E+00  8.5702E-02
 48  0.0000E+00  2.6833E-01  0.0000E+00  8.9973E-02  0.0000E+00  2.0883E-02  1.3646E-02  0.0000E+00  0.0000E+00
 49  0.0000E+00  7.5606E-01  0.0000E+00  0.0000E+00  1.9236E-01  0.0000E+00  2.3759E-01  2.4639E-01  3.9717E-01
 50  0.0000E+00  1.4807E+00  1.0109E+00  0.0000E+00  8.7078E-02  0.0000E+00  3.1801E-01  4.1144E-01  0.0000E+00
 51  0.0000E+00  7.5030E-04  1.3545E-04  5.0165E-05  1.6750E-04  0.0000E+00  2.3182E-04  0.0000E+00  1.5944E-05
 52  0.0000E+00  5.0706E-04  3.8309E-04  0.0000E+00  1.2255E-04  1.1110E-04  0.0000E+00  5.1549E-05  0.0000E+00
 53  0.0000E+00  6.3007E-04  0.0000E+00  1.1512E-04  1.2332E-04  0.0000E+00  0.0000E+00  0.0000E+00  1.7124E-04
 54  5.6629E-01  1.5510E-03  0.0000E+00  7.1482E-04  9.1344E-04  4.2311E-04  4.2048E-04  5.2799E-04  0.0000E+00
 55  0.0000E+00  2.0513E-03  1.1672E-03  0.0000E+00  5.9306E-04  4.3159E-04  1.5539E-04  6.2457E-04  3.5771E-04
 56  0.0000E+00  5.8687E-03  0.0000E+00  0.0000E+00  0.0000E+00  7.6954E-04  1.3120E-04  7.5404E-04  5.2583E-03
 57  0.0000E+00  3.2802E-03  9.7932E-04  8.1813E-04  1.0992E-03  1.2410E-03  0.0000E+00  0.0000E+00  2.7197E-04
 58  0.0000E+00  9.3635E-03  2.2682E-03  1.4683E-03  5.3473E-04  1.7074E-03  3.1765E-03  0.0000E+00  3.0926E-03
 59  0.0000E+00  2.5345E-02  0.0000E+00  0.0000E+00  1.5513E-02  5.5063E-03  6.0028E-03  0.0000E+00  0.0000E+00
 60  0.0000E+00  4.1654E-02  1.3018E-02  0.0000E+00  0.0000E+00  0.0000E+00  9.2088E-03  1.1886E-03  8.1669E-03
 61  1.2174E+01  1.2833E-01  3.3835E-02  4.4033E-02  1.0333E-01  7.0377E-02  6.9153E-02  0.0000E+00  4.0439E-02
 62  0.0000E+00  5.0656E-01  2.3512E-01  5.0708E-01  5.1611E-01  1.9396E-01  5.7067E-01  5.2033E-01  5.3436E-01
 63  0.0000E+00  3.2656E-01  0.0000E+00  7.1152E-02  1.0430E-01  8.5214E-02  6.0573E-02  0.0000E+00  5.9602E-02
 64  0.0000E+00  1.1680E+00  0.0000E+00  3.2759E-01  2.0372E-01  2.0493E-01  1.5595E-01  0.0000E+00  0.0000E+00
 65  0.0000E+00  2.2481E+01  2.2296E+01  2.2885E+01  2.3525E+01  2.3266E+01  2.4050E+01  2.3717E+01  2.2473E+01
 66  0.0000E+00  6.6815E+01  7.4868E+01  7.3618E+01  7.3656E+01  7.4536E+01  7.3275E+01  7.3474E+01  7.3738E+01

# AV, chi2 & Mass for <> & i_chain = 1 ...  7 solutions
AV       2.7506     -0.7515     -0.6280     -0.6447     -0.6269     -0.6938     -0.6413     -0.6489     -0.6189
chi2 1.6776E-05  2.3885E-05  1.9439E-05  1.9222E-05  1.9382E-05  1.9766E-05  1.9000E-05  1.9259E-05  1.9015E-05
Mass 2.9280E-14  8.4865E-14  1.7820E-13  1.7414E-13  1.8393E-13  1.7097E-13  1.8016E-13  1.8304E-13  1.7759E-13
   0.00                                  [v0_min (km/s) before EX0s...]
 150.00                                  [vd_min (km/s) before EX0s...]


## Synthetic spectrum (Best Model) ##l_obs f_obs f_syn wei
 3478    [Nl_obs]
 3741.00    1.54683   1.09381    0.000
 3742.00    1.78292   1.09856    0.000
 3743.00    1.36084   1.09314    0.000
 3744.00    1.05502   1.07842    0.000
 3745.00    0.81695   1.05421    0.012
 3746.00    1.19902   1.02163    0.012
 3747.00    1.89602   0.98404    0.012
 3748.00    1.77469   0.94661    0.013
 3749.00    1.29352   0.91759    0.015
 3750.00    1.39273   0.90602    0.014
 3751.00    1.71105   0.91597    0.012
 3752.00    1.39477   0.94367    0.011
 3753.00    0.87510   0.98087    0.011
 3754.00    1.02619   1.01956    0.011
 3755.00    1.35703   1.05406    0.011
 3756.00    1.53292   1.08155    0.011
 3757.00    1.67480   1.10162    0.011
 3758.00    1.42947   1.11568    0.011
 3759.00    1.11655   1.12527    0.011
 3760.00    0.19541   1.13178    0.015
 3761.00   -0.80653   1.13550    0.000
 3762.00   -0.90533   1.13468    0.000
 3763.00   -0.91925   1.12688    0.000
 3764.00   -0.56172   1.11042    0.000
 3765.00   -0.18275   1.08446    0.000
 3766.00    0.12628   1.04867    0.010
 3767.00    0.43259   1.00506    0.010
 3768.00    0.60968   0.95881    0.010
 3769.00    0.77944   0.91777    0.010
 3770.00    0.77122   0.89175    0.010
 3771.00    0.75877   0.88938    0.010
 3772.00    0.69081   0.91177    0.010
 3773.00    0.52325   0.95160    0.010
 3774.00   -0.51862   0.99900    0.000
 3775.00   -1.36501   1.04563    0.000
 3776.00   -0.94384   1.08631    0.000
 3777.00   -0.52745   1.11967    0.000
 3778.00   -0.13526   1.14614    0.000
 3779.00    0.14410   1.16680    0.010
 3780.00   -0.03839   1.18275    0.000
 3781.00   -0.13479   1.19434    0.000
 3782.00    0.06077   1.20193    0.011
 3783.00    0.43778   1.20591    0.011
 3784.00    1.33370   1.20649    0.011
 3785.00    1.70741   1.20387    0.011
 3786.00    0.80521   1.19864    0.011
 3787.00    0.11081   1.19079    0.011
 3788.00   -0.14562   1.17987    0.000
 3789.00   -0.06598   1.16545    0.000
 3790.00    0.62926   1.14635    0.011
 3791.00    0.91094   1.12144    0.011
 3792.00    0.53064   1.08982    0.010
 3793.00    0.69841   1.05002    0.010
 3794.00    1.63601   1.00206    0.011
 3795.00    2.25606   0.95019    0.011
 3796.00    2.48361   0.90217    0.010
 3797.00    2.19319   0.86808    0.010
 3798.00    1.33846   0.85806    0.010
 3799.00    0.85449   0.87601    0.010
 3800.00    0.72680   0.91605    0.010
 3801.00    0.60984   0.96707    0.010
 3802.00    0.50197   1.01874    0.010
 3803.00    0.58034   1.06439    0.010
 3804.00    0.79771   1.10129    0.010
 3805.00    1.32903   1.13001    0.010
 3806.00    2.06616   1.15313    0.010
 3807.00    2.16722   1.17332    0.010
 3808.00    1.90327   1.19122    0.010
 3809.00    1.26938   1.20614    0.010
 3810.00    0.45059   1.21758    0.010
 3811.00   -0.07555   1.22488    0.000
 3812.00   -0.47514   1.22818    0.000
 3813.00    0.16669   1.22848    0.010
 3814.00    1.19472   1.22632    0.010
 3815.00    1.78861   1.22069    0.010
 3816.00    2.24601   1.20986    0.010
 3817.00    1.49602   1.19391    0.010
 3818.00    0.42931   1.17535    0.010
 3819.00    0.62507   1.15971    0.010
 3820.00    1.09132   1.15525    0.010
 3821.00    0.64945   1.16346    0.010
 3822.00    0.05347   1.17653    0.010
 3823.00   -0.70017   1.18707    0.000
 3824.00   -1.47403   1.19065    0.000
 3825.00   -1.00067   1.18583    0.000
 3826.00   -0.41536   1.17381    0.000
 3827.00    0.29117   1.15564    0.010
 3828.00    1.00423   1.13152    0.011
 3829.00    0.77738   1.10061    0.011
 3830.00    0.53417   1.06172    0.011
 3831.00    0.49900   1.01395    0.011
 3832.00    0.48843   0.95912    0.010
 3833.00    1.02408   0.90377    0.011
 3834.00    1.50788   0.85775    0.011
 3835.00    1.34695   0.83253    0.011
 3836.00    1.11430   0.83665    0.011
 3837.00    0.27553   0.86841    0.012
 3838.00   -0.40918   0.91789    0.000
 3839.00   -0.12466   0.97404    0.000
 3840.00    0.23519   1.02785    0.010
 3841.00    0.96674   1.07468    0.010
 3842.00    1.35455   1.11359    0.010
 3843.00    0.36631   1.14517    0.010
 3844.00   -0.43589   1.17036    0.000
 3845.00   -0.61956   1.19014    0.000
 3846.00   -0.63689   1.20571    0.000
 3847.00   -0.18709   1.21799    0.000
 3848.00    0.04687   1.22779    0.000
 3849.00   -0.23760   1.23568    0.000
 3850.00   -0.38790   1.24216    0.000
 3851.00   -0.25995   1.24761    0.000
 3852.00   -0.24139   1.25176    0.000
 3853.00   -0.42015   1.25435    0.000
 3854.00   -0.51416   1.25537    0.000
 3855.00   -0.47450   1.25532    0.000
 3856.00   -0.38623   1.25516    0.000
 3857.00   -0.23065   1.25582    0.000
 3858.00    0.01552   1.25721    0.000
 3859.00    0.37209   1.25860    0.000
 3860.00    0.88184   1.25994    0.000
 3861.00    1.55616   1.26157    0.000
 3862.00    2.02821   1.26270    0.000
 3863.00    2.30861   1.26271    0.000
 3864.00    1.97713   1.26138    0.000
 3865.00    1.13448   1.25855    0.000
 3866.00    1.37037   1.25465    0.000
 3867.00    2.39953   1.25061    0.000
 3868.00    2.27108   1.24783    0.000
 3869.00    1.39490   1.24580    0.000
 3870.00    1.44454   1.24252    0.000
 3871.00    2.01739   1.23777    0.000
 3872.00    1.97860   1.23337    0.000
 3873.00    1.63893   1.23042    0.000
 3874.00    1.29366   1.22772    0.000
 3875.00    0.94599   1.22373    0.000
 3876.00    0.67136   1.21762    0.000
 3877.00    0.42332   1.20906    0.000
 3878.00    0.41695   1.19799    0.000
 3879.00    0.48509   1.18457    0.000
 3880.00    0.95223   1.16825    0.000
 3881.00    1.52180   1.14732    0.011
 3882.00    1.57526   1.12007    0.010
 3883.00    1.52082   1.08544    0.010
 3884.00    1.18641   1.04233    0.010
 3885.00    0.80583   0.99022    0.010
 3886.00    1.13476   0.93243    0.010
 3887.00    1.55156   0.87700    0.010
 3888.00    1.98571   0.83518    0.010
 3889.00    2.42135   0.81925    0.010
 3890.00    2.00702   0.83542    0.010
 3891.00    1.55033   0.87781    0.010
 3892.00    1.40435   0.93378    0.010
 3893.00    1.25860   0.99181    0.010
 3894.00    0.79904   1.04427    0.010
 3895.00    0.36471   1.08770    0.010
 3896.00    0.44662   1.12228    0.010
 3897.00    0.55054   1.14970    0.010
 3898.00    0.91487   1.17125    0.010
 3899.00    1.13350   1.18845    0.010
 3900.00    0.16518   1.20306    0.010
 3901.00   -0.59788   1.21568    0.000
 3902.00   -0.10728   1.22632    0.000
 3903.00    0.33448   1.23519    0.009
 3904.00    0.54119   1.24249    0.009
 3905.00    0.76749   1.24842    0.009
 3906.00    1.07054   1.25384    0.009
 3907.00    1.27836   1.25939    0.009
 3908.00    1.17581   1.26476    0.009
 3909.00    0.93087   1.26916    0.009
 3910.00    0.29326   1.27214    0.009
 3911.00    0.05750   1.27371    0.010
 3912.00    0.77064   1.27431    0.010
 3913.00    1.07119   1.27470    0.010
 3914.00    0.52970   1.27514    0.010
 3915.00    0.30699   1.27512    0.011
 3916.00    0.65049   1.27356    0.011
 3917.00    0.69536   1.27010    0.011
 3918.00    0.27624   1.26497    0.010
 3919.00    0.05929   1.25930    0.010
 3920.00    0.11819   1.25473    0.010
 3921.00    0.51447   1.25211    0.011
 3922.00    1.31601   1.25058    0.011
 3923.00    1.88015   1.24838    0.011
 3924.00    2.19287   1.24550    0.011
 3925.00    2.13363   1.24248    0.011
 3926.00    1.72693   1.24001    0.011
 3927.00    1.79113   1.23992    0.011
 3928.00    2.24315   1.24165    0.011
 3929.00    1.93833   1.24202    0.011
 3930.00    1.08485   1.23930    0.010
 3931.00    0.88426   1.23296    0.010
 3932.00    1.09917   1.22432    0.010
 3933.00    0.90035   1.21739    0.010
 3934.00    0.47126   1.21684    0.010
 3935.00   -0.03053   1.22397    0.000
 3936.00   -0.56752   1.23623    0.000
 3937.00    0.03683   1.24965    0.010
 3938.00    1.11836   1.26110    0.010
 3939.00    1.87504   1.26911    0.011
 3940.00    2.51551   1.27394    0.011
 3941.00    2.47776   1.27625    0.011
 3942.00    2.23501   1.27662    0.011
 3943.00    1.86049   1.27587    0.011
 3944.00    1.45287   1.27484    0.010
 3945.00    1.78704   1.27408    0.010
 3946.00    2.27246   1.27350    0.010
 3947.00    2.45467   1.27270    0.011
 3948.00    2.58832   1.27153    0.011
 3949.00    1.96367   1.26975    0.011
 3950.00    1.24848   1.26712    0.011
 3951.00    0.26400   1.26354    0.011
 3952.00   -0.74241   1.25902    0.000
 3953.00    0.35593   1.25358    0.011
 3954.00    1.55099   1.24753    0.011
 3955.00    1.78603   1.24099    0.011
 3956.00    2.00104   1.23363    0.011
 3957.00    1.80874   1.22496    0.011
 3958.00    1.60083   1.21443    0.011
 3959.00    1.09710   1.20098    0.011
 3960.00    0.66828   1.18328    0.000
 3961.00    1.08357   1.16045    0.000
 3962.00    1.41909   1.13284    0.000
 3963.00    1.12758   1.09981    0.000
 3964.00    0.86246   1.05995    0.000
 3965.00    0.75399   1.01339    0.000
 3966.00    0.65273   0.96085    0.000
 3967.00    0.58535   0.90437    0.000
 3968.00    0.53893   0.85091    0.000
 3969.00    0.57284   0.81157    0.000
 3970.00    0.68212   0.79791    0.000
 3971.00    1.03236   0.81564    0.000
 3972.00    1.23407   0.85918    0.000
 3973.00    1.03356   0.91668    0.000
 3974.00    0.60527   0.97718    0.000
 3975.00   -0.35193   1.03289    0.000
 3976.00   -0.54412   1.07985    0.000
 3977.00    0.80025   1.11776    0.000
 3978.00    1.79645   1.14785    0.000
 3979.00    2.18366   1.17154    0.000
 3980.00    2.06846   1.19018    0.000
 3981.00    1.18411   1.20478    0.011
 3982.00    0.60686   1.21643    0.011
 3983.00    0.44263   1.22639    0.011
 3984.00    0.45871   1.23553    0.011
 3985.00    0.68831   1.24401    0.011
 3986.00    0.86816   1.25165    0.011
 3987.00    0.99608   1.25855    0.011
 3988.00    1.13071   1.26464    0.011
 3989.00    1.27154   1.26969    0.011
 3990.00    1.28068   1.27378    0.011
 3991.00    1.18288   1.27711    0.010
 3992.00    1.02783   1.27962    0.010
 3993.00    0.83185   1.28110    0.011
 3994.00    1.21743   1.28162    0.011
 3995.00    1.96764   1.28184    0.011
 3996.00    2.45877   1.28234    0.011
 3997.00    2.80791   1.28328    0.011
 3998.00    2.24331   1.28473    0.011
 3999.00    1.24347   1.28670    0.010
 4000.00    0.65547   1.28851    0.010
 4001.00    0.23674   1.28926    0.010
 4002.00    1.10267   1.28863    0.011
 4003.00    2.41980   1.28663    0.011
 4004.00    2.01447   1.28327    0.011
 4005.00    1.09879   1.27866    0.011
 4006.00    1.36833   1.27344    0.011
 4007.00    1.92901   1.26811    0.011
 4008.00    1.44909   1.26356    0.011
 4009.00    0.76229   1.26180    0.011
 4010.00    0.96754   1.26481    0.011
 4011.00    1.31141   1.27180    0.011
 4012.00    1.99637   1.27995    0.011
 4013.00    2.72054   1.28717    0.011
 4014.00    1.44661   1.29266    0.011
 4015.00    0.01821   1.29623    0.011
 4016.00   -0.04298   1.29803    0.000
 4017.00   -0.04660   1.29839    0.000
 4018.00    0.49893   1.29749    0.011
 4019.00    1.03495   1.29474    0.011
 4020.00    0.93490   1.28862    0.011
 4021.00    0.81912   1.27718    0.011
 4022.00    0.42613   1.25950    0.011
 4023.00    0.12520   1.23628    0.011
 4024.00    0.81468   1.21059    0.011
 4025.00    1.54790   1.18877    0.011
 4026.00    2.61320   1.17944    0.011
 4027.00    3.27551   1.18774    0.011
 4028.00    1.61346   1.20894    0.011
 4029.00    0.30703   1.23365    0.011
 4030.00    0.63045   1.25558    0.011
 4031.00    1.00000   1.27219    0.011
 4032.00    1.54261   1.28346    0.011
 4033.00    1.81919   1.29090    0.011
 4034.00    1.26175   1.29629    0.011
 4035.00    0.87385   1.30078    0.010
 4036.00    0.93699   1.30478    0.010
 4037.00    1.04985   1.30802    0.010
 4038.00    1.27624   1.30988    0.010
 4039.00    1.37800   1.31030    0.010
 4040.00    1.23335   1.30965    0.010
 4041.00    0.89335   1.30827    0.010
 4042.00    0.21681   1.30643    0.010
 4043.00   -0.13998   1.30433    0.000
 4044.00   -0.01443   1.30217    0.000
 4045.00    0.07190   1.30078    0.010
 4046.00    0.10623   1.30097    0.011
 4047.00    0.37031   1.30269    0.011
 4048.00    0.90265   1.30512    0.011
 4049.00    1.56284   1.30728    0.011
 4050.00    2.35466   1.30858    0.011
 4051.00    2.87612   1.30884    0.011
 4052.00    3.15206   1.30816    0.011
 4053.00    3.22924   1.30687    0.011
 4054.00    3.14734   1.30552    0.011
 4055.00    2.73535   1.30469    0.011
 4056.00    2.09093   1.30445    0.011
 4057.00    1.37354   1.30454    0.011
 4058.00    0.61106   1.30457    0.011
 4059.00    0.52335   1.30416    0.011
 4060.00    0.79973   1.30325    0.011
 4061.00    1.13613   1.30184    0.011
 4062.00    1.50066   1.30001    0.011
 4063.00    1.27588   1.29810    0.011
 4064.00    0.81302   1.29649    0.011
 4065.00    0.63046   1.29504    0.011
 4066.00    0.54455   1.29283    0.011
 4067.00    0.50698   1.28929    0.011
 4068.00    0.48345   1.28503    0.011
 4069.00    0.85655   1.28098    0.011
 4070.00    1.32492   1.27798    0.011
 4071.00    0.75837   1.27672    0.011
 4072.00   -0.00871   1.27696    0.000
 4073.00    1.24243   1.27782    0.011
 4074.00    2.79769   1.27784    0.011
 4075.00    2.96569   1.27648    0.011
 4076.00    2.98024   1.27519    0.011
 4077.00    1.64038   1.27526    0.011
 4078.00    0.20134   1.27656    0.011
 4079.00    1.04539   1.27838    0.011
 4080.00    1.97684   1.27982    0.011
 4081.00    2.63865   1.27975    0.011
 4082.00    3.26391   1.27761    0.011
 4083.00    2.56826   1.27362    0.011
 4084.00    1.88487   1.26816    0.011
 4085.00    1.40369   1.26181    0.011
 4086.00    0.94483   1.25482    0.011
 4087.00    0.71564   1.24694    0.011
 4088.00    0.53830   1.23799    0.011
 4089.00    0.74142   1.22873    0.011
 4090.00    0.96519   1.21959    0.011
 4091.00    1.30488   1.20896    0.011
 4092.00    1.69429   1.19476    0.000
 4093.00    2.30629   1.17588    0.000
 4094.00    2.64047   1.15124    0.000
 4095.00    1.95431   1.11948    0.000
 4096.00    1.57015   1.07959    0.000
 4097.00    2.11476   1.03162    0.000
 4098.00    2.54680   0.97731    0.000
 4099.00    2.68463   0.92080    0.000
 4100.00    2.72101   0.86977    0.000
 4101.00    2.52958   0.83537    0.000
 4102.00    2.16171   0.82869    0.000
 4103.00    1.45052   0.85279    0.000
 4104.00    0.87451   0.89956    0.000
 4105.00    0.52786   0.95664    0.000
 4106.00    0.68905   1.01382    0.000
 4107.00    1.60517   1.06465    0.000
 4108.00    1.91791   1.10673    0.000
 4109.00    1.44228   1.14044    0.000
 4110.00    1.23733   1.16727    0.000
 4111.00    1.34395   1.18878    0.000
 4112.00    1.67760   1.20617    0.000
 4113.00    2.24172   1.21988    0.010
 4114.00    2.61182   1.23024    0.010
 4115.00    2.80822   1.23770    0.010
 4116.00    2.75758   1.24281    0.010
 4117.00    2.51205   1.24598    0.010
 4118.00    1.97197   1.24714    0.014
 4119.00    1.22748   1.24688    0.053
 4120.00    0.78744   1.24738   -1.000
 4121.00    0.53267   1.25158   -1.000
 4122.00    0.35048   1.26024   -1.000
 4123.00    0.20687   1.27073   -1.000
 4124.00    0.55913   1.28012   -1.000
 4125.00    1.14005   1.28681   -1.000
 4126.00    1.84449   1.29005    0.029
 4127.00    2.59796   1.29026    0.012
 4128.00    2.24799   1.28898    0.010
 4129.00    1.52457   1.28780    0.010
 4130.00    0.82681   1.28714    0.010
 4131.00    0.13635   1.28761    0.010
 4132.00    0.47367   1.28987    0.010
 4133.00    1.05230   1.29367    0.010
 4134.00    1.02353   1.29826    0.010
 4135.00    0.88011   1.30275    0.010
 4136.00    1.17935   1.30615    0.010
 4137.00    1.54324   1.30769    0.010
 4138.00    1.46355   1.30695    0.010
 4139.00    1.33674   1.30334    0.011
 4140.00    1.04516   1.29622    0.010
 4141.00    0.74219   1.28586    0.010
 4142.00    1.67414   1.27398    0.011
 4143.00    2.64869   1.26448    0.011
 4144.00    1.50212   1.26252    0.011
 4145.00    0.38841   1.26953    0.011
 4146.00    0.49925   1.28142    0.011
 4147.00    0.66405   1.29349    0.011
 4148.00    1.66310   1.30305    0.011
 4149.00    2.52734   1.30906    0.011
 4150.00    2.06272   1.31196    0.011
 4151.00    1.65324   1.31289    0.011
 4152.00    1.63521   1.31268    0.011
 4153.00    1.65732   1.31220    0.011
 4154.00    1.89855   1.31239    0.011
 4155.00    2.08774   1.31343    0.011
 4156.00    2.04943   1.31508    0.011
 4157.00    1.89229   1.31722    0.011
 4158.00    1.30781   1.31956    0.010
 4159.00    0.87340   1.32154    0.010
 4160.00    0.89185   1.32269    0.010
 4161.00    0.90941   1.32295    0.010
 4162.00    0.92468   1.32253    0.010
 4163.00    1.13268   1.32189    0.010
 4164.00    1.76643   1.32129    0.010
 4165.00    2.05477   1.32050    0.011
 4166.00    1.68146   1.31938    0.010
 4167.00    1.64648   1.31791    0.010
 4168.00    2.17699   1.31623    0.010
 4169.00    2.25534   1.31496    0.010
 4170.00    1.67133   1.31438    0.010
 4171.00    1.26684   1.31393    0.010
 4172.00    1.09355   1.31348    0.010
 4173.00    0.88561   1.31361    0.010
 4174.00    0.63831   1.31450    0.010
 4175.00    0.60548   1.31584    0.010
 4176.00    0.78728   1.31722    0.010
 4177.00    0.80487   1.31830    0.010
 4178.00    0.67752   1.31929    0.010
 4179.00    1.03336   1.32066    0.010
 4180.00    1.76500   1.32234    0.010
 4181.00    2.03586   1.32370    0.010
 4182.00    1.99161   1.32442    0.010
 4183.00    1.76165   1.32452    0.010
 4184.00    1.42038   1.32398    0.010
 4185.00    1.28388   1.32295    0.010
 4186.00    1.25449   1.32179    0.010
 4187.00    1.74649   1.32095    0.010
 4188.00    2.47499   1.32080    0.010
 4189.00    2.37856   1.32138    0.010
 4190.00    1.96023   1.32265    0.010
 4191.00    1.64906   1.32424    0.010
 4192.00    1.37348   1.32532    0.010
 4193.00    1.48360   1.32508    0.010
 4194.00    1.70123   1.32279    0.009
 4195.00    1.59810   1.31789    0.009
 4196.00    1.42138   1.31059    0.010
 4197.00    1.67821   1.30175    0.010
 4198.00    2.01472   1.29300    0.010
 4199.00    1.97715   1.28679    0.010
 4200.00    1.88669   1.28529    0.010
 4201.00    1.90899   1.28882    0.010
 4202.00    1.94278   1.29592    0.009
 4203.00    1.84543   1.30452    0.009
 4204.00    1.73954   1.31282    0.009
 4205.00    1.56141   1.31987    0.009
 4206.00    1.38165   1.32538    0.009
 4207.00    1.57687   1.32935    0.009
 4208.00    1.77794   1.33199    0.009
 4209.00    2.15109   1.33359    0.010
 4210.00    2.50681   1.33441    0.010
 4211.00    2.60861   1.33467    0.010
 4212.00    2.66786   1.33441    0.010
 4213.00    2.32468   1.33371    0.010
 4214.00    2.04316   1.33282    0.010
 4215.00    2.18553   1.33212    0.010
 4216.00    2.23443   1.33244    0.010
 4217.00    1.78660   1.33407    0.010
 4218.00    1.34039   1.33639    0.010
 4219.00    0.90111   1.33856    0.009
 4220.00    0.60855   1.33969    0.009
 4221.00    0.83290   1.33942    0.009
 4222.00    0.96459   1.33766    0.010
 4223.00    0.82186   1.33456    0.010
 4224.00    0.83926   1.33049    0.010
 4225.00    1.26075   1.32644    0.010
 4226.00    1.93567   1.32376    0.010
 4227.00    3.16128   1.32362    0.010
 4228.00    3.62763   1.32614    0.010
 4229.00    2.66214   1.32996    0.010
 4230.00    2.08013   1.33324    0.009
 4231.00    2.12943   1.33492    0.009
 4232.00    1.97976   1.33482    0.009
 4233.00    1.54287   1.33376    0.009
 4234.00    1.17617   1.33301    0.009
 4235.00    0.89858   1.33303    0.009
 4236.00    0.77147   1.33349    0.009
 4237.00    0.81271   1.33446    0.009
 4238.00    1.02112   1.33586    0.009
 4239.00    1.39450   1.33734    0.009
 4240.00    1.85917   1.33877    0.009
 4241.00    2.40328   1.33999    0.009
 4242.00    2.55713   1.34103    0.009
 4243.00    2.41180   1.34200    0.009
 4244.00    2.29957   1.34252    0.009
 4245.00    2.20965   1.34201    0.010
 4246.00    2.00493   1.34042    0.010
 4247.00    1.73242   1.33848    0.010
 4248.00    2.11893   1.33687    0.010
 4249.00    2.84473   1.33567    0.010
 4250.00    3.30159   1.33491    0.010
 4251.00    3.63844   1.33476    0.010
 4252.00    2.94883   1.33507    0.010
 4253.00    1.86564   1.33560    0.010
 4254.00    1.34263   1.33656    0.010
 4255.00    1.00218   1.33816    0.010
 4256.00    1.09977   1.33992    0.010
 4257.00    1.31693   1.34116    0.010
 4258.00    0.87585   1.34146    0.010
 4259.00    0.28727   1.34117    0.010
 4260.00    1.34045   1.34093    0.010
 4261.00    2.68725   1.34125    0.010
 4262.00    2.52689   1.34209    0.010
 4263.00    2.16031   1.34257    0.010
 4264.00    2.13418   1.34150    0.010
 4265.00    2.14129   1.33850    0.010
 4266.00    1.91763   1.33417    0.010
 4267.00    1.67985   1.33034    0.010
 4268.00    1.96802   1.32891    0.010
 4269.00    2.26514   1.32944    0.010
 4270.00    1.53666   1.33036    0.009
 4271.00    0.82342   1.33103    0.009
 4272.00    0.51272   1.33167    0.009
 4273.00    0.27203   1.33257    0.009
 4274.00    0.99377   1.33364    0.009
 4275.00    1.60014   1.33503    0.009
 4276.00    1.15855   1.33699    0.009
 4277.00    0.82244   1.33933    0.010
 4278.00    1.18896   1.34140    0.010
 4279.00    1.55608   1.34262    0.010
 4280.00    1.92626   1.34281    0.010
 4281.00    2.27990   1.34204    0.010
 4282.00    2.56449   1.34071   -2.000
 4283.00    2.58030   1.33948   -2.000
 4284.00    1.66831   1.33863   -2.000
 4285.00    1.01471   1.33802   -2.000
 4286.00    1.11217   1.33748   -2.000
 4287.00    1.28131   1.33663   -2.000
 4288.00    1.62825   1.33525   -2.000
 4289.00    1.96516   1.33377   -2.000
 4290.00    2.28063   1.33302   -2.000
 4291.00    2.32831   1.33352   -2.000
 4292.00    1.87882   1.33479   -2.000
 4293.00    1.36249   1.33576   -2.000
 4294.00    0.73779   1.33583   -2.000
 4295.00    0.60343   1.33521   -2.000
 4296.00    1.16666   1.33405   -2.000
 4297.00    1.48790   1.33217   -2.000
 4298.00    1.50629   1.32952    0.009
 4299.00    1.37814   1.32643    0.009
 4300.00    1.08835   1.32372    0.009
 4301.00    1.24108   1.32206    0.009
 4302.00    1.82434   1.32132    0.009
 4303.00    1.92266   1.32139    0.009
 4304.00    1.60491   1.32215    0.009
 4305.00    1.08604   1.32291    0.009
 4306.00    0.41517   1.32307    0.009
 4307.00    0.31119   1.32260    0.009
 4308.00    0.58365   1.32210    0.009
 4309.00    1.76921   1.32219    0.009
 4310.00    3.48576   1.32277    0.009
 4311.00    3.44582   1.32343    0.009
 4312.00    2.51569   1.32385    0.009
 4313.00    1.52998   1.32410    0.008
 4314.00    0.51988   1.32464    0.008
 4315.00    0.72940   1.32580    0.009
 4316.00    1.39833   1.32711    0.009
 4317.00    1.74387   1.32779    0.009
 4318.00    1.98600   1.32736    0.009
 4319.00    2.29642   1.32570    0.009
 4320.00    2.62509   1.32299    0.009
 4321.00    2.16424   1.31933    0.009
 4322.00    1.53062   1.31442    0.009
 4323.00    1.40577   1.30796    0.009
 4324.00    1.36942   1.30030    0.009
 4325.00    1.13866   1.29236    0.009
 4326.00    0.88218   1.28521    0.009
 4327.00    1.28345   1.27903    0.009
 4328.00    1.74618   1.27253    0.009
 4329.00    2.61697   1.26399    0.009
 4330.00    3.51109   1.25220    0.000
 4331.00    2.37770   1.23638    0.000
 4332.00    1.20466   1.21585    0.000
 4333.00    0.89461   1.18962    0.000
 4334.00    0.62521   1.15631    0.000
 4335.00    1.33159   1.11444    0.000
 4336.00    1.95304   1.06356    0.000
 4337.00    1.46905   1.00607    0.000
 4338.00    1.04873   0.94859    0.000
 4339.00    1.18466   0.90098    0.000
 4340.00    1.34115   0.87436    0.000
 4341.00    1.63049   0.87717    0.000
 4342.00    1.88870   0.90865    0.000
 4343.00    1.98989   0.95890    0.000
 4344.00    2.04921   1.01610    0.000
 4345.00    1.93764   1.07127    0.000
 4346.00    1.94726   1.11918    0.000
 4347.00    2.36686   1.15813    0.000
 4348.00    2.58784   1.18870    0.000
 4349.00    2.24204   1.21235    0.000
 4350.00    2.01910   1.23093    0.000
 4351.00    2.09567   1.24649    0.009
 4352.00    2.04769   1.26100    0.011
 4353.00    1.73772   1.27549    0.028
 4354.00    1.70466   1.28947   -1.000
 4355.00    2.17786   1.30200   -1.000
 4356.00    2.37908   1.31250   -1.000
 4357.00    2.14576   1.32077   -1.000
 4358.00    2.00442   1.32714   -1.000
 4359.00    1.99206   1.33242   -1.000
 4360.00    1.99098   1.33727    0.040
 4361.00    2.00382   1.34183    0.012
 4362.00    1.99082   1.34605    0.009
 4363.00    1.94971   1.34960    0.009
 4364.00    1.70930   1.35218    0.009
 4365.00    1.27771   1.35364    0.009
 4366.00    1.38557   1.35406    0.009
 4367.00    1.94972   1.35405    0.009
 4368.00    1.80883   1.35436    0.009
 4369.00    1.14278   1.35521    0.009
 4370.00    1.36507   1.35631    0.009
 4371.00    2.16864   1.35726    0.009
 4372.00    2.46597   1.35781    0.009
 4373.00    2.47336   1.35822    0.009
 4374.00    1.86223   1.35893    0.009
 4375.00    0.94258   1.36045    0.009
 4376.00    1.12766   1.36303    0.009
 4377.00    1.78947   1.36607    0.009
 4378.00    1.77431   1.36843    0.009
 4379.00    1.50864   1.36914    0.009
 4380.00    1.47469   1.36765    0.009
 4381.00    1.51340   1.36357    0.009
 4382.00    1.80181   1.35691    0.009
 4383.00    2.15555   1.34823    0.009
 4384.00    2.01822   1.33857    0.009
 4385.00    1.77599   1.32897    0.009
 4386.00    1.40637   1.32041    0.009
 4387.00    1.01521   1.31453    0.009
 4388.00    1.66642   1.31452    0.009
 4389.00    2.45081   1.32197    0.009
 4390.00    2.12834   1.33426    0.009
 4391.00    1.70710   1.34729    0.009
 4392.00    2.22464   1.35830    0.009
 4393.00    2.79218   1.36596    0.009
 4394.00    2.70558   1.37060    0.009
 4395.00    2.59996   1.37363    0.009
 4396.00    1.98838   1.37637    0.009
 4397.00    1.42159   1.37907    0.009
 4398.00    1.83932   1.38105    0.009
 4399.00    2.22666   1.38190    0.009
 4400.00    2.23841   1.38184    0.009
 4401.00    2.22759   1.38140    0.009
 4402.00    2.02682   1.38086    0.009
 4403.00    1.81598   1.38006    0.009
 4404.00    1.54207   1.37917    0.009
 4405.00    1.31044   1.37893    0.009
 4406.00    1.28683   1.37984    0.009
 4407.00    1.34512   1.38152    0.009
 4408.00    1.73035   1.38347    0.009
 4409.00    2.06256   1.38548    0.009
 4410.00    2.21895   1.38706    0.009
 4411.00    2.34426   1.38756    0.009
 4412.00    2.38248   1.38661    0.009
 4413.00    2.37651   1.38401    0.009
 4414.00    2.26463   1.38017    0.009
 4415.00    2.17888   1.37677    0.009
 4416.00    2.14721   1.37549    0.009
 4417.00    2.07659   1.37681    0.009
 4418.00    1.93584   1.38026    0.009
 4419.00    1.83086   1.38468    0.009
 4420.00    1.78220   1.38874    0.009
 4421.00    1.80166   1.39167    0.009
 4422.00    1.91527   1.39335    0.009
 4423.00    1.58371   1.39432    0.009
 4424.00    0.71070   1.39491    0.009
 4425.00    0.48521   1.39508    0.009
 4426.00    0.95404   1.39492    0.009
 4427.00    1.57182   1.39460    0.009
 4428.00    2.33048   1.39436    0.009
 4429.00    2.38103   1.39407    0.009
 4430.00    1.84108   1.39343    0.009
 4431.00    1.73947   1.39248    0.009
 4432.00    1.95968   1.39116    0.009
 4433.00    1.91693   1.38927    0.009
 4434.00    1.70466   1.38709    0.009
 4435.00    1.77298   1.38533    0.009
 4436.00    1.99957   1.38464    0.009
 4437.00    2.24511   1.38539    0.009
 4438.00    2.49995   1.38762    0.009
 4439.00    2.08437   1.39039    0.009
 4440.00    1.38431   1.39233    0.009
 4441.00    1.06261   1.39296    0.009
 4442.00    0.87842   1.39293    0.009
 4443.00    1.45738   1.39313    0.009
 4444.00    2.27102   1.39412    0.009
 4445.00    2.31114   1.39578    0.009
 4446.00    2.15323   1.39742    0.009
 4447.00    2.05404   1.39870    0.009
 4448.00    1.96708   1.39972    0.009
 4449.00    1.97384   1.40054    0.009
 4450.00    1.99600   1.40097    0.009
 4451.00    2.20928   1.40098    0.009
 4452.00    2.44613   1.40056    0.009
 4453.00    2.70267   1.39973    0.009
 4454.00    2.96088   1.39875    0.009
 4455.00    2.49903   1.39809    0.009
 4456.00    2.00164   1.39810    0.009
 4457.00    2.32882   1.39847    0.009
 4458.00    2.66172   1.39877    0.009
 4459.00    2.53061   1.39880    0.008
 4460.00    2.40264   1.39861    0.008
 4461.00    2.33815   1.39829    0.000
 4462.00    2.27206   1.39792    0.000
 4463.00    2.18719   1.39735    0.000
 4464.00    2.05820   1.39572    0.000
 4465.00    1.57141   1.39169    0.000
 4466.00    1.30966   1.38395    0.000
 4467.00    2.41742   1.37154    0.000
 4468.00    3.23556   1.35458    0.000
 4469.00    2.66435   1.33536    0.000
 4470.00    2.25291   1.31826    0.000
 4471.00    2.46547   1.30929    0.000
 4472.00    2.58413   1.31373    0.000
 4473.00    2.39751   1.33061    0.000
 4474.00    2.30645   1.35294    0.000
 4475.00    2.47830   1.37382    0.000
 4476.00    2.46892   1.38900    0.000
 4477.00    2.03247   1.39672    0.000
 4478.00    1.80564   1.39758    0.000
 4479.00    2.00574   1.39392    0.000
 4480.00    2.16474   1.38902    0.000
 4481.00    2.25086   1.38666    0.000
 4482.00    2.22480   1.38937    0.008
 4483.00    2.02473   1.39638    0.008
 4484.00    2.00034   1.40473    0.008
 4485.00    2.21524   1.41187    0.008
 4486.00    2.35331   1.41636    0.008
 4487.00    2.39928   1.41812    0.008
 4488.00    2.56142   1.41798    0.008
 4489.00    2.84636   1.41724    0.008
 4490.00    3.02568   1.41686    0.008
 4491.00    3.10652   1.41718    0.008
 4492.00    2.86526   1.41799    0.008
 4493.00    2.35921   1.41882    0.008
 4494.00    2.29095   1.41946    0.008
 4495.00    2.53946   1.42007    0.008
 4496.00    2.40257   1.42087    0.008
 4497.00    2.02085   1.42186    0.008
 4498.00    1.88820   1.42289    0.008
 4499.00    1.89389   1.42378    0.008
 4500.00    1.96972   1.42446    0.008
 4501.00    2.07943   1.42529    0.008
 4502.00    2.34943   1.42675    0.008
 4503.00    2.68631   1.42877    0.008
 4504.00    2.80574   1.43061    0.008
 4505.00    2.84758   1.43161    0.008
 4506.00    2.53327   1.43166    0.008
 4507.00    2.11158   1.43109    0.008
 4508.00    2.09913   1.43039    0.008
 4509.00    2.18918   1.42990    0.008
 4510.00    1.98118   1.42955    0.008
 4511.00    1.71259   1.42900    0.008
 4512.00    1.43105   1.42804    0.008
 4513.00    1.14744   1.42693    0.008
 4514.00    1.80377   1.42597    0.008
 4515.00    2.57181   1.42553    0.008
 4516.00    2.83237   1.42583    0.008
 4517.00    3.05186   1.42658    0.008
 4518.00    2.36028   1.42732    0.008
 4519.00    1.62727   1.42773    0.008
 4520.00    1.46674   1.42756    0.008
 4521.00    1.32317   1.42674    0.008
 4522.00    1.68601   1.42538    0.008
 4523.00    2.05372   1.42390    0.008
 4524.00    2.51284   1.42266    0.008
 4525.00    2.85688   1.42154    0.008
 4526.00    1.91163   1.42033    0.008
 4527.00    1.18281   1.41902    0.008
 4528.00    2.14759   1.41779    0.008
 4529.00    2.93012   1.41712    0.008
 4530.00    2.63503   1.41723    0.008
 4531.00    2.30600   1.41778    0.008
 4532.00    1.81811   1.41821    0.008
 4533.00    1.51188   1.41815    0.008
 4534.00    1.89994   1.41780    0.008
 4535.00    2.13274   1.41747    0.008
 4536.00    1.87053   1.41674    0.008
 4537.00    1.70382   1.41438    0.008
 4538.00    1.79521   1.40941    0.008
 4539.00    1.71492   1.40224    0.008
 4540.00    1.23686   1.39471    0.008
 4541.00    1.02356   1.38963    0.008
 4542.00    1.34098   1.38940    0.008
 4543.00    1.72749   1.39406    0.008
 4544.00    2.23460   1.40153    0.008
 4545.00    2.35414   1.40939    0.008
 4546.00    1.88141   1.41583    0.008
 4547.00    1.56306   1.41981    0.008
 4548.00    1.45195   1.42141    0.008
 4549.00    1.28008   1.42152    0.008
 4550.00    1.03639   1.42141    0.000
 4551.00    0.99747   1.42165    0.000
 4552.00    1.17200   1.42215    0.000
 4553.00    1.39805   1.42324    0.000
 4554.00    1.67147   1.42523    0.000
 4555.00    1.85030   1.42796    0.000
 4556.00    1.95248   1.43138    0.000
 4557.00    1.95766   1.43522    0.000
 4558.00    1.89366   1.43882    0.000
 4559.00    2.09301   1.44167    0.000
 4560.00    2.45718   1.44348    0.000
 4561.00    2.34158   1.44395    0.000
 4562.00    1.96359   1.44309    0.000
 4563.00    1.49579   1.44142    0.000
 4564.00    0.98529   1.43983    0.000
 4565.00    1.15650   1.43909    0.000
 4566.00    1.60732   1.43925    0.000
 4567.00    1.85556   1.43993    0.000
 4568.00    2.03283   1.44083    0.000
 4569.00    1.92103   1.44166    0.000
 4570.00    1.72380   1.44216    0.000
 4571.00    2.03922   1.44239    0.000
 4572.00    2.48022   1.44280    0.000
 4573.00    2.14139   1.44368    0.000
 4574.00    1.64800   1.44484    0.000
 4575.00    1.70626   1.44604    0.000
 4576.00    1.84990   1.44709    0.000
 4577.00    2.05777   1.44768    0.000
 4578.00    2.27298   1.44762    0.000
 4579.00    1.96056   1.44700    0.000
 4580.00    1.60762   1.44615    0.000
 4581.00    1.92410   1.44530    0.000
 4582.00    2.26844   1.44464    0.000
 4583.00    2.89902   1.44430    0.000
 4584.00    3.49971   1.44450    0.000
 4585.00    2.71009   1.44538    0.000
 4586.00    1.96051   1.44661    0.000
 4587.00    1.91066   1.44763    0.000
 4588.00    1.86985   1.44808    0.000
 4589.00    1.92591   1.44797    0.000
 4590.00    1.97409   1.44750    0.000
 4591.00    1.96278   1.44707    0.000
 4592.00    1.97632   1.44705    0.000
 4593.00    2.13272   1.44742    0.000
 4594.00    2.12731   1.44795    0.000
 4595.00    1.38258   1.44850    0.000
 4596.00    0.89303   1.44930    0.000
 4597.00    1.35819   1.45052    0.000
 4598.00    1.76369   1.45185    0.000
 4599.00    1.98258   1.45285    0.000
 4600.00    2.04633   1.45338    0.000
 4601.00    1.69829   1.45364    0.000
 4602.00    1.53967   1.45412    0.000
 4603.00    1.81271   1.45508    0.000
 4604.00    1.98630   1.45644    0.000
 4605.00    1.96369   1.45791    0.000
 4606.00    1.89625   1.45934    0.000
 4607.00    1.75174   1.46066    0.000
 4608.00    1.75491   1.46181    0.000
 4609.00    1.98045   1.46272    0.000
 4610.00    2.15317   1.46340    0.000
 4611.00    2.25600   1.46383    0.000
 4612.00    2.34853   1.46408    0.000
 4613.00    2.42908   1.46420    0.000
 4614.00    2.44327   1.46418    0.000
 4615.00    2.38925   1.46394    0.000
 4616.00    2.27033   1.46329    0.000
 4617.00    2.09256   1.46228    0.000
 4618.00    1.93246   1.46118    0.000
 4619.00    1.78647   1.46060    0.000
 4620.00    1.65866   1.46116    0.000
 4621.00    1.54365   1.46284    0.000
 4622.00    1.41565   1.46510    0.000
 4623.00    1.27965   1.46734    0.000
 4624.00    1.28450   1.46899    0.000
 4625.00    1.36520   1.46965    0.000
 4626.00    1.25811   1.46924    0.000
 4627.00    1.06319   1.46797    0.000
 4628.00    1.08315   1.46619    0.000
 4629.00    1.18975   1.46444    0.000
 4630.00    1.57899   1.46332    0.000
 4631.00    2.06547   1.46307    0.000
 4632.00    2.22605   1.46345    0.000
 4633.00    2.29224   1.46402    0.000
 4634.00    2.18514   1.46442    0.000
 4635.00    2.03654   1.46452    0.000
 4636.00    1.95237   1.46415    0.000
 4637.00    1.88065   1.46317    0.000
 4638.00    2.08766   1.46182    0.000
 4639.00    2.33651   1.46055    0.000
 4640.00    2.49952   1.45975    0.000
 4641.00    2.65309   1.45956    0.000
 4642.00    2.99951   1.45982    0.000
 4643.00    3.35995   1.45996    0.000
 4644.00    2.27337   1.45919    0.000
 4645.00    1.13208   1.45689    0.000
 4646.00    1.21197   1.45314    0.000
 4647.00    1.30169   1.44905    0.000
 4648.00    1.52471   1.44609    0.000
 4649.00    1.77257   1.44526    0.000
 4650.00    2.42626   1.44693    0.000
 4651.00    2.97387   1.45086    0.000
 4652.00    2.43580   1.45607    0.000
 4653.00    1.94874   1.46121    0.000
 4654.00    1.83448   1.46547    0.000
 4655.00    1.73982   1.46887    0.000
 4656.00    1.75481   1.47178    0.000
 4657.00    1.74747   1.47441    0.000
 4658.00    1.64053   1.47664    0.000
 4659.00    1.65664   1.47810    0.000
 4660.00    2.12349   1.47840    0.000
 4661.00    2.48706   1.47750    0.000
 4662.00    2.53378   1.47589    0.000
 4663.00    2.49236   1.47404    0.000
 4664.00    2.22110   1.47222    0.000
 4665.00    1.90494   1.47060    0.000
 4666.00    1.48815   1.46938    0.000
 4667.00    1.50208   1.46893    0.000
 4668.00    2.35252   1.46962    0.000
 4669.00    2.60876   1.47134    0.000
 4670.00    1.85866   1.47357    0.000
 4671.00    1.33361   1.47564    0.000
 4672.00    1.14246   1.47699    0.000
 4673.00    1.18699   1.47758    0.000
 4674.00    1.53891   1.47781    0.000
 4675.00    1.75598   1.47796    0.000
 4676.00    1.81811   1.47803    0.000
 4677.00    1.85684   1.47777    0.000
 4678.00    1.87185   1.47674    0.000
 4679.00    1.90520   1.47437    0.000
 4680.00    1.95495   1.47007    0.000
 4681.00    1.83416   1.46321    0.000
 4682.00    1.57906   1.45360    0.000
 4683.00    1.65448   1.44192    0.000
 4684.00    1.95884   1.43028    0.000
 4685.00    2.10374   1.42206    0.000
 4686.00    2.15179   1.42080    0.000
 4687.00    2.23583   1.42742    0.000
 4688.00    2.33895   1.43925    0.000
 4689.00    2.37669   1.45251    0.000
 4690.00    2.38436   1.46437    0.000
 4691.00    2.08446   1.47347    0.000
 4692.00    1.66270   1.47982    0.000
 4693.00    1.81563   1.48400    0.000
 4694.00    2.16259   1.48657    0.000
 4695.00    2.11418   1.48781    0.000
 4696.00    1.95357   1.48776    0.000
 4697.00    1.95591   1.48655    0.000
 4698.00    1.99639   1.48459    0.000
 4699.00    1.64761   1.48261    0.000
 4700.00    1.22560   1.48120    0.000
 4701.00    1.36634   1.48045    0.000
 4702.00    1.58891   1.48027    0.000
 4703.00    1.43083   1.48059    0.000
 4704.00    1.23250   1.48129    0.000
 4705.00    1.64829   1.48213    0.000
 4706.00    2.10626   1.48275    0.000
 4707.00    1.81809   1.48283    0.000
 4708.00    1.50454   1.48189    0.000
 4709.00    1.94452   1.47945    0.000
 4710.00    2.36807   1.47540    0.000
 4711.00    2.21894   1.47027    0.000
 4712.00    2.05985   1.46528    0.000
 4713.00    1.74783   1.46284    0.000
 4714.00    1.47874   1.46492    0.000
 4715.00    1.63054   1.47107    0.000
 4716.00    1.79735   1.47904    0.000
 4717.00    2.07030   1.48687    0.000
 4718.00    2.27942   1.49320    0.000
 4719.00    2.14131   1.49768    0.000
 4720.00    1.99923   1.50060    0.000
 4721.00    1.83979   1.50238    0.000
 4722.00    1.78023   1.50339    0.000
 4723.00    2.07898   1.50383    0.000
 4724.00    2.29329   1.50360    0.000
 4725.00    2.25336   1.50255    0.000
 4726.00    2.10858   1.50072    0.000
 4727.00    1.69513   1.49848    0.000
 4728.00    1.50991   1.49648    0.000
 4729.00    1.82785   1.49531    0.000
 4730.00    1.95877   1.49522    0.000
 4731.00    1.73214   1.49613    0.000
 4732.00    1.65670   1.49772    0.000
 4733.00    1.83350   1.49953    0.000
 4734.00    2.06330   1.50109    0.000
 4735.00    2.37058   1.50218    0.000
 4736.00    2.32373   1.50275    0.000
 4737.00    1.82157   1.50311    0.000
 4738.00    1.68049   1.50355    0.000
 4739.00    1.94841   1.50406    0.000
 4740.00    2.08101   1.50466    0.000
 4741.00    2.07842   1.50540    0.000
 4742.00    2.04999   1.50634    0.000
 4743.00    1.99879   1.50746    0.000
 4744.00    1.89988   1.50859    0.000
 4745.00    1.76394   1.50965    0.000
 4746.00    1.68591   1.51061    0.000
 4747.00    1.64743   1.51140    0.000
 4748.00    1.92546   1.51195    0.000
 4749.00    2.39285   1.51224    0.000
 4750.00    2.67010   1.51223    0.000
 4751.00    2.84810   1.51188    0.000
 4752.00    2.52287   1.51121    0.000
 4753.00    1.96986   1.51037    0.000
 4754.00    1.89302   1.50949    0.000
 4755.00    2.00159   1.50878    0.000
 4756.00    2.13395   1.50832    0.000
 4757.00    2.27420   1.50814    0.000
 4758.00    2.41406   1.50813    0.000
 4759.00    2.55380   1.50787    0.000
 4760.00    2.54033   1.50706    0.000
 4761.00    2.49180   1.50562    0.007
 4762.00    2.10614   1.50380    0.007
 4763.00    1.65874   1.50216    0.007
 4764.00    1.79234   1.50119    0.007
 4765.00    2.00776   1.50119    0.007
 4766.00    1.74845   1.50217    0.007
 4767.00    1.44099   1.50382    0.007
 4768.00    1.96659   1.50570    0.007
 4769.00    2.54604   1.50742    0.007
 4770.00    2.51960   1.50865    0.007
 4771.00    2.47493   1.50941    0.007
 4772.00    2.47954   1.50999    0.007
 4773.00    2.47653   1.51071    0.007
 4774.00    2.25278   1.51163    0.007
 4775.00    2.06747   1.51259    0.007
 4776.00    2.43767   1.51333    0.007
 4777.00    2.74266   1.51367    0.007
 4778.00    2.43418   1.51361    0.007
 4779.00    2.14299   1.51331    0.007
 4780.00    1.97017   1.51297    0.007
 4781.00    1.83993   1.51267    0.007
 4782.00    1.93529   1.51236    0.007
 4783.00    1.98663   1.51200    0.007
 4784.00    1.85054   1.51167    0.007
 4785.00    1.70585   1.51145    0.007
 4786.00    1.53097   1.51142    0.007
 4787.00    1.40693   1.51170    0.007
 4788.00    1.43313   1.51230    0.007
 4789.00    1.48243   1.51322    0.007
 4790.00    1.58993   1.51446    0.007
 4791.00    1.65205   1.51604    0.007
 4792.00    1.61578   1.51786    0.007
 4793.00    1.55244   1.51974    0.007
 4794.00    1.43817   1.52133    0.007
 4795.00    1.47871   1.52225    0.007
 4796.00    1.77366   1.52229    0.007
 4797.00    1.93062   1.52155    0.007
 4798.00    1.88873   1.52037    0.007
 4799.00    1.83283   1.51926    0.007
 4800.00    1.75917   1.51854    0.007
 4801.00    1.72376   1.51826    0.007
 4802.00    1.73108   1.51819    0.007
 4803.00    1.88738   1.51805    0.007
 4804.00    2.19045   1.51776    0.007
 4805.00    2.29993   1.51739    0.007
 4806.00    2.24125   1.51707    0.007
 4807.00    2.24277   1.51684    0.007
 4808.00    2.29036   1.51661    0.007
 4809.00    2.27379   1.51633    0.007
 4810.00    2.21406   1.51603    0.007
 4811.00    2.12520   1.51576    0.007
 4812.00    2.01917   1.51561    0.007
 4813.00    2.01320   1.51576    0.007
 4814.00    2.05865   1.51628    0.006
 4815.00    2.00515   1.51708    0.006
 4816.00    1.90758   1.51793    0.007
 4817.00    1.79878   1.51855    0.007
 4818.00    1.68568   1.51867    0.007
 4819.00    1.91341   1.51820    0.007
 4820.00    2.25194   1.51726    0.007
 4821.00    2.16533   1.51603    0.007
 4822.00    1.96297   1.51461    0.007
 4823.00    1.71766   1.51320    0.007
 4824.00    1.46276   1.51218    0.007
 4825.00    1.72280   1.51166    0.007
 4826.00    2.07462   1.51140    0.007
 4827.00    2.03478   1.51112    0.007
 4828.00    1.94159   1.51067    0.007
 4829.00    1.70967   1.51007    0.007
 4830.00    1.46427   1.50948    0.007
 4831.00    1.66885   1.50890    0.007
 4832.00    1.90072   1.50825    0.007
 4833.00    1.71118   1.50749    0.007
 4834.00    1.51339   1.50646    0.006
 4835.00    1.83972   1.50496    0.007
 4836.00    2.14864   1.50286    0.007
 4837.00    2.00257   1.50011    0.007
 4838.00    1.85936   1.49678    0.007
 4839.00    1.75508   1.49307    0.007
 4840.00    1.66513   1.48922    0.007
 4841.00    1.70465   1.48543    0.007
 4842.00    1.71505   1.48165    0.007
 4843.00    1.53215   1.47762    0.007
 4844.00    1.38436   1.47294    0.007
 4845.00    1.41781   1.46717    0.007
 4846.00    1.46553   1.45997    0.007
 4847.00    1.57264   1.45121    0.007
 4848.00    1.68425   1.44095    0.000
 4849.00    1.81131   1.42916    0.000
 4850.00    1.94126   1.41544    0.000
 4851.00    2.07957   1.39898    0.000
 4852.00    2.03536   1.37874    0.000
 4853.00    1.53946   1.35367    0.000
 4854.00    1.23715   1.32266    0.000
 4855.00    1.34785   1.28468    0.000
 4856.00    1.56825   1.23920    0.000
 4857.00    1.99191   1.18687    0.000
 4858.00    2.10899   1.13069    0.000
 4859.00    1.72976   1.07718    0.000
 4860.00    1.61367   1.03556    0.000
 4861.00    1.87124   1.01514    0.000
 4862.00    1.88271   1.02146    0.000
 4863.00    1.58675   1.05307    0.000
 4864.00    1.32126   1.10224    0.000
 4865.00    1.08933   1.15902    0.000
 4866.00    1.20432   1.21474    0.000
 4867.00    1.65624   1.26397    0.000
 4868.00    1.81873   1.30467    0.000
 4869.00    1.73333   1.33719    0.000
 4870.00    1.62550   1.36305    0.000
 4871.00    1.50074   1.38412    0.000
 4872.00    1.47229   1.40209    0.000
 4873.00    1.50768   1.41803    0.000
 4874.00    1.70972   1.43238    0.000
 4875.00    2.00848   1.44525    0.007
 4876.00    1.77881   1.45665    0.007
 4877.00    1.28184   1.46658    0.007
 4878.00    1.37839   1.47501    0.007
 4879.00    1.73483   1.48196    0.007
 4880.00    1.80192   1.48750    0.007
 4881.00    1.76025   1.49187    0.007
 4882.00    1.72422   1.49540    0.007
 4883.00    1.69000   1.49840    0.007
 4884.00    1.82917   1.50108    0.007
 4885.00    2.01456   1.50355    0.007
 4886.00    1.88498   1.50579    0.007
 4887.00    1.68669   1.50771    0.007
 4888.00    1.91795   1.50927    0.007
 4889.00    2.22367   1.51068    0.007
 4890.00    2.22736   1.51243    0.007
 4891.00    2.19127   1.51512    0.007
 4892.00    2.17786   1.51911    0.007
 4893.00    2.16657   1.52412    0.007
 4894.00    1.87058   1.52938    0.007
 4895.00    1.55844   1.53401    0.007
 4896.00    1.49981   1.53736    0.007
 4897.00    1.45078   1.53924    0.007
 4898.00    1.81863   1.53989    0.007
 4899.00    2.17848   1.53980    0.007
 4900.00    2.34842   1.53950    0.007
 4901.00    2.48377   1.53935    0.007
 4902.00    2.17176   1.53953    0.007
 4903.00    1.88596   1.54006    0.007
 4904.00    1.82803   1.54084    0.007
 4905.00    1.79179   1.54162    0.007
 4906.00    1.89515   1.54209    0.007
 4907.00    1.97192   1.54203    0.007
 4908.00    1.91498   1.54149    0.007
 4909.00    1.85830   1.54080    0.007
 4910.00    1.80270   1.54042    0.007
 4911.00    1.75647   1.54066    0.007
 4912.00    1.74184   1.54145    0.007
 4913.00    1.68967   1.54224    0.007
 4914.00    1.53061   1.54215    0.007
 4915.00    1.54098   1.54012    0.006
 4916.00    1.96353   1.53514    0.006
 4917.00    2.23596   1.52658    0.007
 4918.00    2.19323   1.51459    0.007
 4919.00    2.09369   1.50056    0.007
 4920.00    1.89048   1.48712    0.007
 4921.00    1.70278   1.47755    0.007
 4922.00    1.53981   1.47475    0.006
 4923.00    1.55385   1.47974    0.006
 4924.00    1.81562   1.49118    0.006
 4925.00    1.91180   1.50609    0.006
 4926.00    1.80406   1.52131    0.006
 4927.00    1.73902   1.53433    0.006
 4928.00    1.72036   1.54390    0.006
 4929.00    1.78317   1.54984    0.006
 4930.00    1.92400   1.55259    0.006
 4931.00    1.96024   1.55296    0.006
 4932.00    1.90815   1.55188    0.006
 4933.00    1.80783   1.55022    0.006
 4934.00    1.67165   1.54865    0.006
 4935.00    1.64223   1.54742    0.006
 4936.00    1.68253   1.54650    0.006
 4937.00    1.70042   1.54582    0.006
 4938.00    1.70548   1.54560    0.006
 4939.00    1.78549   1.54615    0.006
 4940.00    1.90279   1.54767    0.000
 4941.00    1.98438   1.54998    0.000
 4942.00    2.05057   1.55269    0.000
 4943.00    1.93216   1.55539    0.000
 4944.00    1.74559   1.55779    0.000
 4945.00    1.65365   1.55981    0.000
 4946.00    1.59131   1.56146    0.000
 4947.00    1.72058   1.56281    0.000
 4948.00    1.89985   1.56384    0.000
 4949.00    2.04274   1.56449    0.000
 4950.00    2.17788   1.56462    0.000
 4951.00    2.11441   1.56411    0.000
 4952.00    2.01747   1.56284    0.000
 4953.00    1.71408   1.56078    0.000
 4954.00    1.38443   1.55806    0.000
 4955.00    1.25324   1.55501    0.000
 4956.00    1.13966   1.55231    0.000
 4957.00    1.51988   1.55079    0.000
 4958.00    1.92615   1.55103    0.000
 4959.00    1.91751   1.55297    0.000
 4960.00    1.90329   1.55580    0.000
 4961.00    2.07394   1.55847    0.000
 4962.00    2.23027   1.56020    0.000
 4963.00    2.07537   1.56068    0.000
 4964.00    1.92193   1.56009    0.000
 4965.00    1.78638   1.55894    0.000
 4966.00    1.67286   1.55783    0.000
 4967.00    1.74386   1.55727    0.000
 4968.00    1.79945   1.55752    0.000
 4969.00    1.75887   1.55858    0.000
 4970.00    1.75323   1.56023    0.000
 4971.00    1.91893   1.56212    0.000
 4972.00    2.02849   1.56391    0.000
 4973.00    1.91457   1.56530    0.000
 4974.00    1.81447   1.56606    0.000
 4975.00    1.76011   1.56604    0.000
 4976.00    1.69755   1.56520    0.000
 4977.00    1.61203   1.56354    0.000
 4978.00    1.59407   1.56115    0.000
 4979.00    1.73767   1.55817    0.000
 4980.00    1.77865   1.55484    0.000
 4981.00    1.60764   1.55157    0.000
 4982.00    1.55598   1.54898    0.000
 4983.00    1.71875   1.54770    0.000
 4984.00    1.84846   1.54811    0.000
 4985.00    1.92619   1.55010    0.000
 4986.00    1.89915   1.55306    0.000
 4987.00    1.72760   1.55613    0.000
 4988.00    1.78118   1.55854    0.000
 4989.00    2.10811   1.55989    0.000
 4990.00    2.11907   1.56030    0.000
 4991.00    1.79182   1.56023    0.000
 4992.00    1.76861   1.56023    0.000
 4993.00    2.03247   1.56064    0.000
 4994.00    2.13725   1.56146    0.000
 4995.00    2.10960   1.56232    0.000
 4996.00    2.17707   1.56267    0.000
 4997.00    2.31424   1.56205    0.000
 4998.00    2.17190   1.56032    0.000
 4999.00    1.84967   1.55772    0.000
 5000.00    1.48297   1.55482    0.000
 5001.00    1.09123   1.55220    0.000
 5002.00    1.37096   1.55020    0.000
 5003.00    1.97967   1.54890    0.000
 5004.00    2.21833   1.54823    0.000
 5005.00    2.30030   1.54818    0.000
 5006.00    2.05080   1.54882    0.000
 5007.00    1.68110   1.55000    0.000
 5008.00    1.87826   1.55117    0.000
 5009.00    2.24930   1.55144    0.000
 5010.00    2.06485   1.54983    0.000
 5011.00    1.73858   1.54568    0.000
 5012.00    1.56501   1.53901    0.000
 5013.00    1.42317   1.53075    0.000
 5014.00    1.64093   1.52268    0.000
 5015.00    1.91755   1.51691    0.000
 5016.00    1.91073   1.51511    0.000
 5017.00    1.86912   1.51767    0.000
 5018.00    1.90733   1.52362    0.000
 5019.00    1.95227   1.53133    0.000
 5020.00    2.01366   1.53916    0.000
 5021.00    2.07585   1.54604    0.000
 5022.00    1.99706   1.55150    0.000
 5023.00    1.91314   1.55554    0.000
 5024.00    1.64963   1.55830    0.000
 5025.00    1.39380   1.56003    0.000
 5026.00    1.29216   1.56105    0.000
 5027.00    1.22171   1.56177    0.000
 5028.00    1.51575   1.56258    0.000
 5029.00    1.77577   1.56369    0.006
 5030.00    1.76122   1.56502    0.006
 5031.00    1.76466   1.56628    0.006
 5032.00    1.87713   1.56711    0.006
 5033.00    1.95913   1.56717    0.006
 5034.00    1.89541   1.56626    0.006
 5035.00    1.75747   1.56438    0.006
 5036.00    1.33045   1.56166    0.006
 5037.00    1.06130   1.55831    0.006
 5038.00    1.30420   1.55469    0.006
 5039.00    1.49004   1.55140    0.006
 5040.00    1.51922   1.54933    0.006
 5041.00    1.57755   1.54920    0.006
 5042.00    1.70440   1.55112    0.006
 5043.00    1.77770   1.55427    0.006
 5044.00    1.74215   1.55724    0.006
 5045.00    1.73773   1.55886    0.006
 5046.00    1.78839   1.55882    0.006
 5047.00    1.87707   1.55774    0.006
 5048.00    2.02460   1.55680    0.006
 5049.00    1.97604   1.55689    0.006
 5050.00    1.66090   1.55817    0.006
 5051.00    1.48714   1.56014    0.006
 5052.00    1.48257   1.56210    0.006
 5053.00    1.53748   1.56358    0.006
 5054.00    1.65514   1.56453    0.006
 5055.00    1.75824   1.56531    0.006
 5056.00    1.84778   1.56650    0.006
 5057.00    1.86576   1.56843    0.006
 5058.00    1.82500   1.57090    0.006
 5059.00    1.87019   1.57336    0.006
 5060.00    1.97747   1.57519    0.006
 5061.00    1.89026   1.57595    0.006
 5062.00    1.67974   1.57552    0.006
 5063.00    1.56638   1.57417    0.006
 5064.00    1.50687   1.57241    0.006
 5065.00    1.30641   1.57083    0.006
 5066.00    1.03800   1.56981    0.006
 5067.00    1.20095   1.56940    0.006
 5068.00    1.54349   1.56944    0.006
 5069.00    1.65285   1.56972    0.006
 5070.00    1.67920   1.57004    0.006
 5071.00    1.76630   1.57027    0.006
 5072.00    1.87168   1.57037    0.006
 5073.00    1.65669   1.57039    0.006
 5074.00    1.36168   1.57032    0.006
 5075.00    1.32213   1.57006    0.006
 5076.00    1.33436   1.56950    0.006
 5077.00    1.55148   1.56857    0.006
 5078.00    1.80116   1.56734    0.006
 5079.00    1.78664   1.56611    0.006
 5080.00    1.74088   1.56539    0.006
 5081.00    1.79554   1.56555    0.006
 5082.00    1.85827   1.56666    0.006
 5083.00    1.82732   1.56848    0.006
 5084.00    1.79215   1.57064    0.006
 5085.00    1.67851   1.57273    0.006
 5086.00    1.57027   1.57451    0.006
 5087.00    1.77782   1.57592    0.006
 5088.00    1.98454   1.57707    0.006
 5089.00    2.17584   1.57805    0.006
 5090.00    2.32281   1.57891    0.006
 5091.00    1.97595   1.57964    0.006
 5092.00    1.66776   1.58009    0.006
 5093.00    1.66091   1.58001    0.006
 5094.00    1.67190   1.57914    0.006
 5095.00    1.78792   1.57739    0.006
 5096.00    1.84638   1.57498    0.006
 5097.00    1.63625   1.57240    0.006
 5098.00    1.47279   1.57023    0.006
 5099.00    1.48725   1.56898    0.006
 5100.00    1.43628   1.56882    0.006
 5101.00    1.17718   1.56957    0.006
 5102.00    0.98916   1.57075    0.006
 5103.00    0.99278   1.57186    0.006
 5104.00    1.06233   1.57258    0.006
 5105.00    1.28435   1.57281    0.006
 5106.00    1.42667   1.57263    0.006
 5107.00    1.40953   1.57228    0.006
 5108.00    1.42780   1.57214    0.006
 5109.00    1.50777   1.57249    0.006
 5110.00    1.52802   1.57344    0.006
 5111.00    1.45716   1.57495    0.006
 5112.00    1.46248   1.57682    0.006
 5113.00    1.56988   1.57880    0.006
 5114.00    1.70581   1.58074    0.006
 5115.00    1.87540   1.58251    0.006
 5116.00    1.84970   1.58394    0.006
 5117.00    1.62079   1.58477    0.006
 5118.00    1.50831   1.58475    0.006
 5119.00    1.50268   1.58374    0.006
 5120.00    1.51706   1.58185    0.006
 5121.00    1.54763   1.57935    0.006
 5122.00    1.67794   1.57667    0.006
 5123.00    1.87925   1.57422    0.006
 5124.00    1.90232   1.57231    0.006
 5125.00    1.81405   1.57105    0.006
 5126.00    1.74941   1.57039    0.006
 5127.00    1.69768   1.57025    0.006
 5128.00    1.51708   1.57056    0.006
 5129.00    1.27534   1.57122    0.006
 5130.00    1.20004   1.57211    0.006
 5131.00    1.19286   1.57312    0.006
 5132.00    1.41937   1.57412    0.006
 5133.00    1.72758   1.57506    0.006
 5134.00    1.51738   1.57585    0.006
 5135.00    1.15436   1.57632    0.006
 5136.00    1.08532   1.57621    0.006
 5137.00    1.08808   1.57552    0.006
 5138.00    1.24123   1.57447    0.006
 5139.00    1.42409   1.57332    0.006
 5140.00    1.72662   1.57233    0.006
 5141.00    2.04761   1.57152    0.006
 5142.00    1.86006   1.57081    0.006
 5143.00    1.61460   1.57032    0.006
 5144.00    1.26854   1.57015    0.006
 5145.00    0.91482   1.57028    0.006
 5146.00    1.29376   1.57063    0.006
 5147.00    1.70286   1.57108    0.006
 5148.00    1.72926   1.57147    0.006
 5149.00    1.74873   1.57172    0.006
 5150.00    1.60871   1.57178    0.006
 5151.00    1.47538   1.57172    0.006
 5152.00    1.45784   1.57185    0.006
 5153.00    1.44684   1.57251    0.006
 5154.00    1.50548   1.57390    0.006
 5155.00    1.55308   1.57606    0.006
 5156.00    1.51761   1.57873    0.006
 5157.00    1.50961   1.58142    0.006
 5158.00    1.65890   1.58357    0.006
 5159.00    1.75944   1.58475    0.006
 5160.00    1.63792   1.58473    0.006
 5161.00    1.51660   1.58336    0.006
 5162.00    1.39609   1.58044    0.006
 5163.00    1.33640   1.57581    0.006
 5164.00    1.46647   1.56942    0.006
 5165.00    1.52692   1.56161    0.006
 5166.00    1.40302   1.55335    0.006
 5167.00    1.28880   1.54596    0.006
 5168.00    1.19661   1.54063    0.006
 5169.00    1.20637   1.53790    0.006
 5170.00    1.41689   1.53755    0.006
 5171.00    1.58101   1.53910    0.006
 5172.00    1.66552   1.54234    0.006
 5173.00    1.75655   1.54738    0.006
 5174.00    1.85741   1.55390    0.006
 5175.00    1.87615   1.56082    0.006
 5176.00    1.78640   1.56689    0.006
 5177.00    1.65091   1.57113    0.006
 5178.00    1.46221   1.57287    0.006
 5179.00    1.37381   1.57182    0.006
 5180.00    1.38831   1.56834    0.006
 5181.00    1.41377   1.56336    0.006
 5182.00    1.44914   1.55826    0.006
 5183.00    1.37854   1.55470    0.006
 5184.00    1.22342   1.55409    0.006
 5185.00    1.13580   1.55667    0.006
 5186.00    1.09553   1.56133    0.006
 5187.00    1.19257   1.56644    0.006
 5188.00    1.37410   1.57064    0.006
 5189.00    1.30380   1.57327    0.006
 5190.00    1.09813   1.57426    0.000
 5191.00    1.25149   1.57401    0.000
 5192.00    1.57245   1.57336    0.000
 5193.00    1.74957   1.57308    0.000
 5194.00    1.86882   1.57349    0.000
 5195.00    1.84440   1.57458    0.000
 5196.00    1.77067   1.57617    0.000
 5197.00    1.69226   1.57798    0.000
 5198.00    1.61250   1.57968    0.000
 5199.00    1.53328   1.58095    0.000
 5200.00    1.45419   1.58143    0.000
 5201.00    1.61098   1.58087    0.000
 5202.00    1.81319   1.57918    0.000
 5203.00    1.77239   1.57652    0.000
 5204.00    1.69525   1.57330    0.000
 5205.00    1.39883   1.57019    0.000
 5206.00    1.07840   1.56787    0.000
 5207.00    0.88558   1.56680    0.000
 5208.00    0.70198   1.56714    0.000
 5209.00    1.15465   1.56887    0.000
 5210.00    1.63107   1.57164    0.000
 5211.00    1.79429   1.57487    0.006
 5212.00    1.94702   1.57799    0.006
 5213.00    1.77069   1.58063    0.006
 5214.00    1.60263   1.58261    0.006
 5215.00    1.56868   1.58408    0.006
 5216.00    1.54114   1.58548    0.006
 5217.00    1.57888   1.58725    0.006
 5218.00    1.58739   1.58939    0.006
 5219.00    1.38314   1.59142    0.006
 5220.00    1.24665   1.59269    0.006
 5221.00    1.48758   1.59259    0.006
 5222.00    1.67866   1.59065    0.006
 5223.00    1.64797   1.58700    0.006
 5224.00    1.56613   1.58234    0.006
 5225.00    1.29737   1.57775    0.006
 5226.00    1.16856   1.57445    0.006
 5227.00    1.46808   1.57335    0.006
 5228.00    1.67528   1.57453    0.006
 5229.00    1.64228   1.57711    0.006
 5230.00    1.55517   1.57986    0.006
 5231.00    1.34706   1.58192    0.006
 5232.00    1.15293   1.58299    0.006
 5233.00    0.98589   1.58348    0.006
 5234.00    0.97733   1.58427    0.006
 5235.00    1.23667   1.58590    0.006
 5236.00    1.39574   1.58840    0.006
 5237.00    1.40633   1.59125    0.006
 5238.00    1.43593   1.59391    0.006
 5239.00    1.49030   1.59604    0.006
 5240.00    1.53792   1.59750    0.005
 5241.00    1.57782   1.59834    0.005
 5242.00    1.52392   1.59858    0.005
 5243.00    1.37514   1.59822    0.005
 5244.00    1.26077   1.59731    0.005
 5245.00    1.17708   1.59584    0.005
 5246.00    1.22536   1.59380    0.005
 5247.00    1.37738   1.59157    0.005
 5248.00    1.57769   1.58972    0.005
 5249.00    1.81138   1.58842    0.006
 5250.00    1.79699   1.58771    0.006
 5251.00    1.63221   1.58770    0.006
 5252.00    1.56966   1.58836    0.006
 5253.00    1.56120   1.58949    0.006
 5254.00    1.49420   1.59099    0.006
 5255.00    1.40030   1.59279    0.006
 5256.00    1.63022   1.59470    0.006
 5257.00    1.98816   1.59616    0.006
 5258.00    1.98823   1.59652    0.006
 5259.00    1.86774   1.59521    0.006
 5260.00    1.57617   1.59204    0.006
 5261.00    1.23618   1.58736    0.006
 5262.00    1.21450   1.58183    0.006
 5263.00    1.26712   1.57629    0.006
 5264.00    1.18228   1.57154    0.006
 5265.00    1.07166   1.56808    0.006
 5266.00    1.34072   1.56596    0.006
 5267.00    1.66477   1.56494    0.006
 5268.00    1.50149   1.56456    0.006
 5269.00    1.28694   1.56472    0.006
 5270.00    1.22248   1.56602    0.006
 5271.00    1.16824   1.56876    0.006
 5272.00    1.26169   1.57239    0.006
 5273.00    1.36010   1.57620    0.006
 5274.00    1.40018   1.57987    0.006
 5275.00    1.44583   1.58334    0.006
 5276.00    1.67206   1.58675    0.006
 5277.00    1.86638   1.59009    0.006
 5278.00    1.57477   1.59282    0.006
 5279.00    1.30847   1.59442    0.006
 5280.00    1.28911   1.59486    0.006
 5281.00    1.30008   1.59452    0.006
 5282.00    1.52454   1.59416    0.006
 5283.00    1.71559   1.59444    0.006
 5284.00    1.72544   1.59583    0.006
 5285.00    1.68090   1.59842    0.006
 5286.00    1.40000   1.60156    0.006
 5287.00    1.26647   1.60448    0.006
 5288.00    1.66024   1.60671    0.006
 5289.00    1.89706   1.60813    0.006
 5290.00    1.66252   1.60875    0.006
 5291.00    1.45605   1.60857    0.006
 5292.00    1.32135   1.60760    0.006
 5293.00    1.26524   1.60587    0.006
 5294.00    1.38202   1.60347    0.006
 5295.00    1.45094   1.60049    0.006
 5296.00    1.42853   1.59731    0.005
 5297.00    1.42912   1.59457    0.005
 5298.00    1.46799   1.59295    0.005
 5299.00    1.42118   1.59281    0.005
 5300.00    1.24929   1.59397    0.005
 5301.00    1.26108   1.59603    0.005
 5302.00    1.50859   1.59865    0.005
 5303.00    1.63014   1.60144    0.005
 5304.00    1.60926   1.60391    0.005
 5305.00    1.52489   1.60569    0.005
 5306.00    1.37720   1.60668    0.005
 5307.00    1.20410   1.60712    0.005
 5308.00    1.00864   1.60735    0.005
 5309.00    0.98536   1.60749    0.005
 5310.00    1.09550   1.60737    0.005
 5311.00    1.17621   1.60669    0.005
 5312.00    1.23688   1.60537    0.005
 5313.00    1.33039   1.60350    0.005
 5314.00    1.44351   1.60134    0.005
 5315.00    1.40503   1.59921    0.005
 5316.00    1.28756   1.59759    0.005
 5317.00    1.25962   1.59695    0.005
 5318.00    1.27210   1.59723    0.005
 5319.00    1.20657   1.59783    0.005
 5320.00    1.11072   1.59809    0.005
 5321.00    1.16032   1.59773    0.005
 5322.00    1.25801   1.59652    0.005
 5323.00    1.49653   1.59437    0.005
 5324.00    1.77411   1.59144    0.005
 5325.00    1.49723   1.58814    0.005
 5326.00    1.09389   1.58482    0.005
 5327.00    1.10005   1.58200    0.006
 5328.00    1.18096   1.58057    0.006
 5329.00    1.35889   1.58141    0.006
 5330.00    1.55042   1.58434    0.006
 5331.00    1.58170   1.58833    0.006
 5332.00    1.59681   1.59231    0.006
 5333.00    1.56220   1.59570    0.006
 5334.00    1.52440   1.59824    0.006
 5335.00    1.46326   1.59969    0.006
 5336.00    1.40192   1.59995    0.006
 5337.00    1.54342   1.59918    0.005
 5338.00    1.68532   1.59779    0.005
 5339.00    1.83835   1.59618    0.005
 5340.00    1.96649   1.59484    0.005
 5341.00    1.73768   1.59431    0.005
 5342.00    1.55095   1.59467    0.005
 5343.00    1.75805   1.59546    0.005
 5344.00    1.91267   1.59629    0.005
 5345.00    1.70948   1.59702    0.005
 5346.00    1.52814   1.59792    0.005
 5347.00    1.46214   1.59914    0.005
 5348.00    1.41996   1.60072    0.005
 5349.00    1.47893   1.60271    0.005
 5350.00    1.51658   1.60514    0.005
 5351.00    1.47947   1.60779    0.005
 5352.00    1.42368   1.61030    0.005
 5353.00    1.31285   1.61251    0.005
 5354.00    1.23481   1.61443    0.005
 5355.00    1.23916   1.61587    0.005
 5356.00    1.27340   1.61664    0.005
 5357.00    1.37233   1.61670    0.005
 5358.00    1.46473   1.61602    0.005
 5359.00    1.54485   1.61461    0.005
 5360.00    1.62788   1.61253    0.005
 5361.00    1.71568   1.60998    0.005
 5362.00    1.69163   1.60739    0.005
 5363.00    1.50671   1.60503    0.005
 5364.00    1.39180   1.60291    0.005
 5365.00    1.36547   1.60088    0.005
 5366.00    1.37530   1.59883    0.005
 5367.00    1.42544   1.59675    0.005
 5368.00    1.43694   1.59472   -2.000
 5369.00    1.41044   1.59301   -2.000
 5370.00    1.42233   1.59213   -2.000
 5371.00    1.46750   1.59268   -2.000
 5372.00    1.53202   1.59500   -2.000
 5373.00    1.61130   1.59867   -2.000
 5374.00    1.50788   1.60271   -2.000
 5375.00    1.28177   1.60621   -2.000
 5376.00    1.24306   1.60851   -2.000
 5377.00    1.31456   1.60949   -2.000
 5378.00    1.43368   1.60942   -2.000
 5379.00    1.57722   1.60856   -2.000
 5380.00    1.59879   1.60733   -2.000
 5381.00    1.56615   1.60619   -2.000
 5382.00    1.49404   1.60543   -2.000
 5383.00    1.40686   1.60513    0.005
 5384.00    1.32361   1.60524    0.005
 5385.00    1.24164   1.60550    0.006
 5386.00    1.45423   1.60556    0.005
 5387.00    1.74680   1.60523    0.005
 5388.00    1.77367   1.60451    0.005
 5389.00    1.74136   1.60338    0.005
 5390.00    1.59701   1.60194    0.005
 5391.00    1.43276   1.60036    0.005
 5392.00    1.32829   1.59865    0.005
 5393.00    1.23193   1.59691    0.005
 5394.00    1.32110   1.59525    0.005
 5395.00    1.42820   1.59379    0.005
 5396.00    1.38617   1.59270    0.005
 5397.00    1.33516   1.59222    0.005
 5398.00    1.13707   1.59251    0.005
 5399.00    0.93827   1.59302    0.005
 5400.00    1.25937   1.59291    0.005
 5401.00    1.56755   1.59176    0.005
 5402.00    1.54263   1.58939    0.005
 5403.00    1.51722   1.58567    0.005
 5404.00    1.48530   1.58082    0.005
 5405.00    1.47929   1.57524    0.005
 5406.00    1.70637   1.56923    0.005
 5407.00    1.87440   1.56279    0.005
 5408.00    1.65219   1.55586    0.005
 5409.00    1.46875   1.54900    0.005
 5410.00    1.48473   1.54366    0.005
 5411.00    1.49220   1.54183    0.005
 5412.00    1.46438   1.54473    0.005
 5413.00    1.47296   1.55194    0.005
 5414.00    1.60652   1.56172    0.005
 5415.00    1.71511   1.57226    0.005
 5416.00    1.75146   1.58211    0.005
 5417.00    1.75853   1.59012    0.005
 5418.00    1.69332   1.59578    0.005
 5419.00    1.68147   1.59926    0.005
 5420.00    1.78323   1.60108    0.005
 5421.00    1.83104   1.60185    0.005
 5422.00    1.77907   1.60200    0.005
 5423.00    1.68264   1.60175    0.005
 5424.00    1.51438   1.60135    0.005
 5425.00    1.47113   1.60101    0.005
 5426.00    1.60505   1.60050    0.005
 5427.00    1.71428   1.59944    0.005
 5428.00    1.79271   1.59761    0.005
 5429.00    1.72042   1.59543    0.005
 5430.00    1.48247   1.59366    0.005
 5431.00    1.33883   1.59252    0.005
 5432.00    1.28662   1.59182    0.005
 5433.00    1.31482   1.59166    0.005
 5434.00    1.41176   1.59244    0.005
 5435.00    1.52619   1.59437    0.005
 5436.00    1.65380   1.59731    0.005
 5437.00    1.61107   1.60094    0.005
 5438.00    1.45563   1.60475    0.005
 5439.00    1.37827   1.60805    0.005
 5440.00    1.34613   1.61027    0.005
 5441.00    1.37727   1.61111    0.005
 5442.00    1.44035   1.61046    0.005
 5443.00    1.48016   1.60846    0.005
 5444.00    1.50981   1.60550    0.005
 5445.00    1.67774   1.60221    0.005
 5446.00    1.89752   1.59944    0.005
 5447.00    1.89464   1.59797    0.005
 5448.00    1.82092   1.59792    0.005
 5449.00    1.66968   1.59858    0.005
 5450.00    1.49785   1.59910    0.005
 5451.00    1.35617   1.59895    0.005
 5452.00    1.22106   1.59798    0.005
 5453.00    1.22406   1.59646    0.005
 5454.00    1.25092   1.59493    0.005
 5455.00    1.33995   1.59405    0.005
 5456.00    1.43714   1.59440    0.005
 5457.00    1.33243   1.59584    0.005
 5458.00    1.20907   1.59760    0.005
 5459.00    1.37331   1.59893    0.005
 5460.00    1.55370   1.59953    0.005
 5461.00    1.68554   1.59945    0.005
 5462.00    1.81588   1.59902    0.005
 5463.00    1.90328   1.59866    0.005
 5464.00    1.97619   1.59871    0.005
 5465.00    1.70904   1.59921    0.005
 5466.00    1.46352   1.59980    0.005
 5467.00    1.49584   1.60036    0.005
 5468.00    1.51692   1.60076    0.005
 5469.00    1.44074   1.60067    0.005
 5470.00    1.35405   1.59991    0.005
 5471.00    1.20001   1.59857    0.005
 5472.00    1.09518   1.59669    0.005
 5473.00    1.23702   1.59444    0.005
 5474.00    1.37115   1.59229    0.005
 5475.00    1.47397   1.59056    0.005
 5476.00    1.52036   1.58936    0.005
 5477.00    1.37681   1.58914    0.005
 5478.00    1.27685   1.59004   -2.000
 5479.00    1.30072   1.59151   -2.000
 5480.00    1.46764   1.59303   -2.000
 5481.00    1.98184   1.59446   -2.000
 5482.00    2.20395   1.59600   -2.000
 5483.00    1.81416   1.59768   -2.000
 5484.00    1.57741   1.59920   -2.000
 5485.00    1.61936   1.60036   -2.000
 5486.00    1.31221   1.60094   -2.000
 5487.00    0.44938   1.60110   -2.000
 5488.00    0.12684   1.60129   -2.000
 5489.00    0.55908   1.60168   -2.000
 5490.00    0.78255   1.60205   -2.000
 5491.00    0.74936   1.60230   -2.000
 5492.00    1.07802   1.60241   -2.000
 5493.00    1.79882   1.60228   -2.000
 5494.00    1.92647   1.60201   -2.000
 5495.00    1.48714   1.60172   -2.000
 5496.00    1.44611   1.60134   -2.000
 5497.00    1.74081   1.60091   -2.000
 5498.00    1.71784   1.60069   -2.000
 5499.00    1.45912   1.60054   -2.000
 5500.00    1.39969   1.60002   -2.000
 5501.00    1.47019   1.59912   -2.000
 5502.00    1.62890   1.59818    0.005
 5503.00    1.83793   1.59731    0.005
 5504.00    1.82819   1.59647    0.005
 5505.00    1.70976   1.59553    0.005
 5506.00    1.63387   1.59463    0.005
 5507.00    1.57624   1.59409    0.005
 5508.00    1.61560   1.59390    0.005
 5509.00    1.69067   1.59369    0.005
 5510.00    1.56749   1.59338    0.005
 5511.00    1.38244   1.59305    0.005
 5512.00    1.36819   1.59295    0.005
 5513.00    1.39837   1.59330    0.005
 5514.00    1.41114   1.59436    0.005
 5515.00    1.42022   1.59614    0.005
 5516.00    1.46423   1.59833    0.005
 5517.00    1.51411   1.60065    0.005
 5518.00    1.55832   1.60285    0.005
 5519.00    1.60182   1.60447    0.005
 5520.00    1.38033   1.60530    0.005
 5521.00    1.13548   1.60536    0.005
 5522.00    1.17634   1.60470    0.005
 5523.00    1.23214   1.60334    0.005
 5524.00    1.30483   1.60137    0.005
 5525.00    1.37927   1.59904    0.005
 5526.00    1.56295   1.59680    0.005
 5527.00    1.73144   1.59499    0.005
 5528.00    1.57299   1.59404    0.005
 5529.00    1.41924   1.59425    0.005
 5530.00    1.32280   1.59522    0.005
 5531.00    1.25865   1.59631    0.005
 5532.00    1.46364   1.59715    0.005
 5533.00    1.64031   1.59765    0.005
 5534.00    1.64080   1.59796    0.005
 5535.00    1.63183   1.59835    0.005
 5536.00    1.57668   1.59912    0.005
 5537.00    1.52381   1.60029    0.005
 5538.00    1.48005   1.60162    0.005
 5539.00    1.45839   1.60295    0.005
 5540.00    1.50968   1.60401    0.005
 5541.00    1.54014   1.60452    0.006
 5542.00    1.51250   1.60451    0.014
 5543.00    1.51241   1.60421   -1.000
 5544.00    1.57808   1.60397   -1.000
 5545.00    1.57796   1.60398   -1.000
 5546.00    1.44223   1.60433   -1.000
 5547.00    1.37414   1.60506   -1.000
 5548.00    1.42733   1.60593   -1.000
 5549.00    1.47849   1.60665    0.023
 5550.00    1.52647   1.60704    0.007
 5551.00    1.53001   1.60695    0.005
 5552.00    1.47239   1.60636    0.005
 5553.00    1.44497   1.60548    0.005
 5554.00    1.45415   1.60460    0.005
 5555.00    1.51190   1.60397    0.005
 5556.00    1.62154   1.60353    0.005
 5557.00    1.59515   1.60316    0.005
 5558.00    1.44057   1.60280    0.005
 5559.00    1.37108   1.60237    0.005
 5560.00    1.37231   1.60171    0.005
 5561.00    1.31628   1.60078    0.005
 5562.00    1.21837   1.59966    0.005
 5563.00    1.27117   1.59848    0.005
 5564.00    1.42078   1.59746    0.005
 5565.00    1.42392   1.59662    0.005
 5566.00    1.34475   1.59599    0.005
 5567.00    1.31668   1.59565    0.005
 5568.00    1.31359   1.59550    0.005
 5569.00    1.35072   1.59541    0.005
 5570.00    1.40484   1.59550    0.005
 5571.00    1.33628   1.59575    0.005
 5572.00    1.22335   1.59591    0.005
 5573.00    1.25541   1.59619    0.005
 5574.00    1.33183   1.59690    0.005
 5575.00    1.38752   1.59785    0.005
 5576.00    1.43793   1.59884    0.005
 5577.00    1.43337   1.59977    0.005
 5578.00    1.41743   1.60047    0.005
 5579.00    1.51745   1.60086    0.005
 5580.00    1.63638   1.60084    0.005
 5581.00    1.50425   1.60019    0.005
 5582.00    1.34145   1.59891    0.005
 5583.00    1.28527   1.59707    0.005
 5584.00    1.23805   1.59465    0.005
 5585.00    1.34086   1.59166    0.005
 5586.00    1.45094   1.58842    0.005
 5587.00    1.45904   1.58548    0.009
 5588.00    1.46747   1.58341   -1.000
 5589.00    1.58606   1.58241   -1.000
 5590.00    1.69474   1.58246   -1.000
 5591.00    1.60673   1.58317   -1.000
 5592.00    1.51766   1.58437   -1.000
 5593.00    1.41625   1.58601   -1.000
 5594.00    1.32081   1.58800   -1.000
 5595.00    1.27329   1.58991   -1.000
 5596.00    1.26469   1.59131   -1.000
 5597.00    1.49116   1.59175   -1.000
 5598.00    1.65763   1.59136    0.055
 5599.00    1.53806   1.59075    0.008
 5600.00    1.42578   1.59030    0.005
 5601.00    1.34183   1.59026    0.005
 5602.00    1.28112   1.59094    0.005
 5603.00    1.29561   1.59255    0.005
 5604.00    1.26986   1.59499    0.005
 5605.00    1.13387   1.59772    0.005
 5606.00    1.04481   1.60028    0.005
 5607.00    1.06588   1.60234    0.005
 5608.00    1.12805   1.60374    0.005
 5609.00    1.27360   1.60432    0.005
 5610.00    1.34861   1.60406    0.005
 5611.00    1.29904   1.60302    0.005
 5612.00    1.28297   1.60126    0.005
 5613.00    1.31867   1.59882    0.005
 5614.00    1.37181   1.59595    0.005
 5615.00    1.44862   1.59329    0.005
 5616.00    1.54365   1.59178    0.005
 5617.00    1.66044   1.59156    0.005
 5618.00    1.65750   1.59202    0.005
 5619.00    1.52841   1.59272    0.005
 5620.00    1.47895   1.59342    0.005
 5621.00    1.50348   1.59396    0.005
 5622.00    1.50049   1.59406    0.005
 5623.00    1.47495   1.59368    0.005
 5624.00    1.39976   1.59319    0.005
 5625.00    1.28876   1.59322    0.005
 5626.00    1.27154   1.59401    0.005
 5627.00    1.31367   1.59528    0.005
 5628.00    1.41738   1.59677    0.005
 5629.00    1.55516   1.59826    0.005
 5630.00    1.59573   1.59941    0.005
 5631.00    1.58952   1.60006    0.005
 5632.00    1.67034   1.60009    0.004
 5633.00    1.78731   1.59945    0.004
 5634.00    1.70237   1.59830    0.004
 5635.00    1.54569   1.59679    0.005
 5636.00    1.43624   1.59505    0.004
 5637.00    1.34096   1.59335    0.004
 5638.00    1.40401   1.59192    0.004
 5639.00    1.50650   1.59078    0.005
 5640.00    1.53775   1.59002    0.005
 5641.00    1.55462   1.58972    0.005
 5642.00    1.47021   1.59001    0.005
 5643.00    1.36978   1.59059    0.005
 5644.00    1.39690   1.59122    0.005
 5645.00    1.43905   1.59187    0.005
 5646.00    1.38614   1.59254    0.005
 5647.00    1.32563   1.59325    0.005
 5648.00    1.34095   1.59402    0.005
 5649.00    1.35965   1.59480    0.005
 5650.00    1.51066   1.59550    0.005
 5651.00    1.66012   1.59608    0.005
 5652.00    1.66079   1.59631    0.005
 5653.00    1.65029   1.59587    0.005
 5654.00    1.43377   1.59463    0.005
 5655.00    1.24557   1.59281    0.005
 5656.00    1.37101   1.59072    0.005
 5657.00    1.46749   1.58835    0.005
 5658.00    1.33933   1.58606    0.005
 5659.00    1.22913   1.58468    0.005
 5660.00    1.22435   1.58440    0.005
 5661.00    1.23567   1.58459    0.005
 5662.00    1.32188   1.58500    0.005
 5663.00    1.38067   1.58576    0.005
 5664.00    1.33524   1.58681    0.005
 5665.00    1.29506   1.58781    0.005
 5666.00    1.27153   1.58854    0.005
 5667.00    1.27853   1.58924    0.005
 5668.00    1.36763   1.59017    0.004
 5669.00    1.43481   1.59138    0.004
 5670.00    1.45140   1.59274    0.004
 5671.00    1.48700   1.59420    0.004
 5672.00    1.56055   1.59562    0.004
 5673.00    1.62198   1.59672    0.004
 5674.00    1.66234   1.59723    0.004
 5675.00    1.64844   1.59717    0.005
 5676.00    1.55190   1.59675    0.005
 5677.00    1.53088   1.59604    0.005
 5678.00    1.61085   1.59496    0.005
 5679.00    1.58607   1.59373    0.005
 5680.00    1.43791   1.59268    0.005
 5681.00    1.39246   1.59183    0.005
 5682.00    1.45370   1.59100    0.005
 5683.00    1.51817   1.59026    0.005
 5684.00    1.58558   1.58981    0.005
 5685.00    1.64422   1.58950    0.005
 5686.00    1.69575   1.58930    0.005
 5687.00    1.57193   1.58947    0.005
 5688.00    1.32350   1.59023    0.005
 5689.00    1.18810   1.59147    0.005
 5690.00    1.12317   1.59287    0.004
 5691.00    1.17851   1.59408    0.004
 5692.00    1.29939   1.59488    0.005
 5693.00    1.31530   1.59508    0.005
 5694.00    1.28151   1.59461    0.005
 5695.00    1.34775   1.59357    0.005
 5696.00    1.45482   1.59235    0.005
 5697.00    1.54530   1.59116    0.005
 5698.00    1.62998   1.59005    0.005
 5699.00    1.59039   1.58913    0.005
 5700.00    1.51426   1.58832    0.005
 5701.00    1.45355   1.58759    0.005
 5702.00    1.39660   1.58699    0.005
 5703.00    1.47630   1.58641    0.005
 5704.00    1.58292   1.58560    0.005
 5705.00    1.43766   1.58435    0.005
 5706.00    1.25371   1.58274    0.004
 5707.00    1.34720   1.58106    0.004
 5708.00    1.47213   1.57968    0.004
 5709.00    1.41956   1.57896    0.004
 5710.00    1.35353   1.57920    0.004
 5711.00    1.40050   1.58038    0.004
 5712.00    1.45207   1.58232    0.004
 5713.00    1.43950   1.58491    0.004
 5714.00    1.42789   1.58758    0.004
 5715.00    1.47594   1.58994    0.004
 5716.00    1.52100   1.59192    0.004
 5717.00    1.51463   1.59351    0.004
 5718.00    1.49522   1.59481    0.004
 5719.00    1.33789   1.59589    0.004
 5720.00    1.19698   1.59669    0.004
 5721.00    1.17921   1.59718    0.004
 5722.00    1.16400   1.59737    0.004
 5723.00    1.16338   1.59727    0.004
 5724.00    1.16296   1.59687    0.004
 5725.00    1.16345   1.59628    0.004
 5726.00    1.16453   1.59546    0.004
 5727.00    1.16782   1.59470    0.004
 5728.00    1.23190   1.59426    0.004
 5729.00    1.48523   1.59413    0.005
 5730.00    1.61410   1.59407    0.005
 5731.00    1.41409   1.59407    0.005
 5732.00    1.29482   1.59436    0.005
 5733.00    1.35878   1.59487    0.005
 5734.00    1.43675   1.59525    0.005
 5735.00    1.54227   1.59533    0.005
 5736.00    1.58648   1.59500    0.005
 5737.00    1.52568   1.59432    0.005
 5738.00    1.50758   1.59344    0.005
 5739.00    1.55354   1.59259    0.004
 5740.00    1.59890   1.59208    0.000
 5741.00    1.64345   1.59202    0.000
 5742.00    1.67821   1.59233    0.000
 5743.00    1.70161   1.59269    0.000
 5744.00    1.65366   1.59312    0.000
 5745.00    1.53266   1.59350    0.000
 5746.00    1.44951   1.59360    0.000
 5747.00    1.40054   1.59329    0.000
 5748.00    1.42321   1.59281    0.000
 5749.00    1.50292   1.59249    0.000
 5750.00    1.50115   1.59208    0.000
 5751.00    1.44234   1.59139    0.000
 5752.00    1.41768   1.59051    0.000
 5753.00    1.41400   1.58977    0.000
 5754.00    1.37378   1.58950    0.000
 5755.00    1.31396   1.58990    0.000
 5756.00    1.34873   1.59066    0.000
 5757.00    1.42756   1.59128    0.000
 5758.00    1.58397   1.59148    0.000
 5759.00    1.77152   1.59116    0.000
 5760.00    1.71923   1.59049    0.000
 5761.00    1.58481   1.58975    0.000
 5762.00    1.47556   1.58930    0.000
 5763.00    1.37355   1.58950    0.000
 5764.00    1.35462   1.59045    0.000
 5765.00    1.35547   1.59166    0.000
 5766.00    1.36719   1.59276    0.000
 5767.00    1.38100   1.59359    0.000
 5768.00    1.51650   1.59406    0.000
 5769.00    1.67012   1.59418    0.000
 5770.00    1.62716   1.59399    0.000
 5771.00    1.56278   1.59357    0.000
 5772.00    1.55124   1.59303    0.000
 5773.00    1.54348   1.59246    0.000
 5774.00    1.57921   1.59180    0.000
 5775.00    1.61654   1.59097    0.000
 5776.00    1.65714   1.58994    0.000
 5777.00    1.69328   1.58854    0.000
 5778.00    1.56924   1.58666    0.000
 5779.00    1.45131   1.58432    0.000
 5780.00    1.43179   1.58173    0.000
 5781.00    1.41230   1.57929    0.000
 5782.00    1.39321   1.57763    0.000
 5783.00    1.36565   1.57685    0.000
 5784.00    1.27672   1.57668    0.000
 5785.00    1.21051   1.57717    0.000
 5786.00    1.27045   1.57840    0.000
 5787.00    1.33381   1.58010    0.000
 5788.00    1.41243   1.58177    0.000
 5789.00    1.49270   1.58328    0.000
 5790.00    1.57900   1.58446    0.000
 5791.00    1.61044   1.58542   -2.000
 5792.00    1.47436   1.58640   -2.000
 5793.00    1.38914   1.58732   -2.000
 5794.00    1.43598   1.58802   -2.000
 5795.00    1.46333   1.58843   -2.000
 5796.00    1.44718   1.58850   -2.000
 5797.00    1.44571   1.58830   -2.000
 5798.00    1.47263   1.58816   -2.000
 5799.00    1.53463   1.58836   -2.000
 5800.00    1.65580   1.58869   -2.000
 5801.00    1.70344   1.58900   -2.000
 5802.00    1.64240   1.58936   -2.000
 5803.00    1.63101   1.58969   -2.000
 5804.00    1.68415   1.58977   -2.000
 5805.00    1.69581   1.58980   -2.000
 5806.00    1.65996   1.58991   -2.000
 5807.00    1.62503   1.59009   -2.000
 5808.00    1.59102   1.59017   -2.000
 5809.00    1.48263   1.59011   -2.000
 5810.00    1.30800   1.58990   -2.000
 5811.00    1.31241   1.58949    0.000
 5812.00    1.45734   1.58900    0.000
 5813.00    1.45717   1.58864    0.000
 5814.00    1.35688   1.58860    0.000
 5815.00    1.33439   1.58879    0.000
 5816.00    1.35898   1.58934    0.000
 5817.00    1.44464   1.59034    0.000
 5818.00    1.56254   1.59162    0.000
 5819.00    1.67641   1.59279    0.000
 5820.00    1.78843   1.59371    0.000
 5821.00    1.83378   1.59435    0.000
 5822.00    1.85284   1.59469    0.000
 5823.00    1.82136   1.59488    0.000
 5824.00    1.77290   1.59507    0.000
 5825.00    1.81111   1.59539    0.000
 5826.00    1.87379   1.59568    0.000
 5827.00    1.81808   1.59578    0.000
 5828.00    1.73481   1.59576    0.000
 5829.00    1.60438   1.59563    0.000
 5830.00    1.46515   1.59533    0.000
 5831.00    1.43554   1.59490    0.000
 5832.00    1.42176   1.59439    0.000
 5833.00    1.46830   1.59373    0.000
 5834.00    1.52115   1.59312    0.000
 5835.00    1.48756   1.59276    0.000
 5836.00    1.44811   1.59269    0.000
 5837.00    1.45895   1.59273    0.000
 5838.00    1.47145   1.59285    0.000
 5839.00    1.47289   1.59308    0.000
 5840.00    1.47654   1.59340    0.000
 5841.00    1.55052   1.59360    0.000
 5842.00    1.61294   1.59346    0.000
 5843.00    1.50079   1.59292    0.000
 5844.00    1.39835   1.59203    0.000
 5845.00    1.39013   1.59090    0.000
 5846.00    1.40122   1.58967    0.000
 5847.00    1.54781   1.58844    0.000
 5848.00    1.68312   1.58731    0.000
 5849.00    1.75749   1.58610    0.000
 5850.00    1.81099   1.58475    0.000
 5851.00    1.77407   1.58323    0.000
 5852.00    1.72446   1.58151    0.000
 5853.00    1.62952   1.57975    0.000
 5854.00    1.53085   1.57836    0.000
 5855.00    1.42100   1.57733    0.000
 5856.00    1.35333   1.57641    0.000
 5857.00    1.39330   1.57564    0.000
 5858.00    1.44065   1.57543    0.000
 5859.00    1.50421   1.57605    0.000
 5860.00    1.52586   1.57705    0.000
 5861.00    1.46771   1.57803    0.000
 5862.00    1.43940   1.57883    0.000
 5863.00    1.46066   1.57952    0.000
 5864.00    1.50381   1.58009    0.000
 5865.00    1.57886   1.58039    0.000
 5866.00    1.56816   1.58030    0.000
 5867.00    1.44760   1.57965    0.000
 5868.00    1.39673   1.57804    0.000
 5869.00    1.42450   1.57463    0.000
 5870.00    1.51934   1.56865    0.000
 5871.00    1.68097   1.55996    0.000
 5872.00    1.70973   1.54888    0.000
 5873.00    1.62183   1.53668    0.000
 5874.00    1.50719   1.52354    0.000
 5875.00    1.37188   1.51301    0.000
 5876.00    1.33157   1.51002    0.000
 5877.00    1.35588   1.51540    0.000
 5878.00    1.38116   1.52622    0.000
 5879.00    1.40701   1.53686    0.000
 5880.00    1.41478   1.54689    0.000
 5881.00    1.41315   1.55545    0.000
 5882.00    1.47646   1.56164    0.000
 5883.00    1.56904   1.56455    0.000
 5884.00    1.44375   1.56414    0.000
 5885.00    1.23401   1.56099    0.000
 5886.00    1.20490   1.55576    0.000
 5887.00    1.23536   1.54890    0.000
 5888.00    1.29815   1.54090    0.000
 5889.00    1.36987   1.53279    0.000
 5890.00    1.35006   1.52683    0.000
 5891.00    1.30942   1.52465    0.000
 5892.00    1.29440   1.52505    0.000
 5893.00    1.28404   1.52625    0.000
 5894.00    1.39490   1.52765    0.000
 5895.00    1.52269   1.52898    0.000
 5896.00    1.45582   1.53148    0.000
 5897.00    1.36943   1.53630    0.000
 5898.00    1.32900   1.54231    0.000
 5899.00    1.29149   1.54818    0.000
 5900.00    1.30800   1.55375    0.000
 5901.00    1.32582   1.55890    0.004
 5902.00    1.24804   1.56324    0.004
 5903.00    1.17315   1.56669    0.004
 5904.00    1.17998   1.56929    0.004
 5905.00    1.19544   1.57105    0.004
 5906.00    1.33368   1.57224    0.004
 5907.00    1.45943   1.57311    0.004
 5908.00    1.46887   1.57362    0.004
 5909.00    1.48042   1.57361    0.004
 5910.00    1.50636   1.57320    0.004
 5911.00    1.53207   1.57262    0.004
 5912.00    1.55660   1.57168    0.004
 5913.00    1.55577   1.57043    0.004
 5914.00    1.44760   1.56925    0.004
 5915.00    1.36063   1.56858    0.004
 5916.00    1.34777   1.56841    0.004
 5917.00    1.34501   1.56864    0.004
 5918.00    1.37201   1.56909    0.004
 5919.00    1.39063   1.56963    0.004
 5920.00    1.38825   1.57032    0.004
 5921.00    1.41286   1.57093    0.004
 5922.00    1.49579   1.57142    0.004
 5923.00    1.56096   1.57191    0.004
 5924.00    1.59284   1.57226    0.004
 5925.00    1.57604   1.57236    0.004
 5926.00    1.47954   1.57226    0.004
 5927.00    1.36404   1.57193    0.004
 5928.00    1.22124   1.57143    0.004
 5929.00    1.15854   1.57091    0.004
 5930.00    1.19696   1.57060    0.004
 5931.00    1.28113   1.57068    0.004
 5932.00    1.41623   1.57101    0.004
 5933.00    1.49011   1.57125    0.004
 5934.00    1.50391   1.57132    0.004
 5935.00    1.47932   1.57147    0.004
 5936.00    1.42152   1.57173    0.004
 5937.00    1.38870   1.57181    0.004
 5938.00    1.37493   1.57154    0.004
 5939.00    1.34491   1.57091    0.004
 5940.00    1.30399   1.57008    0.004
 5941.00    1.31627   1.56923    0.004
 5942.00    1.35978   1.56880    0.004
 5943.00    1.45625   1.56876    0.004
 5944.00    1.57983   1.56874    0.004
 5945.00    1.58103   1.56876    0.004
 5946.00    1.52797   1.56875    0.004
 5947.00    1.47643   1.56851    0.004
 5948.00    1.42546   1.56798    0.004
 5949.00    1.40826   1.56744    0.004
 5950.00    1.40198   1.56714    0.004
 5951.00    1.38241   1.56687    0.004
 5952.00    1.35924   1.56637    0.004
 5953.00    1.30926   1.56589    0.004
 5954.00    1.25331   1.56585    0.004
 5955.00    1.28406   1.56594    0.004
 5956.00    1.33014   1.56584    0.004
 5957.00    1.37445   1.56604    0.004
 5958.00    1.41851   1.56690    0.004
 5959.00    1.45135   1.56822    0.004
 5960.00    1.48311   1.56972    0.004
 5961.00    1.42574   1.57103    0.004
 5962.00    1.36305   1.57210    0.004
 5963.00    1.39389   1.57288    0.004
 5964.00    1.42675   1.57336    0.004
 5965.00    1.40125   1.57359    0.004
 5966.00    1.37579   1.57380    0.004
 5967.00    1.35122   1.57421    0.004
 5968.00    1.32827   1.57464    0.004
 5969.00    1.32721   1.57496    0.004
 5970.00    1.32734   1.57507    0.004
 5971.00    1.33806   1.57484    0.004
 5972.00    1.34353   1.57410    0.004
 5973.00    1.31447   1.57287    0.004
 5974.00    1.28577   1.57119    0.004
 5975.00    1.25890   1.56930    0.004
 5976.00    1.23799   1.56750    0.004
 5977.00    1.24173   1.56591    0.004
 5978.00    1.23741   1.56464    0.004
 5979.00    1.20550   1.56404    0.004
 5980.00    1.20869   1.56401    0.004
 5981.00    1.31322   1.56414    0.004
 5982.00    1.40205   1.56407    0.004
 5983.00    1.45224   1.56386    0.004
 5984.00    1.46245   1.56371    0.004
 5985.00    1.38770   1.56401    0.004
 5986.00    1.34442   1.56469    0.004
 5987.00    1.35926   1.56542    0.004
 5988.00    1.38307   1.56620    0.004
 5989.00    1.42133   1.56713    0.004
 5990.00    1.45197   1.56795    0.004
 5991.00    1.47181   1.56857    0.004
 5992.00    1.45061   1.56909    0.004
 5993.00    1.37832   1.56955    0.004
 5994.00    1.31658   1.56974    0.004
 5995.00    1.26641   1.56948    0.004
 5996.00    1.22969   1.56880    0.004
 5997.00    1.20598   1.56794    0.004
 5998.00    1.23710   1.56711    0.004
 5999.00    1.31501   1.56648    0.004
 6000.00    1.35887   1.56602    0.004
 6001.00    1.37715   1.56550    0.004
 6002.00    1.42455   1.56485    0.004
 6003.00    1.49118   1.56425    0.004
 6004.00    1.50726   1.56384    0.004
 6005.00    1.49411   1.56344    0.004
 6006.00    1.47619   1.56283    0.004
 6007.00    1.45587   1.56217    0.004
 6008.00    1.46290   1.56178    0.004
 6009.00    1.48186   1.56196    0.004
 6010.00    1.51471   1.56246    0.004
 6011.00    1.55276   1.56270    0.004
 6012.00    1.50483   1.56254    0.004
 6013.00    1.42961   1.56232    0.004
 6014.00    1.39285   1.56232    0.004
 6015.00    1.36628   1.56240    0.004
 6016.00    1.43518   1.56216    0.004
 6017.00    1.52479   1.56179    0.004
 6018.00    1.52211   1.56155    0.004
 6019.00    1.50354   1.56131    0.004
 6020.00    1.47617   1.56106    0.004
 6021.00    1.44766   1.56104    0.004
 6022.00    1.35783   1.56127    0.004
 6023.00    1.26236   1.56178    0.004
 6024.00    1.29212   1.56247    0.004
 6025.00    1.32885   1.56341    0.004
 6026.00    1.38137   1.56440    0.004
 6027.00    1.43454   1.56528    0.004
 6028.00    1.51847   1.56619    0.004
 6029.00    1.59872   1.56707    0.004
 6030.00    1.59385   1.56779    0.004
 6031.00    1.58312   1.56836    0.004
 6032.00    1.49764   1.56891    0.004
 6033.00    1.42265   1.56948    0.004
 6034.00    1.43793   1.56986    0.004
 6035.00    1.44420   1.57001    0.004
 6036.00    1.39295   1.56995    0.004
 6037.00    1.34698   1.56971    0.004
 6038.00    1.32737   1.56939    0.004
 6039.00    1.32799   1.56906    0.004
 6040.00    1.41048   1.56876    0.004
 6041.00    1.47506   1.56863    0.004
 6042.00    1.47952   1.56875    0.004
 6043.00    1.48641   1.56913    0.004
 6044.00    1.50017   1.56960    0.004
 6045.00    1.51293   1.57006    0.004
 6046.00    1.52327   1.57044    0.004
 6047.00    1.51850   1.57081    0.004
 6048.00    1.48212   1.57108    0.004
 6049.00    1.45769   1.57114    0.004
 6050.00    1.45496   1.57103    0.004
 6051.00    1.44852   1.57063    0.004
 6052.00    1.43615   1.56984    0.004
 6053.00    1.39791   1.56882    0.004
 6054.00    1.32357   1.56781    0.004
 6055.00    1.30228   1.56690    0.004
 6056.00    1.34608   1.56616    0.004
 6057.00    1.38416   1.56566    0.004
 6058.00    1.41605   1.56536    0.004
 6059.00    1.43992   1.56512    0.004
 6060.00    1.45615   1.56468    0.004
 6061.00    1.48947   1.56397    0.004
 6062.00    1.53719   1.56319    0.004
 6063.00    1.50876   1.56246    0.004
 6064.00    1.42390   1.56181    0.004
 6065.00    1.35213   1.56147    0.004
 6066.00    1.28888   1.56201    0.004
 6067.00    1.29700   1.56343    0.004
 6068.00    1.34578   1.56502    0.004
 6069.00    1.37058   1.56650    0.004
 6070.00    1.38350   1.56782    0.004
 6071.00    1.39226   1.56889    0.004
 6072.00    1.39924   1.56956    0.004
 6073.00    1.38260   1.56956    0.004
 6074.00    1.35727   1.56905    0.004
 6075.00    1.37748   1.56817    0.004
 6076.00    1.41185   1.56690    0.004
 6077.00    1.41876   1.56536    0.004
 6078.00    1.41855   1.56376    0.004
 6079.00    1.35401   1.56242    0.004
 6080.00    1.27586   1.56142    0.004
 6081.00    1.32872   1.56050    0.004
 6082.00    1.40350   1.55975    0.004
 6083.00    1.40840   1.55952    0.004
 6084.00    1.40449   1.55966    0.004
 6085.00    1.41473   1.55983    0.004
 6086.00    1.42621   1.56004    0.004
 6087.00    1.44783   1.56023    0.004
 6088.00    1.46998   1.56034    0.004
 6089.00    1.43490   1.56024    0.004
 6090.00    1.39870   1.56005    0.004
 6091.00    1.35665   1.56002    0.004
 6092.00    1.31831   1.56023    0.004
 6093.00    1.35889   1.56059    0.004
 6094.00    1.40016   1.56120    0.004
 6095.00    1.44978   1.56189    0.004
 6096.00    1.48817   1.56208    0.004
 6097.00    1.43334   1.56170    0.004
 6098.00    1.38304   1.56102    0.004
 6099.00    1.36087   1.56015    0.004
 6100.00    1.34359   1.55897    0.004
 6101.00    1.35011   1.55731    0.004
 6102.00    1.35133   1.55549    0.004
 6103.00    1.33152   1.55454    0.004
 6104.00    1.30553   1.55501    0.004
 6105.00    1.25922   1.55608    0.004
 6106.00    1.22956   1.55705    0.004
 6107.00    1.24624   1.55788    0.004
 6108.00    1.28664   1.55884    0.004
 6109.00    1.38354   1.56006    0.004
 6110.00    1.48308   1.56099    0.004
 6111.00    1.58804   1.56131    0.004
 6112.00    1.61378   1.56140    0.004
 6113.00    1.49771   1.56166    0.004
 6114.00    1.39780   1.56173    0.004
 6115.00    1.32316   1.56124    0.004
 6116.00    1.28354   1.56007    0.004
 6117.00    1.29207   1.55868    0.004
 6118.00    1.29619   1.55736    0.004
 6119.00    1.29498   1.55581    0.004
 6120.00    1.27906   1.55405    0.004
 6121.00    1.24747   1.55241    0.004
 6122.00    1.25846   1.55138    0.004
 6123.00    1.30951   1.55145    0.004
 6124.00    1.32774   1.55227    0.004
 6125.00    1.31875   1.55305    0.004
 6126.00    1.29101   1.55378    0.004
 6127.00    1.24958   1.55463    0.004
 6128.00    1.22270   1.55552    0.004
 6129.00    1.20515   1.55635    0.004
 6130.00    1.21673   1.55674    0.004
 6131.00    1.24464   1.55629    0.004
 6132.00    1.28935   1.55489    0.004
 6133.00    1.34225   1.55289    0.004
 6134.00    1.37443   1.55054    0.004
 6135.00    1.39789   1.54782    0.004
 6136.00    1.38984   1.54499    0.004
 6137.00    1.37041   1.54310    0.004
 6138.00    1.38350   1.54328    0.004
 6139.00    1.40650   1.54510    0.004
 6140.00    1.37185   1.54707    0.004
 6141.00    1.32256   1.54862    0.004
 6142.00    1.38799   1.55045    0.004
 6143.00    1.47712   1.55283    0.004
 6144.00    1.52612   1.55491    0.004
 6145.00    1.56861   1.55593    0.004
 6146.00    1.53724   1.55603    0.004
 6147.00    1.49688   1.55570    0.004
 6148.00    1.56500   1.55504    0.004
 6149.00    1.64218   1.55406    0.004
 6150.00    1.57308   1.55309    0.004
 6151.00    1.49697   1.55245    0.004
 6152.00    1.38280   1.55207    0.004
 6153.00    1.26906   1.55167    0.004
 6154.00    1.21199   1.55089    0.004
 6155.00    1.15564   1.54967    0.004
 6156.00    1.11368   1.54803    0.004
 6157.00    1.07315   1.54572    0.004
 6158.00    1.04924   1.54291    0.004
 6159.00    1.02794   1.53982    0.004
 6160.00    1.02751   1.53651    0.004
 6161.00    1.04755   1.53314    0.004
 6162.00    1.19083   1.53058    0.004
 6163.00    1.30907   1.52961    0.004
 6164.00    1.30837   1.52971    0.004
 6165.00    1.29470   1.53027    0.004
 6166.00    1.23076   1.53098    0.004
 6167.00    1.20857   1.53187    0.004
 6168.00    1.32113   1.53247    0.004
 6169.00    1.40777   1.53253    0.004
 6170.00    1.42359   1.53307    0.004
 6171.00    1.44175   1.53453    0.004
 6172.00    1.46536   1.53618    0.004
 6173.00    1.45026   1.53749    0.004
 6174.00    1.35681   1.53875    0.004
 6175.00    1.30288   1.54014    0.004
 6176.00    1.31861   1.54142    0.004
 6177.00    1.32542   1.54252    0.004
 6178.00    1.31847   1.54353    0.004
 6179.00    1.30882   1.54437    0.004
 6180.00    1.29550   1.54498    0.004
 6181.00    1.29240   1.54541    0.004
 6182.00    1.30149   1.54563    0.004
 6183.00    1.25414   1.54536    0.004
 6184.00    1.14743   1.54458    0.004
 6185.00    1.08704   1.54331    0.004
 6186.00    1.06960   1.54141    0.004
 6187.00    1.06458   1.53937    0.004
 6188.00    1.06972   1.53762    0.004
 6189.00    1.08120   1.53626    0.004
 6190.00    1.09724   1.53511    0.004
 6191.00    1.12956   1.53434    0.004
 6192.00    1.17217   1.53479    0.004
 6193.00    1.20516   1.53630    0.004
 6194.00    1.23284   1.53781    0.004
 6195.00    1.25583   1.53893    0.004
 6196.00    1.27659   1.53986   -2.000
 6197.00    1.32738   1.54067   -2.000
 6198.00    1.39062   1.54097   -2.000
 6199.00    1.12948   1.54078   -2.000
 6200.00    0.75336   1.54076   -2.000
 6201.00    0.74234   1.54137   -2.000
 6202.00    0.84058   1.54231   -2.000
 6203.00    1.04420   1.54315   -2.000
 6204.00    1.27398   1.54385   -2.000
 6205.00    1.43163   1.54435   -2.000
 6206.00    1.57475   1.54468   -2.000
 6207.00    1.51870   1.54459   -2.000
 6208.00    1.43124   1.54383    0.004
 6209.00    1.40684   1.54239    0.004
 6210.00    1.38982   1.54048    0.004
 6211.00    1.35175   1.53828    0.004
 6212.00    1.31201   1.53588    0.004
 6213.00    1.27979   1.53326    0.004
 6214.00    1.24790   1.53102    0.004
 6215.00    1.21726   1.52948    0.004
 6216.00    1.18702   1.52867    0.004
 6217.00    1.17534   1.52856    0.004
 6218.00    1.16664   1.52866    0.004
 6219.00    1.21255   1.52864    0.004
 6220.00    1.25296   1.52872    0.004
 6221.00    1.23287   1.52919    0.004
 6222.00    1.21286   1.52981    0.004
 6223.00    1.19351   1.53009    0.004
 6224.00    1.19712   1.52985    0.004
 6225.00    1.33512   1.52935    0.004
 6226.00    1.44170   1.52866    0.004
 6227.00    1.40256   1.52770    0.004
 6228.00    1.36118   1.52647    0.004
 6229.00    1.31131   1.52505    0.004
 6230.00    1.27494   1.52366    0.004
 6231.00    1.28128   1.52303    0.004
 6232.00    1.28139   1.52343    0.004
 6233.00    1.26474   1.52425    0.004
 6234.00    1.26672   1.52524    0.004
 6235.00    1.31162   1.52606    0.004
 6236.00    1.33652   1.52646    0.004
 6237.00    1.32161   1.52628    0.004
 6238.00    1.28655   1.52539    0.004
 6239.00    1.21649   1.52418    0.004
 6240.00    1.21615   1.52296    0.004
 6241.00    1.32173   1.52207    0.004
 6242.00    1.41632   1.52138    0.004
 6243.00    1.49625   1.52082    0.004
 6244.00    1.52160   1.52104    0.004
 6245.00    1.48277   1.52172    0.004
 6246.00    1.44642   1.52237    0.004
 6247.00    1.41262   1.52312    0.004
 6248.00    1.41632   1.52386    0.004
 6249.00    1.45431   1.52429    0.004
 6250.00    1.41047   1.52412    0.004
 6251.00    1.30065   1.52314    0.004
 6252.00    1.28005   1.52152    0.004
 6253.00    1.32272   1.51998    0.004
 6254.00    1.37306   1.51883    0.004
 6255.00    1.42817   1.51791    0.004
 6256.00    1.42312   1.51716    0.004
 6257.00    1.38537   1.51683    0.004
 6258.00    1.43351   1.51732    0.004
 6259.00    1.52225   1.51879    0.004
 6260.00    1.55277   1.52075    0.004
 6261.00    1.55957   1.52253    0.004
 6262.00    1.45636   1.52436    0.005
 6263.00    1.31486   1.52627    0.005
 6264.00    1.36208   1.52753    0.005
 6265.00    1.46466   1.52808    0.005
 6266.00    1.46531   1.52859    0.004
 6267.00    1.44120   1.52924    0.004
 6268.00    1.39072   1.52964    0.004
 6269.00    1.33506   1.52972    0.004
 6270.00    1.29363   1.52995    0.004
 6271.00    1.25439   1.53056    0.004
 6272.00    1.28424   1.53115    0.004
 6273.00    1.32189   1.53137    0.004
 6274.00    1.38511   1.53133    0.004
 6275.00    1.45026   1.53114    0.004
 6276.00    1.43783   1.53085    0.004
 6277.00    1.42228   1.53041    0.004
 6278.00    1.37316   1.52986    0.004
 6279.00    1.32327   1.52934    0.004
 6280.00    1.25226   1.52901    0.000
 6281.00    1.18709   1.52915    0.000
 6282.00    1.22146   1.52983    0.000
 6283.00    1.25626   1.53091    0.000
 6284.00    1.29545   1.53208    0.000
 6285.00    1.32305   1.53306    0.000
 6286.00    1.26423   1.53408    0.000
 6287.00    1.20928   1.53508    0.000
 6288.00    1.17631   1.53563    0.000
 6289.00    1.15191   1.53566    0.000
 6290.00    1.16624   1.53516    0.000
 6291.00    1.18209   1.53434    0.000
 6292.00    1.20354   1.53322    0.000
 6293.00    1.23099   1.53192    0.000
 6294.00    1.27705   1.53080    0.000
 6295.00    1.30903   1.52956    0.000
 6296.00    1.30387   1.52795    0.000
 6297.00    1.29306   1.52646    0.000
 6298.00    1.26943   1.52558    0.000
 6299.00    1.25209   1.52525    0.000
 6300.00    1.24706   1.52489    0.000
 6301.00    1.28011   1.52461    0.000
 6302.00    1.37823   1.52498    0.000
 6303.00    1.40596   1.52608    0.000
 6304.00    1.32827   1.52735    0.000
 6305.00    1.24710   1.52841    0.000
 6306.00    1.16136   1.52939    0.000
 6307.00    1.11856   1.53051    0.000
 6308.00    1.12554   1.53124    0.000
 6309.00    1.12818   1.53122    0.000
 6310.00    1.12641   1.53064    0.000
 6311.00    1.14456   1.52975    0.000
 6312.00    1.18067   1.52881    0.000
 6313.00    1.22481   1.52790    0.000
 6314.00    1.27534   1.52671    0.000
 6315.00    1.30266   1.52558    0.000
 6316.00    1.31376   1.52507    0.000
 6317.00    1.32168   1.52496    0.000
 6318.00    1.32766   1.52487    0.000
 6319.00    1.32111   1.52539    0.000
 6320.00    1.30784   1.52671    0.000
 6321.00    1.32087   1.52817    0.004
 6322.00    1.34612   1.52941    0.004
 6323.00    1.34814   1.53069    0.004
 6324.00    1.34086   1.53215    0.004
 6325.00    1.30553   1.53334    0.004
 6326.00    1.26064   1.53399    0.004
 6327.00    1.24449   1.53431    0.004
 6328.00    1.23661   1.53466    0.004
 6329.00    1.23327   1.53482    0.004
 6330.00    1.23101   1.53426    0.004
 6331.00    1.25096   1.53329    0.004
 6332.00    1.27516   1.53238    0.004
 6333.00    1.26905   1.53142    0.004
 6334.00    1.25845   1.53006    0.004
 6335.00    1.23543   1.52841    0.004
 6336.00    1.21106   1.52742    0.004
 6337.00    1.25309   1.52734    0.004
 6338.00    1.29984   1.52747    0.004
 6339.00    1.29243   1.52729    0.004
 6340.00    1.28304   1.52715    0.004
 6341.00    1.20484   1.52681    0.004
 6342.00    1.13105   1.52571    0.004
 6343.00    1.22145   1.52399    0.004
 6344.00    1.30863   1.52233    0.004
 6345.00    1.34444   1.52119    0.004
 6346.00    1.37975   1.52020    0.004
 6347.00    1.40991   1.52006    0.004
 6348.00    1.42957   1.52105    0.004
 6349.00    1.37341   1.52297    0.004
 6350.00    1.32865   1.52461    0.004
 6351.00    1.34698   1.52578    0.004
 6352.00    1.36505   1.52669    0.004
 6353.00    1.38194   1.52680    0.004
 6354.00    1.37824   1.52587    0.004
 6355.00    1.29973   1.52449    0.004
 6356.00    1.23192   1.52313    0.004
 6357.00    1.19672   1.52137    0.004
 6358.00    1.18268   1.51918    0.004
 6359.00    1.22344   1.51742    0.004
 6360.00    1.27904   1.51648    0.004
 6361.00    1.36770   1.51581    0.004
 6362.00    1.42685   1.51544    0.004
 6363.00    1.42900   1.51589    0.004
 6364.00    1.41013   1.51708    0.004
 6365.00    1.35584   1.51841    0.004
 6366.00    1.35548   1.51948    0.004
 6367.00    1.43467   1.52074    0.004
 6368.00    1.50974   1.52195    0.004
 6369.00    1.57945   1.52279    0.004
 6370.00    1.60453   1.52295    0.004
 6371.00    1.57860   1.52346    0.004
 6372.00    1.53976   1.52473    0.004
 6373.00    1.48790   1.52624    0.004
 6374.00    1.41197   1.52737    0.004
 6375.00    1.31465   1.52806    0.004
 6376.00    1.22696   1.52873    0.004
 6377.00    1.14682   1.52911    0.004
 6378.00    1.11064   1.52891    0.004
 6379.00    1.10473   1.52837    0.004
 6380.00    1.16765   1.52802    0.004
 6381.00    1.27214   1.52800    0.004
 6382.00    1.32019   1.52818    0.004
 6383.00    1.33848   1.52842    0.004
 6384.00    1.32086   1.52865    0.004
 6385.00    1.28682   1.52901    0.004
 6386.00    1.25684   1.52932    0.004
 6387.00    1.22845   1.52933    0.004
 6388.00    1.18593   1.52887    0.004
 6389.00    1.13868   1.52800    0.004
 6390.00    1.18759   1.52718    0.004
 6391.00    1.26358   1.52638    0.004
 6392.00    1.33401   1.52528    0.004
 6393.00    1.40315   1.52415    0.004
 6394.00    1.41248   1.52369    0.004
 6395.00    1.41068   1.52372    0.004
 6396.00    1.37618   1.52356    0.004
 6397.00    1.33699   1.52336    0.004
 6398.00    1.35989   1.52323    0.004
 6399.00    1.38926   1.52275    0.004
 6400.00    1.46005   1.52219    0.004
 6401.00    1.53362   1.52248    0.004
 6402.00    1.56121   1.52327    0.004
 6403.00    1.58730   1.52365    0.004
 6404.00    1.51353   1.52381    0.004
 6405.00    1.43978   1.52401    0.004
 6406.00    1.36744   1.52401    0.004
 6407.00    1.30262   1.52350    0.004
 6408.00    1.35072   1.52299    0.004
 6409.00    1.39472   1.52306    0.004
 6410.00    1.39913   1.52323    0.004
 6411.00    1.38959   1.52299    0.004
 6412.00    1.28263   1.52307    0.004
 6413.00    1.19203   1.52374    0.004
 6414.00    1.18956   1.52438    0.004
 6415.00    1.19756   1.52458    0.004
 6416.00    1.25079   1.52446    0.004
 6417.00    1.29007   1.52436    0.004
 6418.00    1.27967   1.52443    0.004
 6419.00    1.25823   1.52442    0.004
 6420.00    1.20379   1.52425    0.004
 6421.00    1.16717   1.52461    0.004
 6422.00    1.17590   1.52595    0.004
 6423.00    1.19770   1.52754    0.004
 6424.00    1.24813   1.52863    0.004
 6425.00    1.26635   1.52934    0.004
 6426.00    1.22338   1.52971    0.004
 6427.00    1.18921   1.52962    0.004
 6428.00    1.16967   1.52901    0.004
 6429.00    1.18945   1.52788    0.004
 6430.00    1.26640   1.52644    0.004
 6431.00    1.29680   1.52538    0.004
 6432.00    1.26768   1.52528    0.004
 6433.00    1.24266   1.52544    0.004
 6434.00    1.22229   1.52536    0.004
 6435.00    1.23880   1.52537    0.004
 6436.00    1.29198   1.52580    0.004
 6437.00    1.28522   1.52617    0.004
 6438.00    1.22594   1.52601    0.004
 6439.00    1.15262   1.52614    0.004
 6440.00    1.06848   1.52736    0.004
 6441.00    1.03391   1.52894    0.004
 6442.00    1.03299   1.53001    0.004
 6443.00    1.01684   1.53068    0.004
 6444.00    0.99162   1.53087    0.004
 6445.00    1.03286   1.53019    0.004
 6446.00    1.10859   1.52874    0.004
 6447.00    1.14320   1.52697    0.004
 6448.00    1.15933   1.52470    0.004
 6449.00    1.08876   1.52203    0.004
 6450.00    0.98467   1.52002    0.004
 6451.00    1.00921   1.51943    0.004
 6452.00    1.07607   1.51956    0.004
 6453.00    1.19721   1.51982    0.004
 6454.00    1.33332   1.52021    0.004
 6455.00    1.41337   1.52070    0.004
 6456.00    1.48070   1.52130    0.004
 6457.00    1.43339   1.52191    0.004
 6458.00    1.36530   1.52205    0.004
 6459.00    1.29955   1.52183    0.004
 6460.00    1.23412   1.52151    0.004
 6461.00    1.27044   1.52088    0.004
 6462.00    1.31693   1.51991    0.004
 6463.00    1.30067   1.51967    0.004
 6464.00    1.28045   1.52053    0.004
 6465.00    1.23606   1.52139    0.004
 6466.00    1.19130   1.52201    0.004
 6467.00    1.24037   1.52263    0.004
 6468.00    1.28733   1.52313    0.004
 6469.00    1.27566   1.52317    0.004
 6470.00    1.26513   1.52261    0.004
 6471.00    1.27058   1.52169    0.004
 6472.00    1.27522   1.52100    0.004
 6473.00    1.27236   1.52072    0.004
 6474.00    1.26796   1.52018    0.004
 6475.00    1.25320   1.51943    0.004
 6476.00    1.23557   1.51910    0.004
 6477.00    1.20289   1.51884    0.004
 6478.00    1.18530   1.51796    0.004
 6479.00    1.23139   1.51686    0.004
 6480.00    1.25809   1.51586    0.004
 6481.00    1.21721   1.51466    0.004
 6482.00    1.18472   1.51352    0.004
 6483.00    1.17684   1.51306    0.004
 6484.00    1.21221   1.51329    0.004
 6485.00    1.35576   1.51347    0.004
 6486.00    1.44741   1.51328    0.004
 6487.00    1.42724   1.51284    0.004
 6488.00    1.37729   1.51190    0.004
 6489.00    1.27164   1.50981    0.004
 6490.00    1.21026   1.50641    0.004
 6491.00    1.22122   1.50247    0.004
 6492.00    1.21532   1.49846    0.004
 6493.00    1.18526   1.49424    0.004
 6494.00    1.17402   1.49016    0.004
 6495.00    1.18652   1.48755    0.004
 6496.00    1.20199   1.48685    0.004
 6497.00    1.22077   1.48764    0.004
 6498.00    1.24514   1.48964    0.004
 6499.00    1.27499   1.49252    0.004
 6500.00    1.27910   1.49623    0.004
 6501.00    1.26098   1.50016    0.004
 6502.00    1.24462   1.50366    0.004
 6503.00    1.22959   1.50652    0.004
 6504.00    1.26271   1.50872    0.004
 6505.00    1.32804   1.51040    0.004
 6506.00    1.35118   1.51157    0.004
 6507.00    1.34960   1.51213    0.004
 6508.00    1.32225   1.51218    0.004
 6509.00    1.28174   1.51208    0.004
 6510.00    1.26298   1.51182    0.004
 6511.00    1.25385   1.51116    0.004
 6512.00    1.25665   1.51004    0.004
 6513.00    1.26399   1.50877    0.004
 6514.00    1.30357   1.50734    0.004
 6515.00    1.35355   1.50568    0.004
 6516.00    1.33437   1.50427    0.004
 6517.00    1.29651   1.50333    0.004
 6518.00    1.21739   1.50263    0.004
 6519.00    1.12914   1.50223    0.004
 6520.00    1.10782   1.50232    0.004
 6521.00    1.09832   1.50250    0.004
 6522.00    1.11260   1.50226    0.004
 6523.00    1.13009   1.50167    0.004
 6524.00    1.17384   1.50107    0.004
 6525.00    1.22010   1.50038    0.004
 6526.00    1.19789   1.49933    0.004
 6527.00    1.17162   1.49818    0.004
 6528.00    1.27627   1.49738    0.000
 6529.00    1.38380   1.49683    0.000
 6530.00    1.43155   1.49625    0.000
 6531.00    1.47744   1.49553    0.000
 6532.00    1.47637   1.49480    0.000
 6533.00    1.47559   1.49412    0.000
 6534.00    1.47882   1.49359    0.000
 6535.00    1.47738   1.49305    0.000
 6536.00    1.43444   1.49222    0.000
 6537.00    1.38367   1.49090    0.000
 6538.00    1.28159   1.48927    0.000
 6539.00    1.20577   1.48734    0.000
 6540.00    1.26411   1.48470    0.000
 6541.00    1.31161   1.48091    0.000
 6542.00    1.31437   1.47625    0.000
 6543.00    1.33759   1.47132    0.000
 6544.00    1.43069   1.46606    0.000
 6545.00    1.50354   1.46004    0.000
 6546.00    1.51808   1.45346    0.000
 6547.00    1.50058   1.44688    0.000
 6548.00    1.40431   1.44005    0.000
 6549.00    1.29895   1.43193    0.000
 6550.00    1.17429   1.42199    0.000
 6551.00    1.13392   1.41027    0.000
 6552.00    1.24883   1.39645    0.000
 6553.00    1.37921   1.37959    0.000
 6554.00    1.53448   1.35892    0.000
 6555.00    1.66613   1.33448    0.000
 6556.00    1.76442   1.30632    0.000
 6557.00    1.86604   1.27394    0.000
 6558.00    1.97177   1.23769    0.000
 6559.00    2.11155   1.20147    0.000
 6560.00    2.28864   1.16966    0.000
 6561.00    2.31337   1.14368    0.000
 6562.00    2.19090   1.12549    0.000
 6563.00    1.95392   1.12137    0.000
 6564.00    1.61939   1.13445    0.000
 6565.00    1.36230   1.15926    0.000
 6566.00    1.16332   1.18991    0.000
 6567.00    1.09214   1.22484    0.000
 6568.00    1.10519   1.26151    0.000
 6569.00    1.13169   1.29555    0.000
 6570.00    1.16596   1.32470    0.000
 6571.00    1.20810   1.34913    0.000
 6572.00    1.25422   1.36912    0.000
 6573.00    1.26173   1.38523    0.000
 6574.00    1.25246   1.39859    0.000
 6575.00    1.30089   1.41011    0.000
 6576.00    1.37087   1.41998    0.000
 6577.00    1.52289   1.42832    0.000
 6578.00    1.70088   1.43559    0.000
 6579.00    1.72176   1.44222    0.000
 6580.00    1.70109   1.44818    0.000
 6581.00    1.63706   1.45346    0.000
 6582.00    1.56366   1.45810    0.000
 6583.00    1.53901   1.46279    0.000
 6584.00    1.52273   1.46718    0.000
 6585.00    1.47362   1.47129    0.000
 6586.00    1.42024   1.47479    0.000
 6587.00    1.32258   1.47789    0.000
 6588.00    1.22089   1.48010    0.000
 6589.00    1.23969   1.48144    0.000
 6590.00    1.26515   1.48242    0.000
 6591.00    1.35328   1.48309    0.000
 6592.00    1.44085   1.48303    0.000
 6593.00    1.34726   1.48292    0.000
 6594.00    1.25384   1.48376    0.000
 6595.00    1.16443   1.48536    0.000
 6596.00    1.07900   1.48694    0.000
 6597.00    1.04403   1.48845    0.000
 6598.00    1.00685   1.49012    0.000
 6599.00    0.95074   1.49196    0.000
 6600.00    0.91849   1.49366    0.000
 6601.00    1.03805   1.49486    0.000
 6602.00    1.16028   1.49545    0.000
 6603.00    1.29579   1.49574    0.000
 6604.00    1.40161   1.49571    0.000
 6605.00    1.38756   1.49534    0.000
 6606.00    1.36090   1.49497    0.000
 6607.00    1.29197   1.49490    0.000
 6608.00    1.25627   1.49503    0.000
 6609.00    1.31452   1.49519    0.004
 6610.00    1.35750   1.49603    0.004
 6611.00    1.36355   1.49761    0.004
 6612.00    1.38289   1.49904    0.004
 6613.00    1.42995   1.49998    0.004
 6614.00    1.44571   1.50109    0.004
 6615.00    1.40467   1.50258    0.004
 6616.00    1.36748   1.50359    0.004
 6617.00    1.33637   1.50403    0.004
 6618.00    1.30594   1.50432    0.004
 6619.00    1.27646   1.50449    0.004
 6620.00    1.25526   1.50412    0.004
 6621.00    1.24422   1.50342    0.004
 6622.00    1.26090   1.50264    0.004
 6623.00    1.30752   1.50168    0.004
 6624.00    1.31734   1.50051    0.004
 6625.00    1.29210   1.49955    0.004
 6626.00    1.28690   1.49900    0.004
 6627.00    1.29851   1.49857    0.004
 6628.00    1.30390   1.49800    0.004
 6629.00    1.30469   1.49730    0.004
 6630.00    1.27168   1.49674    0.004
 6631.00    1.21672   1.49641    0.004
 6632.00    1.16914   1.49608    0.004
 6633.00    1.12576   1.49564    0.004
 6634.00    1.20044   1.49567    0.004
 6635.00    1.33353   1.49634    0.004
 6636.00    1.34100   1.49709    0.004
 6637.00    1.29473   1.49776    0.004
 6638.00    1.26227   1.49842    0.004
 6639.00    1.23488   1.49873    0.004
 6640.00    1.28375   1.49877    0.004
 6641.00    1.35629   1.49904    0.004
 6642.00    1.26459   1.49904    0.004
 6643.00    1.13037   1.49849    0.004
 6644.00    1.13869   1.49833    0.004
 6645.00    1.17709   1.49886    0.004
 6646.00    1.21404   1.49924    0.004
 6647.00    1.25074   1.49934    0.004
 6648.00    1.32915   1.49961    0.004
 6649.00    1.41280   1.50001    0.004
 6650.00    1.41598   1.50028    0.004
 6651.00    1.41216   1.50034    0.004
 6652.00    1.31748   1.50017    0.004
 6653.00    1.21815   1.50000    0.004
 6654.00    1.19683   1.49987    0.004
 6655.00    1.17701   1.49965    0.004
 6656.00    1.16500   1.49914    0.004
 6657.00    1.15402   1.49856    0.004
 6658.00    1.16468   1.49780    0.004
 6659.00    1.17624   1.49667    0.004
 6660.00    1.19866   1.49544    0.004
 6661.00    1.21713   1.49435    0.004
 6662.00    1.20300   1.49312    0.004
 6663.00    1.20468   1.49189    0.004
 6664.00    1.30404   1.49148    0.004
 6665.00    1.36458   1.49172    0.004
 6666.00    1.23654   1.49197    0.004
 6667.00    1.15894   1.49237    0.004
 6668.00    1.28050   1.49318    0.004
 6669.00    1.37242   1.49375    0.004
 6670.00    1.36700   1.49354    0.004
 6671.00    1.36691   1.49255    0.004
 6672.00    1.38159   1.49017    0.004
 6673.00    1.39497   1.48564    0.004
 6674.00    1.40524   1.48005    0.004
 6675.00    1.37943   1.47464    0.004
 6676.00    1.27954   1.46926    0.004
 6677.00    1.21028   1.46348    0.004
 6678.00    1.19575   1.46005    0.004
 6679.00    1.21684   1.46032    0.004
 6680.00    1.29358   1.46347    0.004
 6681.00    1.37133   1.46727    0.004
 6682.00    1.45046   1.47153    0.004
 6683.00    1.47094   1.47681    0.004
 6684.00    1.42059   1.48211    0.004
 6685.00    1.41104   1.48623    0.004
 6686.00    1.44493   1.48910    0.004
 6687.00    1.40847   1.49142    0.004
 6688.00    1.30594   1.49318    0.004
 6689.00    1.26550   1.49442    0.004
 6690.00    1.27648   1.49520    0.004
 6691.00    1.33467   1.49556    0.004
 6692.00    1.42727   1.49548    0.004
 6693.00    1.41393   1.49523    0.004
 6694.00    1.33281   1.49496    0.004
 6695.00    1.31682   1.49464    0.004
 6696.00    1.33728   1.49421    0.000
 6697.00    1.34991   1.49400    0.000
 6698.00    1.35873   1.49417    0.000
 6699.00    1.37420   1.49443    0.000
 6700.00    1.39246   1.49459    0.000
 6701.00    1.42120   1.49470    0.000
 6702.00    1.45370   1.49491    0.000
 6703.00    1.43009   1.49498    0.000
 6704.00    1.38938   1.49482    0.000
 6705.00    1.39709   1.49469    0.000
 6706.00    1.41705   1.49465    0.000
 6707.00    1.36820   1.49451    0.000
 6708.00    1.30518   1.49429    0.000
 6709.00    1.31498   1.49387    0.000
 6710.00    1.33657   1.49318    0.000
 6711.00    1.44316   1.49239    0.000
 6712.00    1.56004   1.49136    0.000
 6713.00    1.51678   1.48982    0.000
 6714.00    1.46024   1.48816    0.000
 6715.00    1.52525   1.48692    0.000
 6716.00    1.59602   1.48581    0.000
 6717.00    1.53093   1.48465    0.000
 6718.00    1.46307   1.48424    0.000
 6719.00    1.34683   1.48492    0.000
 6720.00    1.23890   1.48565    0.000
 6721.00    1.29278   1.48613    0.000
 6722.00    1.34632   1.48700    0.000
 6723.00    1.39594   1.48833    0.000
 6724.00    1.43861   1.48929    0.000
 6725.00    1.42591   1.48981    0.000
 6726.00    1.42534   1.49042    0.000
 6727.00    1.49755   1.49115    0.000
 6728.00    1.55221   1.49171    0.000
 6729.00    1.52375   1.49202    0.000
 6730.00    1.48720   1.49227    0.000
 6731.00    1.41935   1.49235    0.000
 6732.00    1.36358   1.49228    0.000
 6733.00    1.34674   1.49207    0.000
 6734.00    1.34154   1.49161    0.000
 6735.00    1.36810   1.49099    0.000
 6736.00    1.36015   1.49058    0.000
 6737.00    1.27158   1.49013    0.000
 6738.00    1.21251   1.48930    0.000
 6739.00    1.21300   1.48855    0.000
 6740.00    1.22695   1.48829    0.000
 6741.00    1.26455   1.48811    0.000
 6742.00    1.29299   1.48759    0.000
 6743.00    1.30733   1.48715    0.000
 6744.00    1.26920   1.48725    0.000
 6745.00    1.16010   1.48732    0.000
 6746.00    1.07761   1.48698    0.000
 6747.00    1.02677   1.48683    0.000
 6748.00    1.05952   1.48686    0.000
 6749.00    1.18000   1.48667    0.000
 6750.00    1.32713   1.48662    0.000
 6751.00    1.49894   1.48702    0.000
 6752.00    1.53477   1.48736    0.000
 6753.00    1.45961   1.48777    0.004
 6754.00    1.37023   1.48884    0.004
 6755.00    1.27063   1.49003    0.004
 6756.00    1.21618   1.49095    0.004
 6757.00    1.19020   1.49192    0.004
 6758.00    1.33910   1.49291    0.005
 6759.00    1.58438   1.49353    0.005
 6760.00    1.48418   1.49376    0.005
 6761.00    1.21842   1.49373    0.005
 6762.00    1.28134   1.49337    0.005
 6763.00    1.48020   1.49273    0.005
 6764.00    1.54778   1.49196    0.005
 6765.00    1.56893   1.49120    0.005
 6766.00    1.43807   1.49036    0.005
 6767.00    1.26185   1.48946    0.004
 6768.00    1.32786   1.48904    0.004
 6769.00    1.45387   1.48924    0.004
 6770.00    1.49546   1.48952    0.004
 6771.00    1.52011   1.48976    0.004
 6772.00    1.38621   1.49059    0.004
 6773.00    1.22741   1.49186    0.004
 6774.00    1.32476   1.49284    0.004
 6775.00    1.45199   1.49351    0.004
 6776.00    1.40602   1.49405    0.004
 6777.00    1.34640   1.49424    0.004
 6778.00    1.20882   1.49391    0.004
 6779.00    1.06784   1.49306    0.004
 6780.00    1.12859   1.49180    0.004
 6781.00    1.19546   1.49036    0.004
 6782.00    1.44949   1.48896    0.004
 6783.00    1.68359   1.48762    0.004
 6784.00    1.55721   1.48661    0.004
 6785.00    1.44184   1.48621    0.004
 6786.00    1.44713   1.48627    0.004
 6787.00    1.44531   1.48661    0.004
 6788.00    1.38887   1.48719    0.004
 6789.00    1.32529   1.48773    0.004
 6790.00    1.22011   1.48807    0.004
 6791.00    1.15003   1.48844    0.004
 6792.00    1.24231   1.48876    0.004
 6793.00    1.34174   1.48883    0.004
 6794.00    1.46822   1.48896    0.004
 6795.00    1.55234   1.48938    0.004
 6796.00    1.50271   1.48987    0.004
 6797.00    1.45320   1.49035    0.004
 6798.00    1.40399   1.49089    0.004
 6799.00    1.41223   1.49146    0.004
 6800.00    1.55246   1.49200    0.004
 6801.00    1.59836   1.49247    0.004
 6802.00    1.45669   1.49270    0.004
 6803.00    1.35072   1.49272    0.004
 6804.00    1.30661   1.49277    0.004
 6805.00    1.26523   1.49282    0.004
 6806.00    1.22799   1.49251    0.004
 6807.00    1.24500   1.49216    0.004
 6808.00    1.33433   1.49216    0.004
 6809.00    1.40652   1.49197    0.004
 6810.00    1.45862   1.49148    0.004
 6811.00    1.49485   1.49118    0.004
 6812.00    1.51467   1.49106    0.004
 6813.00    1.42197   1.49088    0.004
 6814.00    1.22655   1.49060    0.004
 6815.00    1.17306   1.49044    0.004
 6816.00    1.23376   1.49056    0.004
 6817.00    1.29514   1.49088    0.004
 6818.00    1.35698   1.49109    0.004
 6819.00    1.35549   1.49132    0.004
 6820.00    1.31467   1.49164    0.004
 6821.00    1.27247   1.49208    0.004
 6822.00    1.22954   1.49254    0.004
 6823.00    1.27164   1.49267    0.004
 6824.00    1.35384   1.49256    0.004
 6825.00    1.40913   1.49245    0.004
 6826.00    1.45346   1.49224    0.004
 6827.00    1.44735   1.49175    0.004
 6828.00    1.42371   1.49128    0.004
 6829.00    1.38265   1.49108    0.004
 6830.00    1.33648   1.49114    0.004
 6831.00    1.31994   1.49133    0.004
 6832.00    1.31057   1.49142    0.004
 6833.00    1.38991   1.49144    0.004
 6834.00    1.48662   1.49149    0.004
 6835.00    1.55710   1.49129    0.004
 6836.00    1.62358   1.49066    0.004
 6837.00    1.50869   1.48961    0.004
 6838.00    1.37344   1.48837    0.004
 6839.00    1.39798   1.48721    0.004
 6840.00    1.43448   1.48627    0.004
 6841.00    1.40384   1.48541    0.004
 6842.00    1.37053   1.48504    0.004
 6843.00    1.47984   1.48539    0.004
 6844.00    1.58634   1.48627    0.004
 6845.00    1.54169   1.48718    0.004
 6846.00    1.48866   1.48811    0.004
 6847.00    1.29420   1.48912    0.004
 6848.00    1.11942   1.48989    0.004
 6849.00    1.15062   1.49030    0.004
 6850.00    1.19077   1.49041    0.004
 6851.00    1.29745   1.49008    0.004
 6852.00    1.37730   1.48953    0.004
 6853.00    1.30510   1.48904    0.004
 6854.00    1.24826   1.48820    0.004
 6855.00    1.26072   1.48720    0.004
 6856.00    1.27703   1.48670    0.004
 6857.00    1.30752   1.48635    0.004
 6858.00    1.31540   1.48592    0.004
 6859.00    1.25324   1.48591    0.004
 6860.00    0.97175   1.48618    0.004
 6861.00    0.11324   1.48624    0.004
 6862.00   -0.24075   1.48649    0.000
 6863.00    0.54535   1.48711    0.004
 6864.00    1.14287   1.48752    0.004
 6865.00    1.37127   1.48751    0.004
 6866.00    1.51711   1.48746    0.004
 6867.00    1.52208   1.48745    0.004
 6868.00    1.44898   1.48714    0.004
 6869.00    1.25921   1.48681    0.004
 6870.00    1.16917   1.48687    0.004
 6871.00    1.21016   1.48697    0.004
 6872.00    1.29038   1.48699    0.004
 6873.00    1.41598   1.48743    0.004
 6874.00    1.42691   1.48822    0.004
 6875.00    1.32082   1.48886    0.004
 6876.00    1.22370   1.48920    0.004
 6877.00    1.13466   1.48953    0.004
 6878.00    1.15699   1.48964    0.004
 6879.00    1.26766   1.48925    0.004
 6880.00    1.39272   1.48867    0.004
 6881.00    1.52783   1.48797    0.004
 6882.00    1.51920   1.48691    0.004
 6883.00    1.42261   1.48610    0.004
 6884.00    1.44717   1.48573    0.004
 6885.00    1.53647   1.48534    0.004
 6886.00    1.51599   1.48495    0.004
 6887.00    1.44459   1.48501    0.004
 6888.00    1.40232   1.48525    0.004
 6889.00    1.37169   1.48540    0.004
 6890.00    1.40014   1.48582    0.004
 6891.00    1.44874   1.48642    0.004
 6892.00    1.45715   1.48685    0.004
 6893.00    1.45405   1.48750    0.004
 6894.00    1.45214   1.48841    0.004
 6895.00    1.45053   1.48909    0.004
 6896.00    1.44436   1.48985    0.004
 6897.00    1.43733   1.49085    0.004
 6898.00    1.52973   1.49173    0.004
 6899.00    1.63682   1.49247    0.004
 6900.00    1.60299   1.49315    0.004
 6901.00    1.55396   1.49383    0.004
 6902.00    1.48324   1.49450    0.004
 6903.00    1.41098   1.49505    0.004
 6904.00    1.38929   1.49547    0.004
 6905.00    1.36941   1.49570    0.004
 6906.00    1.35876   1.49593    0.004
 6907.00    1.34997   1.49610    0.004
 6908.00    1.40466   1.49584    0.004
 6909.00    1.45492   1.49535    0.004
 6910.00    1.43506   1.49475    0.004
 6911.00    1.41229   1.49397    0.004
 6912.00    1.36027   1.49312    0.004
 6913.00    1.32963   1.49232    0.004
 6914.00    1.45256   1.49167    0.004
 6915.00    1.55917   1.49145    0.004
 6916.00    1.57577   1.49155    0.004
 6917.00    1.56402   1.49184    0.004
 6918.00    1.42724   1.49244    0.004
 6919.00    1.31109   1.49297    0.004
 6920.00    1.26966   1.49336    0.004
 6921.00    1.25247   1.49365    0.004
 6922.00    1.30896   1.49356    0.004
 6923.00    1.32931   1.49318    0.004
 6924.00    1.25627   1.49286    0.004
 6925.00    1.22816   1.49252    0.004
 6926.00    1.29995   1.49226    0.004
 6927.00    1.34173   1.49247    0.004
 6928.00    1.32567   1.49275    0.004
 6929.00    1.27984   1.49278    0.004
 6930.00    1.18393   1.49300    0.004
 6931.00    1.15308   1.49350    0.004
 6932.00    1.21803   1.49367    0.004
 6933.00    1.29822   1.49354    0.004
 6934.00    1.39814   1.49395    0.004
 6935.00    1.44424   1.49445    0.004
 6936.00    1.42895   1.49453    0.004
 6937.00    1.42258   1.49464    0.004
 6938.00    1.42519   1.49488    0.004
 6939.00    1.45350   1.49494    0.004
 6940.00    1.50460   1.49476    0.004
 6941.00    1.46204   1.49445    0.004
 6942.00    1.34624   1.49402    0.004
 6943.00    1.29835   1.49367    0.004
 6944.00    1.29715   1.49332    0.004
 6945.00    1.33664   1.49303    0.004
 6946.00    1.40065   1.49316    0.004
 6947.00    1.46210   1.49352    0.004
 6948.00    1.52221   1.49373    0.004
 6949.00    1.50301   1.49398    0.004
 6950.00    1.44763   1.49417    0.004
 6951.00    1.34192   1.49405    0.004
 6952.00    1.21644   1.49401    0.004
 6953.00    1.22114   1.49413    0.004
 6954.00    1.26938   1.49416    0.004
 6955.00    1.41727   1.49427    0.004
 6956.00    1.59315   1.49468    0.004
 6957.00    1.54597   1.49530    0.004
 6958.00    1.44716   1.49581    0.004
 6959.00    1.45364   1.49632    0.004
 6960.00    1.47967   1.49701    0.004
 6961.00    1.51618   1.49762    0.004
 6962.00    1.55420   1.49804    0.004
 6963.00    1.46809   1.49849    0.004
 6964.00    1.36912   1.49898    0.004
 6965.00    1.36965   1.49931    0.004
 6966.00    1.37682   1.49946    0.004
 6967.00    1.33687   1.49957    0.004
 6968.00    1.29540   1.49962    0.004
 6969.00    1.24012   1.49946    0.004
 6970.00    1.18956   1.49890    0.004
 6971.00    1.28349   1.49796    0.004
 6972.00    1.37500   1.49688    0.004
 6973.00    1.43061   1.49560    0.004
 6974.00    1.48076   1.49381    0.004
 6975.00    1.47841   1.49175    0.004
 6976.00    1.47156   1.49020    0.004
 6977.00    1.43342   1.48913    0.004
 6978.00    1.40692   1.48823    0.004
 6979.00    1.44286   1.48827    0.004
 6980.00    1.46079   1.48972    0.004
 6981.00    1.40117   1.49146    0.004
 6982.00    1.36101   1.49319    0.004
 6983.00    1.38997   1.49534    0.004
 6984.00    1.41513   1.49725    0.004
 6985.00    1.42900   1.49829    0.004
 6986.00    1.42822   1.49909    0.004
 6987.00    1.39026   1.49966    0.004
 6988.00    1.37218   1.49971    0.004
 6989.00    1.39756   1.49959    0.004
 6990.00    1.42791   1.49964    0.004
 6991.00    1.46767   1.49984    0.004
 6992.00    1.51827   1.50007    0.004
 6993.00    1.58680   1.50016    0.004
 6994.00    1.58161   1.50011    0.004
 6995.00    1.46943   1.50007    0.004
 6996.00    1.44359   1.49984    0.004
 6997.00    1.52796   1.49924    0.004
 6998.00    1.58303   1.49862    0.004
 6999.00    1.60515   1.49787    0.004
 7000.00    1.56514   1.49693    0.004
 7001.00    1.46350   1.49621    0.004
 7002.00    1.50281   1.49573    0.004
 7003.00    1.66545   1.49520    0.004
 7004.00    1.63857   1.49461    0.004
 7005.00    1.46561   1.49450    0.004
 7006.00    1.35749   1.49471    0.004
 7007.00    1.29329   1.49491    0.004
 7008.00    1.21419   1.49508    0.004
 7009.00    1.12623   1.49543    0.004
 7010.00    1.18054   1.49573    0.004
 7011.00    1.30852   1.49558    0.004
 7012.00    1.34590   1.49518    0.004
 7013.00    1.34259   1.49485    0.004
 7014.00    1.38495   1.49460    0.004
 7015.00    1.44492   1.49428    0.004
 7016.00    1.33543   1.49394    0.004
 7017.00    1.17032   1.49432    0.004
 7018.00    1.20823   1.49539    0.004
 7019.00    1.30200   1.49612    0.004
 7020.00    1.41565   1.49662    0.004
 7021.00    1.53379   1.49734    0.004
 7022.00    1.58815   1.49785    0.004
 7023.00    1.63099   1.49782    0.004
 7024.00    1.59591   1.49770    0.004
 7025.00    1.55004   1.49808    0.004
 7026.00    1.60886   1.49854    0.004
 7027.00    1.67807   1.49876    0.004
 7028.00    1.57869   1.49929    0.004
 7029.00    1.46874   1.50007    0.004
 7030.00    1.31660   1.50055    0.004
 7031.00    1.16435   1.50080    0.004
 7032.00    1.29889   1.50106    0.004
 7033.00    1.42879   1.50121    0.004
 7034.00    1.43158   1.50111    0.004
 7035.00    1.44646   1.50109    0.004
 7036.00    1.63102   1.50160    0.004
 7037.00    1.76976   1.50240    0.004
 7038.00    1.48600   1.50305    0.004
 7039.00    1.24391   1.50450    0.004
 7040.00    1.28268   1.50681    0.004
 7041.00    1.34085   1.50870    0.004
 7042.00    1.50043   1.51038    0.004
 7043.00    1.63190   1.51216    0.004
 7044.00    1.64501   1.51333    0.004
 7045.00    1.62039   1.51389    0.004
 7046.00    1.46454   1.51406    0.004
 7047.00    1.38386   1.51380    0.004
 7048.00    1.52320   1.51307    0.005
 7049.00    1.60893   1.51150    0.005
 7050.00    1.56079   1.50950   -2.000
 7051.00    1.48827   1.50752   -2.000
 7052.00    1.36331   1.50503   -2.000
 7053.00    1.29976   1.50232   -2.000
 7054.00    1.35091   1.50024   -2.000
 7055.00    1.44629   1.49842   -2.000
 7056.00    1.61381   1.49671   -2.000
 7057.00    1.69059   1.49554   -2.000
 7058.00    1.63756   1.49477   -2.000
 7059.00    1.57193   1.49389   -2.000
 7060.00    1.49043   1.49318   -2.000
 7061.00    1.51701   1.49287   -2.000
 7062.00    1.66345   1.49240   -2.000
 7063.00    1.65770   1.49187   -2.000
 7064.00    1.50312   1.49166   -2.000
 7065.00    1.52295   1.49123   -2.000
 7066.00    1.69324   1.49091   -2.000
 7067.00    1.62923   1.49111   -2.000
 7068.00    1.38721   1.49138   -2.000
 7069.00    1.34127   1.49203   -2.000
 7070.00    1.42624   1.49325   -2.000
 7071.00    1.55003   1.49462   -2.000
 7072.00    1.69652   1.49589   -2.000
 7073.00    1.68967   1.49707   -2.000
 7074.00    1.60464   1.49808   -2.000
 7075.00    1.59152   1.49877   -2.000
 7076.00    1.61016   1.49891   -2.000
 7077.00    1.59609   1.49856   -2.000
 7078.00    1.56961   1.49800   -2.000
 7079.00    1.52496   1.49676   -2.000
 7080.00    1.47446   1.49484   -2.000
 7081.00    1.49907   1.49257   -2.000
 7082.00    1.54390   1.48976   -2.000
 7083.00    1.64223   1.48652   -2.000
 7084.00    1.75238   1.48298   -2.000
 7085.00    1.64242   1.47953   -2.000
 7086.00    1.49378   1.47653   -2.000
 7087.00    1.43880   1.47363   -2.000
 7088.00    1.39636   1.47106   -2.000
 7089.00    1.57128   1.46916   -2.000
 7090.00    1.76685   1.46767   -2.000
 7091.00    1.57926   1.46667   -2.000
 7092.00    1.36918   1.46625   -2.000
 7093.00    1.49363   1.46619   -2.000
 7094.00    1.62415   1.46661   -2.000
 7095.00    1.46007   1.46754   -2.000
 7096.00    1.30758   1.46914   -2.000
 7097.00    1.44337   1.47079   -2.000
 7098.00    1.56327   1.47253   -2.000
 7099.00    1.47227   1.47509   -2.000
 7100.00    1.38624   1.47708   -2.000
 7101.00    1.34428   1.47867   -2.000
 7102.00    1.30308   1.48026   -2.000
 7103.00    1.26689   1.48133   -2.000
 7104.00    1.26773   1.48202   -2.000
 7105.00    1.45713   1.48258   -2.000
 7106.00    1.60754   1.48266   -2.000
 7107.00    1.59741   1.48228   -2.000
 7108.00    1.55920   1.48211   -2.000
 7109.00    1.42520   1.48200   -2.000
 7110.00    1.35472   1.48161   -2.000
 7111.00    1.46674   1.48150   -2.000
 7112.00    1.50586   1.48189   -2.000
 7113.00    1.36609   1.48242   -2.000
 7114.00    1.31401   1.48316   -2.000
 7115.00    1.44749   1.48394   -2.000
 7116.00    1.55876   1.48475   -2.000
 7117.00    1.62920   1.48558   -2.000
 7118.00    1.61339   1.48600   -2.000
 7119.00    1.45902   1.48602   -2.000
 7120.00    1.37250   1.48609   -2.000
 7121.00    1.38164   1.48579   -2.000
 7122.00    1.36335   1.48485   -2.000
 7123.00    1.31106   1.48396   -2.000
 7124.00    1.43138   1.48310   -2.000
 7125.00    1.74044   1.48183   -2.000
 7126.00    1.79912   1.48043   -2.000
 7127.00    1.61635   1.47933   -2.000
 7128.00    1.63217   1.47861   -2.000
 7129.00    1.81686   1.47814   -2.000
 7130.00    1.79121   1.47780   -2.000
 7131.00    1.60802   1.47805   -2.000
 7132.00    1.66356   1.47893   -2.000
 7133.00    1.87618   1.47981   -2.000
 7134.00    1.65329   1.48100   -2.000
 7135.00    1.17955   1.48217   -2.000
 7136.00    1.22597   1.48297   -2.000
 7137.00    1.53339   1.48405   -2.000
 7138.00    1.66022   1.48481   -2.000
 7139.00    1.70864   1.48502   -2.000
 7140.00    1.76908   1.48543   -2.000
 7141.00    1.83401   1.48574   -2.000
 7142.00    1.70144   1.48554   -2.000
 7143.00    1.50648   1.48534   -2.000
 7144.00    1.58600   1.48504   -2.000
 7145.00    1.73789   1.48440   -2.000
 7146.00    1.59432   1.48414   -2.000
 7147.00    1.38707   1.48406   -2.000
 7148.00    1.37977   1.48387   -2.000
 7149.00    1.40666   1.48458   -2.000
 7150.00    1.32969   1.48584   -2.000
 7151.00    1.23927   1.48698   -2.000
 7152.00    1.46982   1.48838   -2.000
 7153.00    1.72951   1.48998   -2.000
 7154.00    1.59225   1.49122   -2.000
 7155.00    1.43327   1.49189   -2.000
 7156.00    1.31800   1.49241   -2.000
 7157.00    1.20670   1.49276   -2.000
 7158.00    1.37437   1.49243   -2.000
 7159.00    1.54243   1.49182   -2.000
 7160.00    1.71942   1.49116   -2.000
 7161.00    1.90210   1.49031   -2.000
 7162.00    2.15645   1.48961   -2.000
 7163.00    2.38835   1.48905   -2.000
 7164.00    2.42872   1.48855   -2.000
 7165.00    2.36433   1.48839   -2.000
 7166.00    1.63599   1.48901   -2.000
 7167.00    1.12922   1.48996   -2.000
 7168.00    1.72256   1.49093   -2.000
 7169.00    2.16817   1.49215   -2.000
 7170.00    2.01918   1.49340   -2.000
 7171.00    1.88166   1.49452   -2.000
 7172.00    1.78241   1.49534   -2.000
 7173.00    1.63081   1.49567   -2.000
 7174.00    1.33152   1.49583   -2.000
 7175.00    1.17102   1.49574   -2.000
 7176.00    1.34530   1.49506   -2.000
 7177.00    1.45533   1.49433   -2.000
 7178.00    1.43155   1.49391   -2.000
 7179.00    1.47441   1.49334   -2.000
 7180.00    1.63793   1.49260   -2.000
 7181.00    1.74128   1.49217   -2.000
 7182.00    1.74939   1.49215   -2.000
 7183.00    1.62985   1.49203   -2.000
 7184.00    1.33295   1.49157   -2.000
 7185.00    1.20100   1.49129   -2.000
 7186.00    1.27076   1.49094   -2.000
 7187.00    1.39844   1.49024   -2.000
 7188.00    1.58856   1.48993   -2.000
 7189.00    1.71599   1.48992   -2.000
 7190.00    1.78381   1.48987   -2.000
 7191.00    1.73420   1.49037   -2.000
 7192.00    1.58615   1.49116   -2.000
 7193.00    1.42887   1.49154   -2.000
 7194.00    1.26478   1.49205   -2.000
 7195.00    1.29398   1.49303   -2.000
 7196.00    1.44850   1.49350   -2.000
 7197.00    1.47891   1.49358   -2.000
 7198.00    1.43891   1.49421   -2.000
 7199.00    1.57851   1.49473   -2.000
 7200.00    1.80682   1.49487   -2.000
 7201.00    2.18734   1.49513   -2.000
 7202.00    2.63286   1.49526   -2.000
 7203.00    2.39542   1.49498   -2.000
 7204.00    1.90810   1.49475   -2.000
 7205.00    1.58294   1.49457   -2.000
 7206.00    1.30802   1.49401   -2.000
 7207.00    1.52320   1.49345   -2.000
 7208.00    1.86487   1.49375   -2.000
 7209.00    1.61751   1.49419   -2.000
 7210.00    1.24625   1.49458   -2.000
 7211.00    1.29102   1.49582   -2.000
 7212.00    1.40488   1.49701   -2.000
 7213.00    1.49301   1.49787   -2.000
 7214.00    1.57792   1.49916   -2.000
 7215.00    1.60567   1.50044   -2.000
 7216.00    1.62846   1.50130   -2.000
 7217.00    1.49240   1.50236   -2.000
 7218.00    1.34827   1.50360   -2.000
