###################################################################
## OUTPUT of StarlightChains_v04.for    [Cid@UFSC - 01/Apr/2007] ##
###################################################################

## Some input info
KUG0210-078._42_27.txt                   [arq_obs]
Base.CB07.vall.4m                        [arq_base]
Masks.EmLines.NEW.gm                     [arq_masks]
StCv04.C11.config                        [arq_config]
   66                                    [N_base]
    0                                    [N_YAV_components = # of components with extra extinction!]
    0                                    [i_FitPowerLaw (1/0 = Yes/No)]
-9.99                                    [alpha_PowerLaw]
CCM                                      [red_law_option]
 1.458241                                [q_norm = A(l_norm)/A(V)]

## (Re)Sampling Parameters
 3741.00                                 [l_ini (A)]
 7218.00                                 [l_fin (A)]
    1.00                                 [dl    (A)]     (OBS: dl_cushion =    50.00 A)

## Normalization info
 4020.00                                 [l_norm (A) - for base]
 4010.00                                 [llow_norm (A) - window for f_obs]
 4060.00                                 [lupp_norm (A) - window for f_obs]
7.312101E-18                             [fobs_norm (in input units)]

## S/N
 3691.00                                 [llow_SN (A) - window for S/N]
 7268.00                                 [lupp_SN (A) - window for S/N]
   2.536                                 [S/N in S/N window]
   2.619                                 [S/N in norm. window]
   0.009                                 [S/N_err in S/N window]
   0.009                                 [S/N_err in norm. window]
  1.0000                                 [fscale_chi2]

## etc...
    -2007768                             [idum_orig]
  2386                                   [NOl_eff]
  2115                                   [Nl_eff]
   271    NSIGMA                         [Ntot_cliped & clip_method]
 10545290                                [Nglobal_steps]
   7                                     [N_chains]
  41                                     [NEX0s_base = N_base in EX0s-fits]
 0   0   1      271   2.0   5.386E+03    [Clip-Bug, RC-Crash & Burn-In warning-flags, n_censored_weights, wei_nsig_threshold & wei_limit]
    81     80.847     80.147      0.700  [idt_all, wdt_TotTime, wdt_UsrTime & wdt_SysTime (sec)]

## Synthesis Results - Best model ##

 1.32576E-05                             [chi2/Nl_eff]
    25.13896                             [adev (%)]

   130.00002                             [sum-of-x (%)]
 2.53081E-18                             [Flux_tot (units of input spectrum!)]
 5.40507E-14                             [Mini_tot (???)]
 2.84749E-14                             [Mcor_tot (???)]

-342.21                                  [v0_min  (km/s)]
 461.72                                  [vd_min  (km/s)]
-0.9853                                  [AV_min  (mag)]
 0.0000                                  [YAV_min (mag)]

# j     x_j(%)      Mini_j(%)     Mcor_j(%)     age_j(yr)     Z_j      (L/M)_j    YAV?  Mstars   component_j        a/Fe...       SSP_chi2r SSP_adev(%)   SSP_AV   SSP_x(%)
  1      0.0000     0.0000E+00    0.0000E+00    1.000000E+06  0.00400  1.094E-02    0   1.0000   age020_m42            0.0000     1.3569E-05    27.5304   1.7695   134.5399
  2      0.0000     0.0000E+00    0.0000E+00    3.160000E+06  0.00400  4.007E-02    0   0.9999   age045_m42            0.0000     1.3470E-05    27.0481   1.1670   137.8340
  3      0.0000     0.0000E+00    0.0000E+00    5.010000E+06  0.00400  2.539E-02    0   0.9488   age055_m42            0.0000     1.3513E-05    27.2132   1.4315   137.1214
  4      3.9036     5.3664E-03    9.3918E-03    6.610000E+06  0.00400  2.620E-02    0   0.9220   age061_m42            0.0000     1.3461E-05    27.0021   1.1016   137.9673
  5      0.0000     0.0000E+00    0.0000E+00    1.000000E+07  0.00400  1.322E-02    0   0.8862   age070_m42            0.0000     1.3436E-05    26.8633   0.8655   140.6865
  6      0.0000     0.0000E+00    0.0000E+00    1.445000E+07  0.00400  7.883E-03    0   0.8571   age078_m42            0.0000     1.3455E-05    26.9009   1.1537   138.6953
  7      0.1644     1.1275E-03    1.7494E-03    2.512000E+07  0.00400  5.251E-03    0   0.8174   age090_m42            0.0000     1.3446E-05    26.8799   0.7531   140.9191
  8      0.0981     9.6802E-04    1.4426E-03    4.000000E+07  0.00400  3.649E-03    0   0.7851   age104_m42            0.0000     1.3410E-05    26.8358   0.5403   141.2187
  9      0.0000     0.0000E+00    0.0000E+00    5.500000E+07  0.00400  3.098E-03    0   0.7629   age110_m42            0.0000     1.3405E-05    26.7969   0.6908   140.5060
 10      0.0000     0.0000E+00    0.0000E+00    1.015200E+08  0.00400  2.228E-03    0   0.7207   age116_m42            0.0000     1.3403E-05    26.8115   0.7116   140.1923
 11      0.1360     4.4831E-03    5.6573E-03    2.861200E+08  0.00400  1.093E-03    0   0.6648   age125_m42            0.0000     1.3436E-05    27.2931   0.1966   142.3590
 12      0.0000     0.0000E+00    0.0000E+00    5.088000E+08  0.00400  6.597E-04    0   0.6365   age130_m42            0.0000     1.3372E-05    27.0903   0.1882   142.6589
 13      0.0000     0.0000E+00    0.0000E+00    1.434000E+09  0.00400  2.132E-04    0   0.5798   age139_m42            0.0000     1.3008E-05    26.4881  -0.7551   143.8006
 14      0.0000     0.0000E+00    0.0000E+00    4.250000E+09  0.00400  5.895E-05    0   0.5377   age158_m42            0.0000     1.3198E-05    25.1731  -1.0000   130.2951
 15     51.0016     5.2335E+01    5.1777E+01    7.500000E+09  0.00400  3.510E-05    0   0.5212   age171_m42            0.0000     1.3846E-05    25.0427  -1.0000   121.9538
 16      2.8502     5.1201E+00    4.8925E+00    1.300000E+10  0.00400  2.005E-05    0   0.5034   age193_m42            0.0000     1.4718E-05    25.4888  -1.0000   114.9372
 17      0.0000     0.0000E+00    0.0000E+00    1.800000E+10  0.00400  1.525E-05    0   0.4967   age213_m42            0.0000     1.4883E-05    25.6649  -1.0000   113.5408
 18      1.9937     5.8003E-03    1.1010E-02    1.000000E+06  0.00800  1.238E-02    0   1.0000   age020_m52            0.0000     1.3572E-05    27.5495   1.7635   134.8897
 19      3.1571     3.6991E-03    6.9978E-03    3.160000E+06  0.00800  3.074E-02    0   0.9966   age045_m52            0.0000     1.3543E-05    27.4588   1.6946   135.7449
 20      0.0000     0.0000E+00    0.0000E+00    5.010000E+06  0.00800  2.668E-02    0   0.9443   age055_m52            0.0000     1.3500E-05    27.1490   1.5010   136.6921
 21      0.0000     0.0000E+00    0.0000E+00    6.610000E+06  0.00800  2.136E-02    0   0.9177   age061_m52            0.0000     1.3279E-05    26.6420   0.3534   142.8462
 22      0.0000     0.0000E+00    0.0000E+00    1.000000E+07  0.00800  1.215E-02    0   0.8827   age070_m52            0.0000     1.3453E-05    26.9752   1.0414   141.1136
 23      0.0000     6.4606E-08    1.0488E-07    1.445000E+07  0.00800  8.717E-03    0   0.8552   age078_m52            0.0000     1.3439E-05    26.8131   1.1346   140.0708
 24      0.0000     0.0000E+00    0.0000E+00    2.512000E+07  0.00800  5.592E-03    0   0.8162   age090_m52            0.0000     1.3407E-05    26.8934   0.8308   142.1969
 25      0.0000     0.0000E+00    0.0000E+00    4.000000E+07  0.00800  3.896E-03    0   0.7841   age104_m52            0.0000     1.3376E-05    26.8857   0.7591   142.1877
 26      0.0000     0.0000E+00    0.0000E+00    1.015200E+08  0.00800  2.148E-03    0   0.7226   age116_m52            0.0000     1.3369E-05    26.7550   0.6980   141.0923
 27      0.0000     0.0000E+00    0.0000E+00    2.861200E+08  0.00800  9.925E-04    0   0.6683   age125_m52            0.0000     1.3288E-05    26.8526   0.2594   144.0600
 28      0.0135     1.5467E-03    1.8021E-03    9.047900E+08  0.00800  3.141E-04    0   0.6138   age135_m52            0.0000     1.2895E-05    26.4826  -0.4973   147.1974
 29     17.5888     3.6853E+00    4.0944E+00    1.434000E+09  0.00800  1.719E-04    0   0.5853   age139_m52            0.0000     1.2800E-05    25.9238  -1.0000   141.3188
 30      0.0000     0.0000E+00    0.0000E+00    2.500000E+09  0.00800  7.872E-05    0   0.5600   age150_m52            0.0000     1.3553E-05    24.9382  -1.0000   126.4137
 31      0.0000     0.0000E+00    0.0000E+00    4.250000E+09  0.00800  4.336E-05    0   0.5426   age158_m52            0.0000     1.3648E-05    24.9005  -1.0000   124.5448
 32      0.0000     0.0000E+00    0.0000E+00    6.250000E+09  0.00800  3.159E-05    0   0.5319   age166_m52            0.0000     1.4722E-05    25.3390  -1.0000   116.3844
 33      0.0000     0.0000E+00    0.0000E+00    1.300000E+10  0.00800  1.361E-05    0   0.5073   age193_m52            0.0000     1.8617E-05    28.4196  -1.0000    97.8726
 34      4.9498     1.8034E+01    1.7081E+01    1.800000E+10  0.00800  9.886E-06    0   0.4990   age213_m52            0.0000     1.9770E-05    28.9634  -1.0000    93.3707
 35      0.0244     5.6806E-05    1.0783E-04    1.000000E+06  0.02000  1.544E-02    0   1.0000   age020_m62            0.0000     1.3575E-05    27.5658   1.7567   135.3550
 36      1.1633     1.1138E-03    2.0842E-03    3.160000E+06  0.02000  3.762E-02    0   0.9858   age045_m62            0.0000     1.3556E-05    27.5512   1.6932   136.6474
 37      0.0000     0.0000E+00    0.0000E+00    5.010000E+06  0.02000  3.296E-02    0   0.9342   age055_m62            0.0000     1.3501E-05    27.1345   1.4041   138.1205
 38      0.0000     0.0000E+00    0.0000E+00    8.710000E+06  0.02000  1.154E-02    0   0.8861   age067_m62            0.0000     1.3583E-05    28.3224   0.5417   146.5122
 39      0.0000     0.0000E+00    0.0000E+00    1.445000E+07  0.02000  7.663E-03    0   0.8472   age078_m62            0.0000     1.3434E-05    27.3907   0.7204   144.0025
 40      1.3717     1.0902E-02    1.6760E-02    2.512000E+07  0.02000  4.532E-03    0   0.8099   age090_m62            0.0000     1.3466E-05    27.5368   0.7280   143.1659
 41      0.0000     0.0000E+00    0.0000E+00    5.500000E+07  0.02000  2.733E-03    0   0.7595   age110_m62            0.0000     1.3364E-05    26.8341   0.7226   142.0597
 42      0.0000     0.0000E+00    0.0000E+00    1.609000E+08  0.02000  1.369E-03    0   0.6985   age120_m62            0.0000     1.3338E-05    26.7643   0.5879   143.6350
 43      0.0000     0.0000E+00    0.0000E+00    2.861200E+08  0.02000  9.013E-04    0   0.6714   age125_m62            0.0000     1.3294E-05    26.6907   0.3644   145.9235
 44      0.0000     0.0000E+00    0.0000E+00    5.088000E+08  0.02000  5.028E-04    0   0.6449   age130_m62            0.0000     1.3111E-05    26.4973   0.0041   147.8128
 45      6.4795     9.6118E-01    1.1274E+00    9.047900E+08  0.02000  2.428E-04    0   0.6179   age135_m62            0.0000     1.2813E-05    26.2427  -0.5874   146.8417
 46      0.0000     0.0000E+00    0.0000E+00    1.434000E+09  0.02000  1.263E-04    0   0.5908   age139_m62            0.0000     1.2741E-05    25.7760  -1.0000   143.3605
 47      4.6421     2.7936E+00    3.0083E+00    2.500000E+09  0.02000  5.985E-05    0   0.5673   age150_m62            0.0000     1.3661E-05    24.4079  -1.0000   126.6967
 48      0.0000     0.0000E+00    0.0000E+00    4.250000E+09  0.02000  3.271E-05    0   0.5468   age158_m62            0.0000     1.5510E-05    24.9837  -1.0000   113.2005
 49      0.0000     0.0000E+00    0.0000E+00    1.000000E+10  0.02000  1.360E-05    0   0.5167   age181_m62            0.0000     1.8559E-05    27.0343  -1.0000    99.4059
 50      0.0000     0.0000E+00    0.0000E+00    1.800000E+10  0.02000  7.124E-06    0   0.5013   age213_m62            0.0000     2.0947E-05    28.4009  -1.0000    90.9740
 51      0.0000     0.0000E+00    0.0000E+00    1.000000E+06  0.05000  2.592E-02    0   0.9998   age020_m72            0.0000     1.3577E-05    27.5662   1.7444   135.6827
 52      0.0000     0.0000E+00    0.0000E+00    3.160000E+06  0.05000  4.845E-02    0   0.9577   age045_m72            0.0000     1.3523E-05    27.3016   1.6097   136.9790
 53      0.0000     0.0000E+00    0.0000E+00    5.010000E+06  0.05000  3.072E-02    0   0.9147   age055_m72            0.0000     1.3451E-05    27.3504   1.2382   140.5772
 54      0.0000     5.4406E-08    9.1675E-08    6.610000E+06  0.05000  1.455E-02    0   0.8877   age061_m72            0.0000     1.4013E-05    31.3633   0.6335   148.2213
 55      1.4220     5.6444E-03    9.1327E-03    1.000000E+07  0.05000  9.074E-03    0   0.8524   age070_m72            0.0000     1.3533E-05    28.1413   1.4219   140.2396
 56      0.2420     2.0508E-03    3.0760E-03    2.512000E+07  0.05000  4.250E-03    0   0.7902   age090_m72            0.0000     1.3493E-05    27.6441   1.1766   140.4034
 57      2.6669     3.1116E-02    4.4995E-02    4.000000E+07  0.05000  3.087E-03    0   0.7618   age104_m72            0.0000     1.3494E-05    27.7873   0.9812   141.5839
 58      0.0000     0.0000E+00    0.0000E+00    1.015200E+08  0.05000  1.700E-03    0   0.7096   age116_m72            0.0000     1.3416E-05    27.0072   0.7399   143.2283
 59      0.0000     0.0000E+00    0.0000E+00    2.861200E+08  0.05000  7.384E-04    0   0.6633   age125_m72            0.0000     1.3123E-05    26.5272   0.2478   146.8357
 60      0.0000     0.0000E+00    0.0000E+00    5.088000E+08  0.05000  3.819E-04    0   0.6372   age130_m72            0.0000     1.2858E-05    26.1411  -0.2514   148.5767
 61      0.0000     0.0000E+00    0.0000E+00    9.047900E+08  0.05000  1.676E-04    0   0.6110   age135_m72            0.0000     1.2684E-05    26.0424  -0.9911   147.2113
 62     21.9883     8.9619E+00    9.9925E+00    1.434000E+09  0.05000  8.837E-05    0   0.5874   age139_m72            0.0000     1.3602E-05    24.3077  -1.0000   128.3559
 63      3.5082     2.9851E+00    3.1720E+00    2.500000E+09  0.05000  4.233E-05    0   0.5598   age150_m72            0.0000     1.5516E-05    24.7645  -1.0000   114.1693
 64      0.0000     0.0000E+00    0.0000E+00    6.250000E+09  0.05000  1.435E-05    0   0.5249   age166_m72            0.0000     1.9597E-05    27.7589  -1.0000    95.5142
 65      0.0000     0.0000E+00    0.0000E+00    1.300000E+10  0.05000  6.513E-06    0   0.5036   age193_m72            0.0000     2.3103E-05    29.7509  -1.0000    86.3648
 66      0.6348     5.0505E+00    4.7407E+00    1.800000E+10  0.05000  4.527E-06    0   0.4945   age213_m72            0.0000     2.5312E-05    30.9354  -1.0000    80.7010


## Synthesis Results - Average & Chains ##

# j      x_j: min, <> & last-chain-values for 1 ...  7 chains
  1      0.0000      0.2479      0.0000      0.1184      0.0000      0.1490      0.1409      0.0309      0.2833
  2      0.0000      0.2373      0.5105      0.1738      0.8592      0.0000      0.3621      0.0000      0.1621
  3      0.0000      0.3214      0.0776      0.0342      2.1208      0.0000      0.4913      0.2319      0.1204
  4      3.9036      0.3444      0.0000      0.0000      0.0000      2.3349      0.2425      0.0000      0.0746
  5      0.0000      0.1928      0.2236      0.1626      0.8612      0.0000      0.7838      0.0000      0.0764
  6      0.0000     15.3087     15.8564     16.4300     13.5466     10.7720     14.4552     16.7363     16.1884
  7      0.1644      0.3087      0.3326      0.0854      0.8601      1.3921      0.1675      0.0454      0.0000
  8      0.0981     14.7967     14.5616     14.1591     14.9212     13.8376     15.9897     14.8371     14.0386
  9      0.0000      0.2490      0.5875      0.0000      0.1973      0.2382      0.0159      0.1606      0.2335
 10      0.0000      0.3263      0.0000      0.0000      1.0843      0.7106      0.4175      0.0714      0.0623
 11      0.1360      0.1646      0.2955      0.0000      0.5735      0.4017      0.1488      0.0000      0.0218
 12      0.0000      0.2893      0.3179      0.0000      1.0735      0.7108      0.6332      0.0617      0.0004
 13      0.0000      0.2567      0.0000      0.0000      0.9601      0.1374      0.5675      0.0679      0.1324
 14      0.0000      0.2379      0.3077      0.0220      2.4681      0.3770      0.3551      0.1168      0.1337
 15     51.0016      0.2129      0.4850      0.2399      1.3908      0.5413      0.0219      0.1645      0.1689
 16      2.8502      0.2879      0.0964      0.1477      1.7144      0.4074      0.7896      0.0907      0.0543
 17      0.0000      0.2297      0.1611      0.0503      0.0000      0.3046      0.5519      0.0078      0.3523
 18      1.9937      0.3750      0.0000      0.3163      1.9497      1.6718      0.0000      0.2691      0.0660
 19      3.1571      0.3019      0.2702      0.0000      0.3296      0.3778      0.1288      0.0565      0.4617
 20      0.0000      0.2182      0.0000      0.3501      0.0000      0.0000      0.1566      0.0000      0.0232
 21      0.0000      0.2972      0.2180      0.1840      1.4878      0.1109      0.1443      0.1532      0.0592
 22      0.0000      0.3440      0.0000      0.0038      2.3097      0.1536      0.0000      0.0813      0.1381
 23      0.0000      0.3556      0.2827      0.2737      0.0609      1.9498      0.1363      0.0768      0.3031
 24      0.0000      0.2307      0.3429      0.1155      0.5191      0.6764      0.2873      0.1022      0.0606
 25      0.0000      0.2428      0.1772      0.0167      1.4270      0.5522      0.0106      0.0460      0.2092
 26      0.0000      0.2346      0.0968      0.2562      1.0489      0.1170      0.1059      0.2521      0.0000
 27      0.0000      0.2274      0.3332      0.1646      1.0913      0.0722      0.4665      0.0000      0.0684
 28      0.0135      0.2944      0.1812      0.5067      0.0000      1.3925      0.2228      0.0530      0.2777
 29     17.5888      0.3179      0.1965      0.0269      0.8635      1.4051      0.0220      0.0000      0.2037
 30      0.0000      0.2252      0.0000      0.0716      0.4778      0.0839      0.0000      0.0470      0.2477
 31      0.0000      0.3180      0.1472      0.1569      0.0000      4.3751      0.1915      0.0000      0.1851
 32      0.0000      0.2895      0.2496      0.2060      0.2774      0.0000      0.5296      0.0000      0.1728
 33      0.0000      0.2396      0.0886      0.0697      0.0000      0.0507      0.0473      0.0000      0.2549
 34      4.9498      0.2593      0.1432      0.3679      0.0000      1.7678      0.4361      0.0871      0.2149
 35      0.0244      0.2046      0.0593      0.0597      0.3742      0.9182      0.1628      0.0032      0.2318
 36      1.1633      0.1995      0.0210      0.0795      0.0000      0.3609      0.0000      0.0333      0.1962
 37      0.0000      0.2937      0.4342      0.4914      0.5261      0.3065      0.0000      0.0132      0.1550
 38      0.0000      0.2463      0.1213      0.0000      1.1952      0.1910      0.0000      0.0000      0.2223
 39      0.0000      0.2758      0.0000      0.1194      0.3343      0.2101      0.0000      0.0027      0.2478
 40      1.3717      0.5235      0.2232      0.6584      0.7059      2.5574      0.5318      0.3333      0.2888
 41      0.0000      0.1791      0.1231      0.0797      0.0000      0.0000      0.3150      0.0000      0.1128
 42      0.0000      0.1861      0.1446      0.0316      0.7159      0.5590      0.0491      0.0647      0.0230
 43      0.0000      0.2443      1.0295      0.0347      0.5311      1.3760      0.0355      0.0000      0.2819
 44      0.0000      0.2642      0.2433      0.2324      0.2539      2.5795      0.1088      0.1277      0.1505
 45      6.4795      1.0159      0.5101      0.9929      0.2086      1.7015      0.9733      1.2588      0.8045
 46      0.0000     65.3688     70.0048     72.5057     46.8258     37.2748     66.9464     74.0843     72.7949
 47      4.6421      0.3268      0.5799      0.1510      0.1565      0.3721      0.7055      0.1087      0.1532
 48      0.0000      0.2559      0.0912      0.1032      0.2038      0.1272      0.2457      0.1429      0.0156
 49      0.0000      0.1957      0.1462      0.3032      0.8487      1.6732      0.0000      0.1543      0.0095
 50      0.0000      0.2772      0.5093      0.1592      1.3903      0.0000      0.2992      0.1673      0.0627
 51      0.0000      0.2233      0.0318      0.2306      0.0000      1.4507      0.1462      0.0431      0.0000
 52      0.0000      0.2715      0.0631      0.2088      0.9039      1.8238      0.1018      0.1083      0.0732
 53      0.0000      0.2686      0.1535      0.0000      0.4518      0.0000      0.2980      0.1305      0.1056
 54      0.0000      0.2252      0.1436      0.0347      0.1864      0.6149      0.2031      0.0238      0.0282
 55      1.4220      0.1902      0.2186      0.0000      0.0000      1.6404      0.0000      0.1768      0.0981
 56      0.2420      7.8378      7.7200      8.3273      6.8536      7.4610      8.4431      9.4823      8.8626
 57      2.6669      0.2814      0.1114      0.3235      1.5368      2.6508      0.4942      0.0000      0.0375
 58      0.0000      0.3642      0.0572      0.0567      0.4809      0.9235      0.0410      0.0106      0.1060
 59      0.0000      0.3549      0.1772      0.1722      0.0000      0.5034      0.6218      0.0452      0.0583
 60      0.0000      0.2881      0.2816      0.0727      0.0779      1.3714      0.0137      0.0004      0.0000
 61      0.0000      0.3347      0.3571      0.0000      0.0000      0.0000      0.0000      0.2947      0.1702
 62     21.9883      0.3639      0.1062      0.0000      0.0000      1.6694      0.2546      0.0000      0.2688
 63      3.5082      0.3988      0.2817      0.3750      0.3367      2.8813      0.8326      0.0984      0.0879
 64      0.0000      0.1368      0.0572      0.1308      0.6783      0.0000      0.2217      0.0023      0.0058
 65      0.0000      0.2321      0.1833      0.3261      0.8572      0.0000      0.1480      0.0000      0.1537
 66      0.6348      0.2484      0.1605      0.0059      0.4895      2.4365      0.0358      0.0886      0.1552

# j      m_j: min, <> & last-chain-values for 1 ...  7 chains
  1  0.0000E+00  4.8640E-03  0.0000E+00  2.4158E-03  0.0000E+00  1.7780E-03  2.7332E-03  7.0303E-04  5.9597E-03
  2  0.0000E+00  1.2713E-03  2.7610E-03  9.6787E-04  3.4841E-03  0.0000E+00  1.9176E-03  0.0000E+00  9.3077E-04
  3  0.0000E+00  2.5777E-03  6.2861E-04  2.8533E-04  1.2878E-02  0.0000E+00  3.8959E-03  2.1590E-03  1.0350E-03
  4  9.3918E-03  2.6014E-03  0.0000E+00  0.0000E+00  0.0000E+00  1.0724E-02  1.8105E-03  0.0000E+00  6.0447E-04
  5  0.0000E+00  2.7748E-03  3.2486E-03  2.4325E-03  9.3808E-03  0.0000E+00  1.1150E-02  0.0000E+00  1.1782E-03
  6  0.0000E+00  3.5729E-01  3.7369E-01  3.9867E-01  2.3934E-01  1.5286E-01  3.3351E-01  4.5333E-01  4.0502E-01
  7  1.7494E-03  1.0316E-02  1.1222E-02  2.9660E-03  2.1757E-02  2.8283E-02  5.5323E-03  1.7601E-03  0.0000E+00
  8  1.4426E-03  6.8337E-01  6.7909E-01  6.7986E-01  5.2167E-01  3.8856E-01  7.3002E-01  7.9527E-01  6.9503E-01
  9  0.0000E+00  1.3163E-02  3.1359E-02  0.0000E+00  7.8964E-03  7.6556E-03  8.3208E-04  9.8528E-03  1.3231E-02
 10  0.0000E+00  2.2660E-02  0.0000E+00  0.0000E+00  5.6994E-02  2.9999E-02  2.8657E-02  5.7561E-03  4.6399E-03
 11  5.6573E-03  2.1496E-02  3.8956E-02  0.0000E+00  5.6679E-02  3.1889E-02  1.9199E-02  0.0000E+00  3.0443E-03
 12  0.0000E+00  5.9907E-02  6.6489E-02  0.0000E+00  1.6831E-01  8.9508E-02  1.2963E-01  1.4840E-02  9.3765E-05
 13  0.0000E+00  1.4988E-01  0.0000E+00  0.0000E+00  4.2430E-01  4.8756E-02  3.2751E-01  4.6000E-02  8.2826E-02
 14  0.0000E+00  4.6575E-01  6.0829E-01  4.4882E-02  3.6581E+00  4.4883E-01  6.8733E-01  2.6535E-01  2.8060E-01
 15  5.1777E+01  6.7847E-01  1.5612E+00  7.9496E-01  3.3559E+00  1.0491E+00  6.8999E-02  6.0854E-01  5.7700E-01
 16  4.8925E+00  1.5515E+00  5.2459E-01  8.2782E-01  6.9944E+00  1.3351E+00  4.2066E+00  5.6761E-01  3.1350E-01
 17  0.0000E+00  1.6061E+00  1.1373E+00  3.6554E-01  0.0000E+00  1.2949E+00  3.8143E+00  6.3674E-02  2.6406E+00
 18  1.1010E-02  6.5012E-03  0.0000E+00  5.7013E-03  2.5591E-02  1.7625E-02  0.0000E+00  5.4145E-03  1.2266E-03
 19  6.9978E-03  2.1006E-03  1.8989E-03  0.0000E+00  1.7365E-03  1.5984E-03  8.8600E-04  4.5613E-04  3.4445E-03
 20  0.0000E+00  1.6574E-03  0.0000E+00  2.7651E-03  0.0000E+00  0.0000E+00  1.1763E-03  0.0000E+00  1.8888E-04
 21  0.0000E+00  2.7408E-03  2.0305E-03  1.7638E-03  1.0387E-02  6.2199E-04  1.3152E-03  1.6401E-03  5.8540E-04
 22  0.0000E+00  5.3640E-03  0.0000E+00  6.1096E-05  2.7266E-02  1.4562E-03  0.0000E+00  1.4713E-03  2.3088E-03
 23  1.0488E-07  7.4892E-03  6.0118E-03  5.9925E-03  9.7019E-04  2.4966E-02  2.8378E-03  1.8780E-03  6.8424E-03
 24  0.0000E+00  7.2266E-03  1.0847E-02  3.7626E-03  1.2312E-02  1.2886E-02  8.8991E-03  3.7157E-03  2.0340E-03
 25  0.0000E+00  1.0491E-02  7.7307E-03  7.4890E-04  4.6668E-02  1.4504E-02  4.5114E-04  2.3066E-03  9.6904E-03
 26  0.0000E+00  1.6944E-02  7.0616E-03  1.9237E-02  5.7335E-02  5.1366E-03  7.5606E-03  2.1130E-02  0.0000E+00
 27  0.0000E+00  3.2863E-02  4.8626E-02  2.4727E-02  1.1941E-01  6.3463E-03  6.6659E-02  0.0000E+00  1.0600E-02
 28  1.8021E-03  1.2348E-01  7.6739E-02  2.2099E-01  0.0000E+00  3.5513E-01  9.2381E-02  2.5808E-02  1.2489E-01
 29  4.0944E+00  2.3236E-01  1.4503E-01  2.0453E-02  4.7776E-01  6.2439E-01  1.5904E-02  0.0000E+00  1.5958E-01
 30  0.0000E+00  3.4390E-01  0.0000E+00  1.1367E-01  5.5233E-01  7.7914E-02  0.0000E+00  8.3313E-02  4.0548E-01
 31  0.0000E+00  8.5418E-01  3.9920E-01  4.3811E-01  0.0000E+00  7.1454E+00  5.0848E-01  0.0000E+00  5.3305E-01
 32  0.0000E+00  1.0465E+00  9.1093E-01  7.7414E-01  7.5902E-01  0.0000E+00  1.8923E+00  0.0000E+00  6.6939E-01
 33  0.0000E+00  1.9172E+00  7.1568E-01  5.7986E-01  0.0000E+00  2.4670E-01  3.7405E-01  0.0000E+00  2.1861E+00
 34  1.7081E+01  2.8099E+00  1.5672E+00  4.1438E+00  0.0000E+00  1.1646E+01  4.6707E+00  1.0959E+00  2.4962E+00
 35  1.0783E-04  2.8441E-03  8.3250E-04  8.6221E-04  3.9381E-03  7.7615E-03  2.2378E-03  5.1328E-05  3.4545E-03
 36  2.0842E-03  1.1219E-03  1.1908E-04  4.6500E-04  0.0000E+00  1.2342E-03  0.0000E+00  2.1711E-04  1.1831E-03
 37  0.0000E+00  1.7868E-03  2.6677E-03  3.1084E-03  2.4232E-03  1.1337E-03  0.0000E+00  9.3497E-05  1.0111E-03
 38  0.0000E+00  4.0604E-03  2.0186E-03  0.0000E+00  1.4912E-02  1.9137E-03  0.0000E+00  0.0000E+00  3.9276E-03
 39  0.0000E+00  6.5453E-03  0.0000E+00  2.9471E-03  6.0049E-03  3.0321E-03  0.0000E+00  7.4373E-05  6.3041E-03
 40  1.6760E-02  2.0084E-02  8.6441E-03  2.6260E-02  2.0499E-02  5.9647E-02  2.0166E-02  1.4836E-02  1.1877E-02
 41  0.0000E+00  1.0684E-02  7.4167E-03  4.9425E-03  0.0000E+00  0.0000E+00  1.8573E-02  0.0000E+00  7.2164E-03
 42  0.0000E+00  2.0387E-02  1.5996E-02  3.6030E-03  5.9355E-02  3.7227E-02  5.3144E-03  8.2281E-03  2.7028E-03
 43  0.0000E+00  3.9056E-02  1.6623E-01  5.7643E-03  6.4284E-02  1.3378E-01  5.6163E-03  0.0000E+00  4.8329E-02
 44  0.0000E+00  7.2738E-02  6.7639E-02  6.6527E-02  5.2922E-02  4.3179E-01  2.9616E-02  4.0817E-02  4.4416E-02
 45  1.1274E+00  5.5498E-01  2.8140E-01  5.6392E-01  8.6251E-02  5.6513E-01  5.2563E-01  7.9809E-01  4.7109E-01
 46  0.0000E+00  6.5637E+01  7.0979E+01  7.5691E+01  3.5593E+01  2.2756E+01  6.6452E+01  8.6333E+01  7.8355E+01
 47  3.0083E+00  6.6486E-01  1.1915E+00  3.1950E-01  2.4104E-01  4.6035E-01  1.4190E+00  2.5670E-01  3.3407E-01
 48  0.0000E+00  9.1843E-01  3.3051E-01  3.8505E-01  5.5356E-01  2.7759E-01  8.7149E-01  5.9497E-01  5.9914E-02
 49  0.0000E+00  1.5960E+00  1.2044E+00  2.5706E+00  5.2395E+00  8.2967E+00  0.0000E+00  1.4600E+00  8.2838E-02
 50  0.0000E+00  4.1874E+00  7.7684E+00  2.5007E+00  1.5897E+01  0.0000E+00  4.4678E+00  2.9334E+00  1.0160E+00
 51  0.0000E+00  1.8486E-03  2.6603E-04  1.9847E-03  0.0000E+00  7.3032E-03  1.1966E-03  4.1434E-04  0.0000E+00
 52  0.0000E+00  1.1522E-03  2.7046E-04  9.2094E-04  2.9034E-03  4.7050E-03  4.2697E-04  5.3327E-04  3.3308E-04
 53  0.0000E+00  1.7166E-03  9.9074E-04  0.0000E+00  2.1860E-03  0.0000E+00  1.8832E-03  9.6819E-04  7.2374E-04
 54  9.1675E-08  2.9494E-03  1.8984E-03  4.7249E-04  1.8479E-03  4.8966E-03  2.6300E-03  3.6143E-04  3.9629E-04
 55  9.1327E-03  3.8349E-03  4.4513E-03  0.0000E+00  0.0000E+00  2.0112E-02  0.0000E+00  4.1384E-03  2.1212E-03
 56  3.0760E-03  3.1281E-01  3.1112E-01  3.4553E-01  2.0706E-01  1.8105E-01  3.3312E-01  4.3921E-01  3.7917E-01
 57  4.4995E-02  1.4908E-02  5.9596E-03  1.7815E-02  6.1626E-02  8.5377E-02  2.5879E-02  0.0000E+00  2.1287E-03
 58  0.0000E+00  3.2631E-02  5.1786E-03  5.2811E-03  3.2619E-02  5.0311E-02  3.6274E-03  1.1074E-03  1.0186E-02
 59  0.0000E+00  6.8431E-02  3.4498E-02  3.4524E-02  0.0000E+00  5.9022E-02  1.1853E-01  1.0124E-02  1.2046E-02
 60  0.0000E+00  1.0320E-01  1.0185E-01  2.7056E-02  2.1110E-02  2.9863E-01  4.8393E-03  1.4827E-04  0.0000E+00
 61  0.0000E+00  2.6189E-01  2.8219E-01  0.0000E+00  0.0000E+00  0.0000E+00  0.0000E+00  2.6767E-01  1.4281E-01
 62  9.9925E+00  5.1923E-01  1.5294E-01  0.0000E+00  0.0000E+00  1.4482E+00  3.5913E-01  0.0000E+00  4.1119E-01
 63  3.1720E+00  1.1322E+00  8.0747E-01  1.1068E+00  7.2355E-01  4.9730E+00  2.3366E+00  3.2422E-01  2.6747E-01
 64  0.0000E+00  1.0744E+00  4.5311E-01  1.0675E+00  4.0318E+00  0.0000E+00  1.7205E+00  2.1267E-02  4.8816E-02
 65  0.0000E+00  3.8518E+00  3.0727E+00  5.6265E+00  1.0771E+01  0.0000E+00  2.4278E+00  0.0000E+00  2.7350E+00
 66  4.7407E+00  5.8239E+00  3.8005E+00  1.4418E-01  8.6881E+00  3.4735E+01  8.2885E-01  2.4112E+00  3.9014E+00

# AV, chi2 & Mass for <> & i_chain = 1 ...  7 solutions
AV      -0.9853     -0.1157     -0.0909     -0.0970      0.0173     -0.0376     -0.0968     -0.0780     -0.0932
chi2 1.3258E-05  1.4618E-05  1.4516E-05  1.4501E-05  1.4510E-05  1.4414E-05  1.4470E-05  1.4515E-05  1.4498E-05
Mass 2.8475E-14  2.9161E-14  2.9858E-14  2.8764E-14  4.6056E-14  5.3268E-14  3.0256E-14  2.6431E-14  2.8037E-14
-342.21                                  [v0_min (km/s) before EX0s...]
 461.72                                  [vd_min (km/s) before EX0s...]


## Synthetic spectrum (Best Model) ##l_obs f_obs f_syn wei
 3478    [Nl_obs]
 3741.00   -0.74701   0.76289    0.000
 3742.00   -0.34635   0.76288    0.000
 3743.00   -0.02260   0.76558    0.000
 3744.00    0.19497   0.76723    0.000
 3745.00    0.35068   0.77349   -1.000
 3746.00    0.94461   0.77908   -1.000
 3747.00    1.76108   0.78601   -1.000
 3748.00    1.22637   0.79507   -1.000
 3749.00    0.09751   0.80573   -1.000
 3750.00   -0.41630   0.81807    0.000
 3751.00   -0.69790   0.82814    0.000
 3752.00   -0.60019   0.83818    0.000
 3753.00   -0.38091   0.84637    0.000
 3754.00   -0.24028   0.85122    0.000
 3755.00   -0.12072   0.85389    0.000
 3756.00    0.32158   0.85626   -1.000
 3757.00    0.83471   0.85828   -1.000
 3758.00    0.97519   0.85954   -1.000
 3759.00    1.05062   0.85987   -1.000
 3760.00    0.80376   0.86049   -1.000
 3761.00    0.51408   0.85939   -1.000
 3762.00    0.48836   0.85944   -1.000
 3763.00    0.48745   0.86366   -1.000
 3764.00    0.48755   0.86769   -1.000
 3765.00    0.48771   0.87300   -1.000
 3766.00    0.40430   0.88089   -1.000
 3767.00    0.31939   0.89145   -1.000
 3768.00    0.29227   0.90252   -1.000
 3769.00    0.26971   0.91548   -1.000
 3770.00    0.35785   0.93192   -1.000
 3771.00    0.47425   0.94758   -1.000
 3772.00    0.96110   0.96129   -1.000
 3773.00    1.34006   0.97401   -1.000
 3774.00    0.77190   0.98571   -1.000
 3775.00    0.23958   0.99619   -1.000
 3776.00   -0.06036   1.00254    0.000
 3777.00   -0.37099   1.00456    0.000
 3778.00   -0.73576   1.00533    0.000
 3779.00   -1.11774   1.00111    0.000
 3780.00   -1.57012   0.99358    0.000
 3781.00   -1.78471   0.98343    0.000
 3782.00   -1.19279   0.97233    0.000
 3783.00   -0.77487   0.95809    0.000
 3784.00   -0.85460   0.93949    0.000
 3785.00   -0.73563   0.92264    0.000
 3786.00   -0.13121   0.90612    0.000
 3787.00    0.29954   0.89044   -1.000
 3788.00    0.36425   0.87476   -1.000
 3789.00    0.35449   0.86272   -1.000
 3790.00    0.20834   0.85340   -1.000
 3791.00    0.16059   0.84682   -1.000
 3792.00    0.27034   0.84441   -1.000
 3793.00    0.33927   0.84566   -1.000
 3794.00    0.35086   0.85239   -1.000
 3795.00    0.38794   0.85976   -1.000
 3796.00    0.45653   0.87068   -1.000
 3797.00    0.38127   0.88446   -1.000
 3798.00    0.14932   0.90014   -1.000
 3799.00   -0.12037   0.91682    0.000
 3800.00   -0.42631   0.93218    0.000
 3801.00   -0.39327   0.94777    0.000
 3802.00   -0.07299   0.95979    0.000
 3803.00    0.08010   0.96837   -1.000
 3804.00    0.10845   0.97322   -1.000
 3805.00    0.03424   0.97591   -1.000
 3806.00   -0.10718   0.97689    0.000
 3807.00    0.31560   0.97588   -1.000
 3808.00    1.06215   0.97303   -1.000
 3809.00    0.80685   0.96659   -1.000
 3810.00    0.05083   0.95667   -1.000
 3811.00    0.16205   0.94345   -1.000
 3812.00    0.64831   0.93180   -1.000
 3813.00    1.34663   0.92117   -1.000
 3814.00    2.12359   0.90931   -1.000
 3815.00    1.52658   0.89731   -1.000
 3816.00    0.49765   0.88373   -1.000
 3817.00    0.07627   0.86741   -1.000
 3818.00   -0.18574   0.85027    0.000
 3819.00    0.23085   0.83545   -1.000
 3820.00    0.79282   0.82240   -1.000
 3821.00    0.62448   0.80777   -1.000
 3822.00    0.33220   0.79031   -1.000
 3823.00   -0.11860   0.77305    0.000
 3824.00   -0.58974   0.75747    0.000
 3825.00    0.41827   0.74296   -1.000
 3826.00    1.55906   0.73055   -1.000
 3827.00    1.36065   0.72120   -1.000
 3828.00    1.09026   0.71467   -1.000
 3829.00    1.85425   0.70988   -1.000
 3830.00    2.61988   0.70783   -1.000
 3831.00    1.77472   0.71035   -1.000
 3832.00    0.97825   0.71784   -1.000
 3833.00    1.26350   0.72996   -1.000
 3834.00    1.47990   0.74563   -1.000
 3835.00    0.84031   0.76457   -1.000
 3836.00    0.18773   0.78337   -1.000
 3837.00   -0.57454   0.80473    0.000
 3838.00   -1.05308   0.82786    0.000
 3839.00    0.25330   0.84986   -1.000
 3840.00    1.54717   0.87304   -1.000
 3841.00    2.77928   0.89231   -1.000
 3842.00    3.68065   0.91000   -1.000
 3843.00    3.25801   0.92554   -1.000
 3844.00    2.68991   0.93757   -1.000
 3845.00    1.63816   0.94941   -1.000
 3846.00    0.76861   0.95690   -1.000
 3847.00    0.41070   0.96178    0.000
 3848.00    0.16181   0.96549    0.000
 3849.00    0.17481   0.96811    0.000
 3850.00    0.16329   0.97075    0.000
 3851.00    0.10090   0.97042    0.000
 3852.00   -0.32843   0.97061    0.000
 3853.00   -1.41962   0.97157    0.000
 3854.00   -1.73011   0.97212    0.000
 3855.00   -0.80938   0.97505    0.000
 3856.00    0.52528   0.97601    0.000
 3857.00    2.43297   0.97597    0.000
 3858.00    2.93579   0.97646    0.000
 3859.00    1.72681   0.97870    0.000
 3860.00    0.59596   0.98171    0.000
 3861.00   -0.45096   0.98175    0.000
 3862.00   -0.53063   0.98088    0.000
 3863.00    0.30616   0.97685    0.000
 3864.00    0.18622   0.97272    0.000
 3865.00   -0.73298   0.96952    0.000
 3866.00   -1.09134   0.96592    0.000
 3867.00   -1.03719   0.96190    0.000
 3868.00   -0.45313   0.95446    0.000
 3869.00    0.47323   0.94578    0.000
 3870.00    0.99155   0.93699    0.000
 3871.00    1.27928   0.92798    0.000
 3872.00    1.89527   0.92046    0.000
 3873.00    2.67272   0.91258    0.000
 3874.00    1.77748   0.90107    0.000
 3875.00    0.17096   0.88871    0.000
 3876.00    0.13843   0.87554    0.000
 3877.00    0.67922   0.86556    0.000
 3878.00    1.30453   0.85739    0.000
 3879.00    1.95590   0.84549    0.000
 3880.00    0.76218   0.83603    0.000
 3881.00   -0.90521   0.82896    0.000
 3882.00   -0.34394   0.82556    0.000
 3883.00    0.68328   0.82501   -1.000
 3884.00    0.29659   0.82483   -1.000
 3885.00   -0.32324   0.83018    0.000
 3886.00   -0.34681   0.83589    0.000
 3887.00   -0.29654   0.84453    0.000
 3888.00    0.53636   0.85718   -1.000
 3889.00    1.43623   0.87098   -1.000
 3890.00    0.60825   0.88734   -1.000
 3891.00   -0.30585   0.89959    0.000
 3892.00    0.35260   0.91373   -1.000
 3893.00    1.02469   0.92741   -1.000
 3894.00    0.91448   0.94170   -1.000
 3895.00    0.75280   0.95736   -1.000
 3896.00   -0.46164   0.96689    0.000
 3897.00   -1.58326   0.97874    0.000
 3898.00   -1.60716   0.98845    0.000
 3899.00   -1.52168   0.99852    0.000
 3900.00   -0.54521   1.01015    0.000
 3901.00    0.28046   1.01754   -1.000
 3902.00    0.18500   1.02722   -1.000
 3903.00    0.11532   1.03344   -1.000
 3904.00    0.16964   1.03811   -1.000
 3905.00    0.24906   1.04531   -1.000
 3906.00    0.42673   1.04843   -1.000
 3907.00    0.60100   1.05015   -1.000
 3908.00    0.76415   1.04975   -1.000
 3909.00    1.11419   1.04591   -1.000
 3910.00    1.97960   1.04234   -1.000
 3911.00    2.59228   1.03400   -1.000
 3912.00    2.60814   1.02366   -1.000
 3913.00    2.32728   1.01190   -1.000
 3914.00    1.44086   0.99572   -1.000
 3915.00    0.57822   0.97971   -1.000
 3916.00   -0.24221   0.95973    0.000
 3917.00   -0.36034   0.93824    0.000
 3918.00    0.61276   0.91376   -1.000
 3919.00    1.65643   0.88628   -1.000
 3920.00    2.79637   0.85979   -1.000
 3921.00    2.93492   0.83051   -1.000
 3922.00    1.87059   0.80284   -1.000
 3923.00    1.19000   0.77467   -1.000
 3924.00    0.91584   0.74729   -1.000
 3925.00    0.70956   0.72391   -1.000
 3926.00    0.56671   0.70274   -1.000
 3927.00    0.41537   0.68821   -1.000
 3928.00    0.25705   0.67934   -1.000
 3929.00    0.18194   0.67572   -1.000
 3930.00    0.16716   0.67831   -1.000
 3931.00    0.17633   0.68580   -1.000
 3932.00    0.20075   0.69972   -1.000
 3933.00    0.41606   0.71951   -1.000
 3934.00    0.73760   0.74223   -1.000
 3935.00    1.04887   0.76744   -1.000
 3936.00    1.35515   0.79361   -1.000
 3937.00    0.94177   0.82030   -1.000
 3938.00    0.22753   0.84885   -1.000
 3939.00    0.32792   0.87618   -1.000
 3940.00    0.71971   0.89991   -1.000
 3941.00    1.38967   0.92049   -1.000
 3942.00    2.14369   0.93958   -1.000
 3943.00    1.80038   0.95758   -1.000
 3944.00    1.18145   0.97236   -1.000
 3945.00    0.54109   0.98088   -1.000
 3946.00   -0.10363   0.98583    0.000
 3947.00    0.05770   0.99041   -1.000
 3948.00    0.34810   0.98978   -1.000
 3949.00    0.20813   0.98290   -1.000
 3950.00    0.01678   0.97195   -1.000
 3951.00    0.10257   0.95870   -1.000
 3952.00    0.21093   0.94374   -1.000
 3953.00    0.55987   0.92202   -1.000
 3954.00    0.91986   0.89338   -1.000
 3955.00    0.66847   0.86402   -1.000
 3956.00    0.42008   0.83530   -1.000
 3957.00    0.73452   0.80594   -1.000
 3958.00    1.03043   0.77527   -1.000
 3959.00    0.97530   0.74340   -1.000
 3960.00    0.90833   0.71532    0.000
 3961.00    0.70786   0.69275    0.000
 3962.00    0.53740   0.67580    0.000
 3963.00    0.60280   0.66595    0.000
 3964.00    0.52381   0.66160    0.000
 3965.00   -0.41196   0.66429    0.000
 3966.00   -1.16676   0.67422    0.000
 3967.00   -1.07188   0.69114    0.000
 3968.00   -0.76709   0.71609    0.000
 3969.00    0.34212   0.74422    0.000
 3970.00    1.08078   0.77545    0.000
 3971.00    0.63506   0.81045    0.000
 3972.00    0.48991   0.84616    0.000
 3973.00    1.15878   0.88388    0.000
 3974.00    1.41873   0.91814    0.000
 3975.00    0.72916   0.94942    0.000
 3976.00    0.28842   0.98194    0.000
 3977.00    0.34746   1.01002    0.000
 3978.00    0.57863   1.03683    0.000
 3979.00    1.11092   1.05906    0.000
 3980.00    1.09152   1.07693    0.000
 3981.00    0.22752   1.09697   -1.000
 3982.00   -0.28331   1.11085    0.000
 3983.00   -0.31918   1.12358    0.000
 3984.00    0.07329   1.13492   -1.000
 3985.00    0.97302   1.14286   -1.000
 3986.00    1.11873   1.15299   -1.000
 3987.00    0.47711   1.15863   -1.000
 3988.00    0.40285   1.16358   -1.000
 3989.00    0.85115   1.16809   -1.000
 3990.00    0.87458   1.17094   -1.000
 3991.00    0.55304   1.17557   -1.000
 3992.00    0.62453   1.17864   -1.000
 3993.00    0.97683   1.18026   -1.000
 3994.00    0.83601   1.18144   -1.000
 3995.00    0.38600   1.18393   -1.000
 3996.00    0.63859   1.18763   -1.000
 3997.00    1.27623   1.18992   -1.000
 3998.00    1.70054   1.19030   -1.000
 3999.00    2.02323   1.19200   -1.000
 4000.00    1.67099   1.19605   -1.000
 4001.00    1.04133   1.20092   -1.000
 4002.00    0.89018   1.20420   -1.000
 4003.00    0.90708   1.20642   -1.000
 4004.00    0.70125   1.21086   -1.000
 4005.00    0.42943   1.21519   -1.000
 4006.00    0.07013   1.22107   -1.000
 4007.00   -0.31066   1.22586    0.000
 4008.00    0.02195   1.22943   -1.000
 4009.00    0.49641   1.23445   -1.000
 4010.00    0.76595   1.23659   -1.000
 4011.00    1.00365   1.24053   -1.000
 4012.00    1.30065   1.24350   -1.000
 4013.00    1.60446   1.24415   -1.000
 4014.00    2.22288   1.24597   -1.000
 4015.00    2.86563   1.24475   -1.000
 4016.00    1.99114   1.24466   -1.000
 4017.00    1.05275   1.24349   -1.000
 4018.00    1.00543   1.23913   -1.000
 4019.00    0.96036   1.23712   -1.000
 4020.00    0.65754   1.23391   -1.000
 4021.00    0.39148   1.23078   -1.000
 4022.00    0.77358   1.22777   -1.000
 4023.00    1.08346   1.22113   -1.000
 4024.00    0.61632   1.21843   -1.000
 4025.00    0.23016   1.21749   -1.000
 4026.00    0.45877   1.21540   -1.000
 4027.00    0.71396   1.21545   -1.000
 4028.00    1.12239   1.21184   -1.000
 4029.00    1.37035   1.21169   -1.000
 4030.00    0.88289   1.21569   -1.000
 4031.00    0.52367   1.21651   -1.000
 4032.00    0.64554   1.21855   -1.000
 4033.00    0.87166   1.21642   -1.000
 4034.00    1.42460   1.21546   -1.000
 4035.00    1.77843   1.21992   -1.000
 4036.00    1.60255   1.21993   -1.000
 4037.00    1.55851   1.21881   -1.000
 4038.00    1.81552   1.21482   -1.000
 4039.00    1.88492   1.21120   -1.000
 4040.00    1.58344   1.21421   -1.000
 4041.00    1.33452   1.21405   -1.000
 4042.00    1.17615   1.21152   -1.000
 4043.00    1.06375   1.20906   -1.000
 4044.00    1.02070   1.20714   -1.000
 4045.00    0.99444   1.20916   -1.000
 4046.00    0.99045   1.20929   -1.000
 4047.00    0.84527   1.20688   -1.000
 4048.00    0.53526   1.20532   -1.000
 4049.00    0.38775   1.20456   -1.000
 4050.00    0.40757   1.20299   -1.000
 4051.00    0.47763   1.19928   -1.000
 4052.00    0.59331   1.19593   -1.000
 4053.00    0.56450   1.19383   -1.000
 4054.00    0.42004   1.19204   -1.000
 4055.00    0.49529   1.18849   -1.000
 4056.00    0.72524   1.18227   -1.000
 4057.00    1.00000   1.17956   -1.000
 4058.00    1.30244   1.18016   -1.000
 4059.00    1.33964   1.17796   -1.000
 4060.00    1.23373   1.17488   -1.000
 4061.00    1.03070   1.17104   -1.000
 4062.00    0.78216   1.17005   -1.000
 4063.00    1.20268   1.17299   -1.000
 4064.00    1.89351   1.17042   -1.000
 4065.00    1.66591   1.16668   -1.000
 4066.00    1.12164   1.16629   -1.000
 4067.00    2.01441   1.16644   -1.000
 4068.00    3.32446   1.16861   -1.000
 4069.00    3.08081   1.16708   -1.000
 4070.00    2.46397   1.16391   -1.000
 4071.00    2.14251   1.16674   -1.000
 4072.00    1.87828   1.16986   -1.000
 4073.00    1.43462   1.17291   -1.000
 4074.00    0.96392   1.17596   -1.000
 4075.00    1.41044   1.17707   -1.000
 4076.00    1.95842   1.18222   -1.000
 4077.00    1.82830   1.18791   -1.000
 4078.00    1.64853   1.19188   -1.000
 4079.00    1.52555   1.19617   -1.000
 4080.00    1.40474   1.19740   -1.000
 4081.00    1.00176   1.19885   -1.000
 4082.00    0.61917   1.19928   -1.000
 4083.00    1.06418   1.19642   -1.000
 4084.00    1.43828   1.19241   -1.000
 4085.00    0.64365   1.18414   -1.000
 4086.00    0.00162   1.17445   -1.000
 4087.00    0.92989   1.16378   -1.000
 4088.00    1.74920   1.14925   -1.000
 4089.00    1.76898   1.13360   -1.000
 4090.00    1.76366   1.11649   -1.000
 4091.00    1.61758   1.09967   -1.000
 4092.00    1.52628   1.08508    0.000
 4093.00    1.68013   1.07020    0.000
 4094.00    1.66574   1.05529    0.000
 4095.00    1.03343   1.04457    0.000
 4096.00    0.65849   1.03845    0.000
 4097.00    1.07506   1.03542    0.000
 4098.00    1.37867   1.03579    0.000
 4099.00    1.38703   1.03684    0.000
 4100.00    1.38736   1.04212    0.000
 4101.00    1.36966   1.05345    0.000
 4102.00    1.34262   1.06466    0.000
 4103.00    1.29743   1.07689    0.000
 4104.00    1.32480   1.08977    0.000
 4105.00    1.47531   1.10255    0.000
 4106.00    1.71430   1.11755    0.000
 4107.00    2.08481   1.13046    0.000
 4108.00    2.05821   1.14076    0.000
 4109.00    1.51276   1.15143    0.000
 4110.00    1.13625   1.16096    0.000
 4111.00    0.95419   1.16809    0.000
 4112.00    0.76419   1.17374    0.000
 4113.00    0.56612   1.17774   -1.000
 4114.00    0.67535   1.18139   -1.000
 4115.00    1.05973   1.18507   -1.000
 4116.00    0.95429   1.18495   -1.000
 4117.00    0.46238   1.18392   -1.000
 4118.00    0.14032   1.18472   -1.000
 4119.00   -0.06387   1.18413    0.000
 4120.00    0.59175   1.18351    0.067
 4121.00    1.77059   1.18143    0.026
 4122.00    2.17976   1.17791    0.021
 4123.00    2.18004   1.17854    0.021
 4124.00    2.27053   1.17798    0.021
 4125.00    2.40261   1.17607    0.021
 4126.00    2.23751   1.17680    0.021
 4127.00    1.95441   1.17473    0.021
 4128.00    1.08048   1.17621    0.021
 4129.00    0.00659   1.17873    0.021
 4130.00    0.77938   1.17760    0.021
 4131.00    2.07760   1.18032    0.021
 4132.00    1.48952   1.18019    0.020
 4133.00    0.45857   1.18018    0.020
 4134.00    0.40989   1.18291    0.020
 4135.00    0.54661   1.18162    0.020
 4136.00    1.30982   1.18137    0.020
 4137.00    2.16452   1.18069    0.021
 4138.00    1.61365   1.17959    0.020
 4139.00    0.91340   1.17964    0.020
 4140.00    0.71559   1.17839    0.020
 4141.00    0.55253   1.17650    0.020
 4142.00    0.72100   1.17515    0.020
 4143.00    0.90090   1.17647    0.020
 4144.00    0.87469   1.17665    0.019
 4145.00    0.86381   1.17653    0.019
 4146.00    1.37244   1.17672    0.019
 4147.00    1.82847   1.17647    0.019
 4148.00    1.47113   1.18013    0.019
 4149.00    1.15865   1.18237    0.019
 4150.00    1.28834   1.18411    0.018
 4151.00    1.42751   1.18670    0.018
 4152.00    1.63402   1.18773    0.018
 4153.00    1.69286   1.19170    0.018
 4154.00    0.94555   1.19402    0.018
 4155.00    0.42977   1.19574    0.018
 4156.00    0.92598   1.19770    0.018
 4157.00    1.35650   1.19594    0.018
 4158.00    1.55074   1.19618    0.018
 4159.00    1.72579   1.19509    0.018
 4160.00    1.84291   1.19230    0.018
 4161.00    1.86891   1.18988    0.018
 4162.00    1.66087   1.18304    0.018
 4163.00    1.37517   1.17757    0.018
 4164.00    0.91790   1.17377    0.018
 4165.00    0.61050   1.16769    0.018
 4166.00    0.59021   1.16235    0.018
 4167.00    0.63451   1.15621    0.018
 4168.00    0.78679   1.15103    0.018
 4169.00    1.03481   1.14899    0.018
 4170.00    1.42310   1.14645    0.018
 4171.00    1.59584   1.14342    0.018
 4172.00    1.49098   1.14216    0.018
 4173.00    1.31936   1.14334    0.018
 4174.00    1.07198   1.14494    0.018
 4175.00    0.84589   1.14700    0.018
 4176.00    0.64108   1.14777    0.018
 4177.00    0.67563   1.14800    0.018
 4178.00    0.92147   1.15332    0.018
 4179.00    0.93716   1.15725    0.018
 4180.00    0.77386   1.15791    0.018
 4181.00    1.01434   1.15880    0.018
 4182.00    1.53095   1.15934    0.019
 4183.00    1.90443   1.16354    0.019
 4184.00    2.19212   1.16533    0.018
 4185.00    1.91899   1.16153    0.018
 4186.00    1.35253   1.16015    0.019
 4187.00    1.20199   1.16069    0.019
 4188.00    1.24011   1.15960    0.018
 4189.00    1.33049   1.15657    0.018
 4190.00    1.44125   1.15346    0.019
 4191.00    1.73520   1.15090    0.018
 4192.00    2.08999   1.14938    0.018
 4193.00    1.70851   1.14828    0.018
 4194.00    1.12181   1.14540    0.018
 4195.00    0.68132   1.14542    0.018
 4196.00    0.27438   1.14706    0.018
 4197.00    0.71539   1.14719    0.018
 4198.00    1.31223   1.15098    0.018
 4199.00    1.44689   1.15363    0.018
 4200.00    1.51619   1.15464    0.018
 4201.00    1.32866   1.16007    0.018
 4202.00    1.11496   1.16438    0.017
 4203.00    1.45655   1.16848    0.017
 4204.00    1.83432   1.17279    0.017
 4205.00    1.89548   1.17177    0.017
 4206.00    1.94593   1.17398    0.017
 4207.00    1.36257   1.17855    0.017
 4208.00    0.79038   1.17709    0.017
 4209.00    0.54641   1.17573    0.017
 4210.00    0.33341   1.17397    0.017
 4211.00    0.57109   1.17060    0.017
 4212.00    0.83852   1.16802    0.017
 4213.00    1.38728   1.16182    0.017
 4214.00    1.77246   1.15480    0.017
 4215.00    1.03311   1.15076    0.017
 4216.00    0.41184   1.14351    0.016
 4217.00    0.41810   1.13434    0.016
 4218.00    0.54836   1.12997    0.016
 4219.00    1.20826   1.12526    0.016
 4220.00    1.58921   1.11988    0.016
 4221.00    0.98738   1.11689    0.016
 4222.00    0.52870   1.11210    0.016
 4223.00    0.49391   1.11127    0.016
 4224.00    0.49364   1.11426    0.016
 4225.00    0.58046   1.11322    0.016
 4226.00    0.57652   1.11611    0.016
 4227.00    0.37536   1.12163    0.016
 4228.00    0.32610   1.12374    0.016
 4229.00    0.56328   1.12820    0.016
 4230.00    0.74708   1.13234    0.016
 4231.00    0.84298   1.13724    0.016
 4232.00    0.95608   1.14398    0.016
 4233.00    1.09401   1.14697    0.015
 4234.00    1.16890   1.15069    0.015
 4235.00    1.16376   1.15464    0.015
 4236.00    1.06094   1.15628    0.015
 4237.00    0.84884   1.15717    0.015
 4238.00    0.89660   1.15810    0.015
 4239.00    1.20078   1.16062    0.015
 4240.00    1.25878   1.15905    0.015
 4241.00    1.10252   1.15654    0.015
 4242.00    1.03194   1.15641    0.015
 4243.00    1.02706   1.15434    0.015
 4244.00    1.17945   1.15356    0.016
 4245.00    1.43782   1.14911    0.016
 4246.00    1.27321   1.14628    0.016
 4247.00    0.85887   1.14987    0.016
 4248.00    0.76225   1.14712    0.016
 4249.00    0.82921   1.14406    0.016
 4250.00    0.90403   1.14375    0.017
 4251.00    0.98235   1.14403    0.016
 4252.00    1.29626   1.14799    0.017
 4253.00    1.70051   1.14649    0.017
 4254.00    1.70276   1.14536    0.017
 4255.00    1.57401   1.14912    0.016
 4256.00    1.86141   1.14866    0.016
 4257.00    2.26240   1.14803    0.016
 4258.00    2.33151   1.14699    0.016
 4259.00    2.32623   1.14514    0.017
 4260.00    1.74969   1.14642    0.017
 4261.00    1.07097   1.14225    0.017
 4262.00    0.80741   1.13600    0.017
 4263.00    0.60065   1.13441    0.017
 4264.00    0.50598   1.13010    0.016
 4265.00    0.42225   1.12666    0.016
 4266.00    0.95475   1.12317    0.016
 4267.00    1.52493   1.11770    0.016
 4268.00    1.68343   1.11925    0.016
 4269.00    1.83033   1.11651    0.016
 4270.00    1.87972   1.11095    0.016
 4271.00    1.92706   1.11427    0.016
 4272.00    1.92037   1.11311    0.016
 4273.00    1.90858   1.11209    0.016
 4274.00    1.82677   1.11322    0.016
 4275.00    1.73875   1.10837    0.016
 4276.00    1.59423   1.10870    0.016
 4277.00    1.45391   1.10719    0.016
 4278.00    1.34164   1.10101    0.016
 4279.00    1.24754   1.09984    0.016
 4280.00    1.24752   1.09427    0.016
 4281.00    1.25556   1.08647    0.016
 4282.00    1.29729   1.08329   -2.000
 4283.00    1.55520   1.07632   -2.000
 4284.00    2.55939   1.06599   -2.000
 4285.00    3.30011   1.05883   -2.000
 4286.00    3.27504   1.05079   -2.000
 4287.00    2.89470   1.04285   -2.000
 4288.00    1.63315   1.03618   -2.000
 4289.00    0.56994   1.02276   -2.000
 4290.00   -0.06925   1.01369   -2.000
 4291.00   -0.23422   1.00883   -2.000
 4292.00    0.48132   0.99539   -2.000
 4293.00    1.17877   0.98670   -2.000
 4294.00    1.84687   0.97878   -2.000
 4295.00    1.98274   0.96855   -2.000
 4296.00    1.36144   0.96703   -2.000
 4297.00    0.96512   0.96009   -2.000
 4298.00    0.85041   0.95412    0.015
 4299.00    0.87942   0.95801    0.015
 4300.00    1.06697   0.95782    0.015
 4301.00    1.01041   0.96085    0.015
 4302.00    0.71635   0.96788    0.015
 4303.00    0.61917   0.97423    0.014
 4304.00    0.69090   0.98651    0.015
 4305.00    0.90683   0.99926    0.015
 4306.00    1.23174   1.01238    0.015
 4307.00    1.08033   1.02809    0.015
 4308.00    0.61261   1.04291    0.015
 4309.00    0.67492   1.05763    0.015
 4310.00    1.04545   1.07077    0.015
 4311.00    1.22742   1.08512    0.015
 4312.00    1.31383   1.09682    0.014
 4313.00    1.19018   1.10380    0.014
 4314.00    0.97434   1.11418    0.014
 4315.00    1.10424   1.12029    0.014
 4316.00    1.36438   1.12158    0.014
 4317.00    1.59923   1.12532    0.014
 4318.00    1.82599   1.12482    0.015
 4319.00    1.63772   1.12439    0.015
 4320.00    1.33853   1.12256    0.015
 4321.00    1.43189   1.11685    0.015
 4322.00    1.61114   1.11673    0.015
 4323.00    1.46154   1.11454    0.015
 4324.00    1.25474   1.10607    0.015
 4325.00    1.13218   1.10026    0.014
 4326.00    1.02076   1.09419    0.014
 4327.00    1.48795   1.08488    0.015
 4328.00    2.00921   1.07585    0.015
 4329.00    1.72829   1.06760    0.015
 4330.00    1.40150   1.05938    0.000
 4331.00    1.61150   1.05188    0.000
 4332.00    1.82692   1.04201    0.000
 4333.00    1.22993   1.03373    0.000
 4334.00    0.69915   1.03073    0.000
 4335.00    1.75801   1.02445    0.000
 4336.00    2.70874   1.02255    0.000
 4337.00    2.25185   1.02958    0.000
 4338.00    1.83264   1.03049    0.000
 4339.00    1.74267   1.03289    0.000
 4340.00    1.61175   1.04442    0.000
 4341.00    1.21629   1.05293    0.000
 4342.00    0.91635   1.06059    0.000
 4343.00    1.09827   1.07110    0.000
 4344.00    1.26334   1.08304    0.000
 4345.00    1.35961   1.09655    0.000
 4346.00    1.46409   1.10362    0.000
 4347.00    1.59636   1.11031    0.000
 4348.00    1.64407   1.12594    0.000
 4349.00    1.45054   1.13696    0.000
 4350.00    1.28950   1.14154    0.000
 4351.00    1.20765   1.15146    0.043
 4352.00    1.25033   1.16289   -1.000
 4353.00    1.55495   1.16957   -1.000
 4354.00    1.81660   1.17253   -1.000
 4355.00    1.99972   1.17766   -1.000
 4356.00    1.85955   1.18656   -1.000
 4357.00    1.20288   1.19047   -1.000
 4358.00    0.85603   1.18980    0.068
 4359.00    0.94360   1.19238    0.020
 4360.00    1.28714   1.19525    0.014
 4361.00    1.94649   1.19322    0.015
 4362.00    2.22785   1.18792    0.015
 4363.00    2.09810   1.18511    0.014
 4364.00    1.80322   1.18445    0.014
 4365.00    1.34994   1.17946    0.015
 4366.00    1.37769   1.17231    0.015
 4367.00    1.81234   1.16768    0.014
 4368.00    1.64103   1.16350    0.014
 4369.00    1.01836   1.15584    0.014
 4370.00    0.89999   1.14644    0.014
 4371.00    1.11158   1.14081    0.014
 4372.00    1.12590   1.13708    0.014
 4373.00    1.02723   1.13180    0.014
 4374.00    1.19162   1.12468    0.014
 4375.00    1.48724   1.11773    0.014
 4376.00    1.65493   1.11547    0.014
 4377.00    1.76742   1.11198    0.014
 4378.00    1.58544   1.10411    0.014
 4379.00    1.29449   1.10119    0.014
 4380.00    1.06895   1.10341    0.014
 4381.00    0.86392   1.10565    0.014
 4382.00    1.05323   1.10551    0.014
 4383.00    1.34570   1.10657    0.014
 4384.00    1.71210   1.11178    0.014
 4385.00    2.09428   1.11501    0.014
 4386.00    2.02675   1.11715    0.014
 4387.00    1.88317   1.12164    0.014
 4388.00    1.86938   1.12666    0.014
 4389.00    1.87216   1.13107    0.014
 4390.00    1.75795   1.13250    0.014
 4391.00    1.63329   1.13537    0.014
 4392.00    1.35509   1.13954    0.014
 4393.00    1.06871   1.14010    0.013
 4394.00    1.40541   1.14175    0.013
 4395.00    1.75156   1.14154    0.014
 4396.00    1.87400   1.13978    0.014
 4397.00    1.98891   1.14404    0.014
 4398.00    1.93825   1.14566    0.014
 4399.00    1.86331   1.14170    0.014
 4400.00    1.48845   1.14298    0.013
 4401.00    1.15352   1.14754    0.013
 4402.00    1.15451   1.14924    0.013
 4403.00    1.16828   1.14934    0.013
 4404.00    1.26217   1.15145    0.013
 4405.00    1.36530   1.15793    0.013
 4406.00    1.51394   1.16067    0.013
 4407.00    1.69697   1.16009    0.013
 4408.00    2.01730   1.16643    0.013
 4409.00    2.25763   1.16981    0.013
 4410.00    2.23268   1.16823    0.013
 4411.00    2.14239   1.17281    0.013
 4412.00    1.86899   1.17638    0.013
 4413.00    1.64152   1.17756    0.013
 4414.00    1.52412   1.17972    0.013
 4415.00    1.50498   1.18094    0.013
 4416.00    1.68921   1.18335    0.013
 4417.00    1.66221   1.18235    0.013
 4418.00    1.25497   1.18088    0.013
 4419.00    1.00245   1.18266    0.013
 4420.00    0.99346   1.18257    0.013
 4421.00    1.12006   1.18212    0.013
 4422.00    1.43400   1.18007    0.013
 4423.00    1.72582   1.18044    0.013
 4424.00    1.99073   1.18244    0.013
 4425.00    2.06169   1.17777    0.013
 4426.00    1.92467   1.17726    0.013
 4427.00    1.75638   1.17948    0.013
 4428.00    1.55851   1.17722    0.013
 4429.00    1.36320   1.17853    0.013
 4430.00    1.17001   1.17803    0.013
 4431.00    1.19265   1.17756    0.013
 4432.00    1.37374   1.18217    0.013
 4433.00    1.64907   1.18160    0.014
 4434.00    1.98515   1.18149    0.014
 4435.00    1.79072   1.18483    0.014
 4436.00    1.29704   1.18381    0.014
 4437.00    1.02517   1.18464    0.013
 4438.00    0.86218   1.18575    0.013
 4439.00    1.05285   1.18287    0.014
 4440.00    1.39360   1.18531    0.014
 4441.00    1.35126   1.18643    0.014
 4442.00    1.16970   1.18004    0.014
 4443.00    1.55366   1.17908    0.014
 4444.00    2.11154   1.17910    0.014
 4445.00    2.06105   1.17212    0.014
 4446.00    1.85481   1.16797    0.014
 4447.00    1.73147   1.16508    0.014
 4448.00    1.62541   1.16028    0.014
 4449.00    1.99656   1.15692    0.014
 4450.00    2.44612   1.15082    0.014
 4451.00    1.98203   1.14694    0.014
 4452.00    1.40531   1.14823    0.013
 4453.00    1.46744   1.14368    0.013
 4454.00    1.58390   1.13995    0.014
 4455.00    1.43587   1.14473    0.013
 4456.00    1.27479   1.14454    0.013
 4457.00    1.63638   1.14323    0.013
 4458.00    1.99433   1.14942    0.013
 4459.00    1.60201   1.15331    0.013
 4460.00    1.24029   1.15638    0.013
 4461.00    1.49837   1.16170    0.000
 4462.00    1.71661   1.16669    0.000
 4463.00    1.46670   1.17352    0.000
 4464.00    1.23364   1.17845    0.000
 4465.00    1.13729   1.18311    0.000
 4466.00    1.09408   1.19094    0.000
 4467.00    1.37435   1.19556    0.000
 4468.00    1.62387   1.19900    0.000
 4469.00    1.72594   1.20510    0.000
 4470.00    1.81377   1.20848    0.000
 4471.00    1.84599   1.20994    0.000
 4472.00    1.92705   1.21280    0.000
 4473.00    2.16687   1.21466    0.000
 4474.00    2.23241   1.21476    0.000
 4475.00    1.81846   1.21553    0.000
 4476.00    1.49485   1.21611    0.000
 4477.00    1.38414   1.21534    0.000
 4478.00    1.32578   1.21568    0.000
 4479.00    1.37408   1.21600    0.000
 4480.00    1.57149   1.21478    0.000
 4481.00    2.03325   1.21431    0.000
 4482.00    2.17512   1.21395    0.013
 4483.00    1.82090   1.21318    0.013
 4484.00    1.62826   1.21413    0.013
 4485.00    1.65570   1.21443    0.013
 4486.00    1.59740   1.21418    0.013
 4487.00    1.43629   1.21691    0.013
 4488.00    1.39520   1.21881    0.013
 4489.00    1.48097   1.22009    0.013
 4490.00    1.53881   1.22408    0.013
 4491.00    1.57060   1.22775    0.013
 4492.00    1.59498   1.23161    0.013
 4493.00    1.61326   1.23522    0.013
 4494.00    1.53712   1.23940    0.013
 4495.00    1.39266   1.24588    0.013
 4496.00    1.48920   1.24913    0.013
 4497.00    1.73883   1.25234    0.013
 4498.00    1.86266   1.25816    0.013
 4499.00    1.91660   1.26064    0.013
 4500.00    1.83668   1.26228    0.013
 4501.00    1.69209   1.26433    0.013
 4502.00    1.58444   1.26546    0.013
 4503.00    1.49221   1.26567    0.013
 4504.00    1.37668   1.26330    0.012
 4505.00    1.25284   1.26245    0.012
 4506.00    1.45296   1.26040    0.013
 4507.00    1.75076   1.25480    0.013
 4508.00    1.69340   1.25237    0.012
 4509.00    1.54708   1.24769    0.012
 4510.00    1.41908   1.24098    0.012
 4511.00    1.29480   1.23683    0.012
 4512.00    1.30873   1.22954    0.012
 4513.00    1.34470   1.22390    0.012
 4514.00    1.14091   1.21738    0.012
 4515.00    0.90862   1.20767    0.012
 4516.00    1.20279   1.20365    0.012
 4517.00    1.53954   1.19600    0.012
 4518.00    1.43844   1.18621    0.012
 4519.00    1.31742   1.18240    0.012
 4520.00    1.55360   1.17469    0.012
 4521.00    1.79035   1.16814    0.012
 4522.00    1.83243   1.16529    0.012
 4523.00    1.86782   1.15943    0.012
 4524.00    1.77755   1.15783    0.012
 4525.00    1.69014   1.15633    0.012
 4526.00    1.63493   1.15357    0.012
 4527.00    1.58910   1.15509    0.012
 4528.00    1.61677   1.15563    0.012
 4529.00    1.63256   1.15848    0.012
 4530.00    1.57814   1.16159    0.012
 4531.00    1.51525   1.16293    0.012
 4532.00    1.41267   1.16793    0.012
 4533.00    1.29295   1.16972    0.012
 4534.00    1.10774   1.17176    0.012
 4535.00    1.00528   1.17731    0.012
 4536.00    1.16671   1.17721    0.012
 4537.00    1.32771   1.17837    0.012
 4538.00    1.48751   1.18115    0.012
 4539.00    1.51197   1.18038    0.012
 4540.00    1.22284   1.18236    0.012
 4541.00    1.07632   1.18038    0.012
 4542.00    1.21566   1.17885    0.012
 4543.00    1.31377   1.18370    0.012
 4544.00    1.33990   1.18109    0.012
 4545.00    1.34177   1.18000    0.012
 4546.00    1.30655   1.18438    0.012
 4547.00    1.33411   1.18247    0.012
 4548.00    1.44593   1.18439    0.012
 4549.00    1.51678   1.18950    0.012
 4550.00    1.53920   1.18973    0.000
 4551.00    1.53889   1.19348    0.000
 4552.00    1.51490   1.19671    0.000
 4553.00    1.46354   1.19866    0.000
 4554.00    1.38703   1.20400    0.000
 4555.00    1.46123   1.20502    0.000
 4556.00    1.65757   1.20730    0.000
 4557.00    1.52115   1.21148    0.000
 4558.00    1.14741   1.21163    0.000
 4559.00    1.12687   1.21560    0.000
 4560.00    1.32737   1.21657    0.000
 4561.00    1.39847   1.21490    0.000
 4562.00    1.39881   1.21989    0.000
 4563.00    1.39099   1.21783    0.000
 4564.00    1.37931   1.21447    0.000
 4565.00    1.41612   1.21953    0.000
 4566.00    1.47282   1.21634    0.000
 4567.00    1.32433   1.21240    0.000
 4568.00    1.10394   1.21489    0.000
 4569.00    0.92332   1.21045    0.000
 4570.00    0.75446   1.20740    0.000
 4571.00    0.89962   1.20774    0.000
 4572.00    1.12170   1.20215    0.000
 4573.00    1.24228   1.20021    0.000
 4574.00    1.34274   1.20013    0.000
 4575.00    1.57074   1.19449    0.000
 4576.00    1.81849   1.19350    0.000
 4577.00    1.66481   1.19360    0.000
 4578.00    1.46520   1.18866    0.000
 4579.00    1.30215   1.18903    0.000
 4580.00    1.14192   1.18983    0.000
 4581.00    1.27336   1.18609    0.000
 4582.00    1.41694   1.18735    0.000
 4583.00    1.50403   1.18805    0.000
 4584.00    1.58387   1.18518    0.000
 4585.00    1.37333   1.18751    0.000
 4586.00    1.18119   1.18790    0.000
 4587.00    1.31075   1.18581    0.000
 4588.00    1.43474   1.18912    0.000
 4589.00    1.49927   1.18885    0.000
 4590.00    1.56465   1.18769    0.000
 4591.00    1.63643   1.19169    0.000
 4592.00    1.65367   1.19130    0.000
 4593.00    1.35746   1.19154    0.000
 4594.00    1.05315   1.19561    0.000
 4595.00    0.71176   1.19620    0.000
 4596.00    0.53240   1.19794    0.000
 4597.00    0.95917   1.20171    0.000
 4598.00    1.28035   1.20390    0.000
 4599.00    1.27127   1.20621    0.000
 4600.00    1.18540   1.20944    0.000
 4601.00    0.89571   1.21317    0.000
 4602.00    0.84057   1.21465    0.000
 4603.00    1.31991   1.21726    0.000
 4604.00    1.59867   1.22196    0.000
 4605.00    1.48169   1.22147    0.000
 4606.00    1.39229   1.22366    0.000
 4607.00    1.35031   1.22854    0.000
 4608.00    1.29127   1.22576    0.000
 4609.00    1.20657   1.22745    0.000
 4610.00    1.21967   1.23201    0.000
 4611.00    1.36219   1.22803    0.000
 4612.00    1.45632   1.22892    0.000
 4613.00    1.49405   1.23231    0.000
 4614.00    1.54539   1.22841    0.000
 4615.00    1.61074   1.22826    0.000
 4616.00    1.59093   1.22997    0.000
 4617.00    1.49394   1.22711    0.000
 4618.00    1.50761   1.22568    0.000
 4619.00    1.60971   1.22512    0.000
 4620.00    1.68355   1.22351    0.000
 4621.00    1.73752   1.22163    0.000
 4622.00    1.61571   1.21888    0.000
 4623.00    1.38553   1.21675    0.000
 4624.00    1.40368   1.21475    0.000
 4625.00    1.55557   1.21161    0.000
 4626.00    1.49579   1.20805    0.000
 4627.00    1.33701   1.20567    0.000
 4628.00    1.09768   1.20299    0.000
 4629.00    0.82588   1.19802    0.000
 4630.00    1.00162   1.19570    0.000
 4631.00    1.33130   1.19400    0.000
 4632.00    1.36599   1.18811    0.000
 4633.00    1.31522   1.18583    0.000
 4634.00    1.20357   1.18468    0.000
 4635.00    1.07735   1.17886    0.000
 4636.00    1.22709   1.17731    0.000
 4637.00    1.43014   1.17622    0.000
 4638.00    1.39994   1.17180    0.000
 4639.00    1.33472   1.17202    0.000
 4640.00    1.14772   1.17044    0.000
 4641.00    0.94731   1.16772    0.000
 4642.00    1.21381   1.16989    0.000
 4643.00    1.51427   1.16804    0.000
 4644.00    1.27455   1.16712    0.000
 4645.00    1.01441   1.17070    0.000
 4646.00    0.89538   1.16902    0.000
 4647.00    0.78640   1.16958    0.000
 4648.00    1.02256   1.17334    0.000
 4649.00    1.24246   1.17154    0.000
 4650.00    1.19655   1.17215    0.000
 4651.00    1.16069   1.17491    0.000
 4652.00    1.22759   1.17250    0.000
 4653.00    1.29786   1.17169    0.000
 4654.00    1.39282   1.17286    0.000
 4655.00    1.44679   1.16996    0.000
 4656.00    1.27163   1.16746    0.000
 4657.00    1.12581   1.16722    0.000
 4658.00    1.11086   1.16418    0.000
 4659.00    1.11594   1.16108    0.000
 4660.00    1.19437   1.16049    0.000
 4661.00    1.24631   1.15771    0.000
 4662.00    1.21698   1.15541    0.000
 4663.00    1.20174   1.15581    0.000
 4664.00    1.22324   1.15372    0.000
 4665.00    1.27135   1.15287    0.000
 4666.00    1.37910   1.15480    0.000
 4667.00    1.36564   1.15359    0.000
 4668.00    1.11679   1.15393    0.000
 4669.00    1.00124   1.15700    0.000
 4670.00    1.11146   1.15640    0.000
 4671.00    1.11735   1.15703    0.000
 4672.00    0.96845   1.16028    0.000
 4673.00    0.92728   1.15990    0.000
 4674.00    1.02664   1.16023    0.000
 4675.00    1.08430   1.16322    0.000
 4676.00    1.09407   1.16295    0.000
 4677.00    1.16712   1.16270    0.000
 4678.00    1.30429   1.16517    0.000
 4679.00    1.32585   1.16513    0.000
 4680.00    1.24408   1.16463    0.000
 4681.00    1.21684   1.16630    0.000
 4682.00    1.23253   1.16610    0.000
 4683.00    1.23030   1.16548    0.000
 4684.00    1.21565   1.16614    0.000
 4685.00    1.18266   1.16526    0.000
 4686.00    1.13853   1.16425    0.000
 4687.00    1.31370   1.16393    0.000
 4688.00    1.60514   1.16227    0.000
 4689.00    1.48472   1.16037    0.000
 4690.00    1.17478   1.15899    0.000
 4691.00    1.03287   1.15686    0.000
 4692.00    0.95753   1.15419    0.000
 4693.00    1.03824   1.15217    0.000
 4694.00    1.17164   1.15025    0.000
 4695.00    1.32351   1.14738    0.000
 4696.00    1.48061   1.14563    0.000
 4697.00    1.30379   1.14461    0.000
 4698.00    1.04878   1.14229    0.000
 4699.00    0.97005   1.14193    0.000
 4700.00    0.92449   1.14248    0.000
 4701.00    0.92048   1.14141    0.000
 4702.00    0.92252   1.14293    0.000
 4703.00    1.23394   1.14509    0.000
 4704.00    1.57806   1.14549    0.000
 4705.00    1.50495   1.14873    0.000
 4706.00    1.40319   1.15199    0.000
 4707.00    1.16114   1.15345    0.000
 4708.00    0.91431   1.15754    0.000
 4709.00    1.15490   1.16109    0.000
 4710.00    1.38857   1.16264    0.000
 4711.00    1.37308   1.16619    0.000
 4712.00    1.36591   1.16914    0.000
 4713.00    1.48632   1.16983    0.000
 4714.00    1.56243   1.17167    0.000
 4715.00    1.20419   1.17345    0.000
 4716.00    0.90911   1.17250    0.000
 4717.00    1.06066   1.17211    0.000
 4718.00    1.18065   1.17290    0.000
 4719.00    1.12894   1.17037    0.000
 4720.00    1.06451   1.16820    0.000
 4721.00    0.94460   1.16865    0.000
 4722.00    0.89944   1.16529    0.000
 4723.00    1.12243   1.16263    0.000
 4724.00    1.31209   1.16372    0.000
 4725.00    1.40141   1.16047    0.000
 4726.00    1.39383   1.15859    0.000
 4727.00    1.13794   1.16092    0.000
 4728.00    0.96299   1.15848    0.000
 4729.00    0.96648   1.15812    0.000
 4730.00    1.01618   1.16155    0.000
 4731.00    1.15420   1.15999    0.000
 4732.00    1.19913   1.16111    0.000
 4733.00    1.08878   1.16493    0.000
 4734.00    1.07869   1.16388    0.000
 4735.00    1.21520   1.16580    0.000
 4736.00    1.23099   1.16908    0.000
 4737.00    1.09160   1.16802    0.000
 4738.00    1.01871   1.16982    0.000
 4739.00    1.02114   1.17174    0.000
 4740.00    1.10282   1.17023    0.000
 4741.00    1.26367   1.17110    0.000
 4742.00    1.24187   1.17119    0.000
 4743.00    1.05913   1.16903    0.000
 4744.00    1.00060   1.16853    0.000
 4745.00    1.03852   1.16671    0.000
 4746.00    1.12443   1.16395    0.000
 4747.00    1.24312   1.16213    0.000
 4748.00    1.31928   1.15875    0.000
 4749.00    1.36999   1.15569    0.000
 4750.00    1.27453   1.15305    0.000
 4751.00    1.10276   1.14880    0.000
 4752.00    1.11697   1.14597    0.000
 4753.00    1.21536   1.14328    0.000
 4754.00    1.24232   1.13909    0.000
 4755.00    1.24147   1.13714    0.000
 4756.00    1.31830   1.13521    0.000
 4757.00    1.42088   1.13203    0.000
 4758.00    1.52341   1.13147    0.000
 4759.00    1.62593   1.13085    0.000
 4760.00    1.30056   1.12926    0.000
 4761.00    0.87732   1.13022    0.010
 4762.00    0.96340   1.13089    0.010
 4763.00    1.14278   1.13081    0.010
 4764.00    1.25138   1.13294    0.010
 4765.00    1.35002   1.13428    0.010
 4766.00    1.38372   1.13493    0.010
 4767.00    1.41084   1.13747    0.010
 4768.00    1.60185   1.13861    0.010
 4769.00    1.80345   1.13890    0.010
 4770.00    1.46999   1.14121    0.010
 4771.00    1.12097   1.14155    0.010
 4772.00    1.08693   1.14066    0.010
 4773.00    1.05603   1.14259    0.010
 4774.00    1.11603   1.14215    0.010
 4775.00    1.16740   1.14000    0.010
 4776.00    1.09412   1.14191    0.010
 4777.00    1.04500   1.14132    0.010
 4778.00    1.22323   1.13848    0.010
 4779.00    1.34878   1.14092    0.010
 4780.00    1.11358   1.14088    0.009
 4781.00    0.95111   1.13818    0.009
 4782.00    1.17389   1.14135    0.009
 4783.00    1.35836   1.14221    0.009
 4784.00    1.37961   1.14013    0.009
 4785.00    1.37305   1.14364    0.009
 4786.00    1.26874   1.14516    0.009
 4787.00    1.19074   1.14363    0.009
 4788.00    1.19049   1.14669    0.009
 4789.00    1.15927   1.14832    0.009
 4790.00    1.05008   1.14691    0.010
 4791.00    0.98690   1.14885    0.010
 4792.00    1.02351   1.15015    0.009
 4793.00    1.04658   1.14852    0.009
 4794.00    1.04417   1.14918    0.010
 4795.00    1.09597   1.15011    0.010
 4796.00    1.23685   1.14829    0.010
 4797.00    1.24086   1.14804    0.010
 4798.00    1.04764   1.14891    0.009
 4799.00    0.95583   1.14724    0.010
 4800.00    0.99255   1.14666    0.010
 4801.00    1.08380   1.14778    0.010
 4802.00    1.23596   1.14662    0.010
 4803.00    1.31030   1.14605    0.010
 4804.00    1.30797   1.14749    0.010
 4805.00    1.29603   1.14691    0.010
 4806.00    1.27572   1.14626    0.010
 4807.00    1.29072   1.14773    0.010
 4808.00    1.33275   1.14745    0.009
 4809.00    1.39702   1.14626    0.009
 4810.00    1.47626   1.14734    0.009
 4811.00    1.43611   1.14688    0.010
 4812.00    1.32559   1.14471    0.010
 4813.00    1.25529   1.14513    0.010
 4814.00    1.20567   1.14415    0.010
 4815.00    1.20653   1.14095    0.010
 4816.00    1.22987   1.14076    0.009
 4817.00    1.34699   1.13924    0.010
 4818.00    1.49999   1.13540    0.010
 4819.00    1.49771   1.13490    0.010
 4820.00    1.44493   1.13309    0.010
 4821.00    1.29551   1.12919    0.010
 4822.00    1.11978   1.12863    0.010
 4823.00    0.98567   1.12680    0.010
 4824.00    0.86086   1.12331    0.010
 4825.00    0.99590   1.12265    0.010
 4826.00    1.17726   1.12096    0.010
 4827.00    1.22727   1.11804    0.009
 4828.00    1.25939   1.11698    0.009
 4829.00    1.15559   1.11534    0.009
 4830.00    1.03858   1.11292    0.009
 4831.00    0.96754   1.11103    0.009
 4832.00    0.89929   1.10914    0.010
 4833.00    1.06938   1.10698    0.010
 4834.00    1.24477   1.10376    0.009
 4835.00    1.23800   1.10112    0.009
 4836.00    1.22868   1.09877    0.009
 4837.00    1.15300   1.09366    0.010
 4838.00    1.07894   1.08956    0.010
 4839.00    1.02688   1.08640    0.010
 4840.00    0.99446   1.07882    0.009
 4841.00    1.13941   1.07248    0.009
 4842.00    1.25182   1.06802    0.009
 4843.00    1.14838   1.05769    0.009
 4844.00    1.03596   1.04864    0.009
 4845.00    0.87730   1.04294    0.009
 4846.00    0.75904   1.03050    0.009
 4847.00    0.80897   1.01916    0.009
 4848.00    0.89227   1.01326    0.000
 4849.00    1.09048   1.00062    0.000
 4850.00    1.21386   0.98857    0.000
 4851.00    1.12026   0.98427    0.000
 4852.00    1.03265   0.97424    0.000
 4853.00    0.95987   0.96386    0.000
 4854.00    0.93133   0.96288    0.000
 4855.00    0.99715   0.95803    0.000
 4856.00    1.08530   0.95151    0.000
 4857.00    1.21480   0.95440    0.000
 4858.00    1.23165   0.95581    0.000
 4859.00    1.06613   0.95420    0.000
 4860.00    1.01091   0.95997    0.000
 4861.00    1.11233   0.96660    0.000
 4862.00    1.17795   0.96957    0.000
 4863.00    1.19886   0.97630    0.000
 4864.00    1.12064   0.98556    0.000
 4865.00    0.93325   0.99186    0.000
 4866.00    0.97926   0.99781    0.000
 4867.00    1.25193   1.00677    0.000
 4868.00    1.23647   1.01479    0.000
 4869.00    0.97423   1.01921    0.000
 4870.00    0.97203   1.02572    0.000
 4871.00    1.16598   1.03392    0.000
 4872.00    1.18636   1.03702    0.000
 4873.00    1.09170   1.04023    0.000
 4874.00    1.05528   1.04745    0.000
 4875.00    1.05266   1.05009    0.010
 4876.00    1.05620   1.05048    0.010
 4877.00    1.06286   1.05630    0.010
 4878.00    1.10018   1.05952    0.010
 4879.00    1.15092   1.05845    0.010
 4880.00    1.18135   1.06316    0.010
 4881.00    1.20415   1.06778    0.010
 4882.00    1.08023   1.06672    0.010
 4883.00    0.90952   1.07090    0.010
 4884.00    0.91062   1.07714    0.010
 4885.00    0.95752   1.07688    0.010
 4886.00    1.03087   1.08074    0.010
 4887.00    1.10998   1.08801    0.010
 4888.00    1.11961   1.08844    0.010
 4889.00    1.11721   1.09154    0.010
 4890.00    1.00347   1.09863    0.010
 4891.00    0.87506   1.09914    0.010
 4892.00    0.84953   1.10066    0.010
 4893.00    0.83356   1.10629    0.010
 4894.00    0.91340   1.10633    0.010
 4895.00    0.99867   1.10579    0.010
 4896.00    1.05570   1.10903    0.010
 4897.00    1.11191   1.10849    0.010
 4898.00    1.14891   1.10604    0.010
 4899.00    1.17882   1.10657    0.010
 4900.00    1.04057   1.10545    0.010
 4901.00    0.91904   1.10186    0.010
 4902.00    1.01374   1.09995    0.010
 4903.00    1.09741   1.09814    0.010
 4904.00    1.08520   1.09430    0.010
 4905.00    1.08417   1.09082    0.010
 4906.00    1.15505   1.08812    0.010
 4907.00    1.22019   1.08473    0.010
 4908.00    1.25651   1.08109    0.010
 4909.00    1.27089   1.07766    0.010
 4910.00    1.19593   1.07514    0.010
 4911.00    1.14160   1.07300    0.010
 4912.00    1.15687   1.06954    0.010
 4913.00    1.16595   1.06799    0.010
 4914.00    1.15739   1.06865    0.010
 4915.00    1.13989   1.06609    0.010
 4916.00    1.10067   1.06528    0.010
 4917.00    1.06996   1.06898    0.010
 4918.00    1.05710   1.06790    0.010
 4919.00    1.06406   1.06719    0.010
 4920.00    1.10720   1.07298    0.010
 4921.00    1.09224   1.07324    0.009
 4922.00    0.98462   1.07193    0.009
 4923.00    0.97154   1.07829    0.009
 4924.00    1.09076   1.07927    0.009
 4925.00    1.12100   1.07710    0.009
 4926.00    1.04165   1.08292    0.009
 4927.00    0.96788   1.08418    0.009
 4928.00    0.90015   1.08154    0.009
 4929.00    0.84714   1.08666    0.009
 4930.00    0.80823   1.08815    0.009
 4931.00    0.89483   1.08575    0.009
 4932.00    1.08742   1.09058    0.009
 4933.00    1.11231   1.09246    0.009
 4934.00    1.01250   1.09065    0.009
 4935.00    1.00170   1.09537    0.009
 4936.00    1.04903   1.09752    0.009
 4937.00    1.04963   1.09602    0.009
 4938.00    1.02352   1.10017    0.009
 4939.00    0.95074   1.10183    0.009
 4940.00    0.85474   1.09994    0.000
 4941.00    0.96123   1.10282    0.000
 4942.00    1.15492   1.10306    0.000
 4943.00    1.10301   1.10015    0.000
 4944.00    0.96041   1.10146    0.000
 4945.00    1.03661   1.09992    0.000
 4946.00    1.18124   1.09581    0.000
 4947.00    1.27321   1.09588    0.000
 4948.00    1.35143   1.09323    0.000
 4949.00    1.23275   1.08835    0.000
 4950.00    1.07214   1.08781    0.000
 4951.00    0.97578   1.08532    0.000
 4952.00    0.89024   1.08057    0.000
 4953.00    1.05010   1.07986    0.000
 4954.00    1.24118   1.07853    0.000
 4955.00    1.11367   1.07475    0.000
 4956.00    0.95789   1.07406    0.000
 4957.00    1.06132   1.07389    0.000
 4958.00    1.17842   1.07136    0.000
 4959.00    1.04594   1.07076    0.000
 4960.00    0.91120   1.07104    0.000
 4961.00    0.97300   1.06917    0.000
 4962.00    1.03129   1.06857    0.000
 4963.00    1.01287   1.06852    0.000
 4964.00    1.00081   1.06626    0.000
 4965.00    1.06666   1.06534    0.000
 4966.00    1.12606   1.06462    0.000
 4967.00    1.13139   1.06115    0.000
 4968.00    1.12307   1.05956    0.000
 4969.00    1.02950   1.05839    0.000
 4970.00    0.95998   1.05361    0.000
 4971.00    1.00843   1.05123    0.000
 4972.00    1.07851   1.05017    0.000
 4973.00    1.23471   1.04479    0.000
 4974.00    1.33435   1.04219    0.000
 4975.00    1.24692   1.04194    0.000
 4976.00    1.20077   1.03703    0.000
 4977.00    1.27005   1.03505    0.000
 4978.00    1.25319   1.03587    0.000
 4979.00    1.03035   1.03211    0.000
 4980.00    0.88783   1.03141    0.000
 4981.00    0.91123   1.03288    0.000
 4982.00    0.95601   1.03006    0.000
 4983.00    1.03919   1.03060    0.000
 4984.00    1.09063   1.03198    0.000
 4985.00    1.09220   1.02918    0.000
 4986.00    1.09925   1.03023    0.000
 4987.00    1.11385   1.03088    0.000
 4988.00    1.11455   1.02713    0.000
 4989.00    1.09834   1.02775    0.000
 4990.00    1.08396   1.02752    0.000
 4991.00    1.07154   1.02233    0.000
 4992.00    0.95709   1.02183    0.000
 4993.00    0.74630   1.02116    0.000
 4994.00    0.77692   1.01503    0.000
 4995.00    1.00850   1.01328    0.000
 4996.00    1.18529   1.01243    0.000
 4997.00    1.32191   1.00606    0.000
 4998.00    1.33544   1.00358    0.000
 4999.00    1.26975   1.00288    0.000
 5000.00    1.18951   0.99714    0.000
 5001.00    1.10109   0.99481    0.000
 5002.00    0.97691   0.99457    0.000
 5003.00    0.83521   0.98976    0.000
 5004.00    0.88160   0.98792    0.000
 5005.00    1.00762   0.98867    0.000
 5006.00    1.07380   0.98539    0.000
 5007.00    1.11828   0.98404    0.000
 5008.00    1.16284   0.98602    0.000
 5009.00    1.20744   0.98453    0.000
 5010.00    1.09315   0.98387    0.000
 5011.00    0.93830   0.98734    0.000
 5012.00    0.99861   0.98741    0.000
 5013.00    1.10361   0.98715    0.000
 5014.00    1.09573   0.99201    0.000
 5015.00    1.06937   0.99349    0.000
 5016.00    1.08414   0.99328    0.000
 5017.00    1.10396   0.99845    0.000
 5018.00    1.04754   1.00090    0.000
 5019.00    0.98469   1.00076    0.000
 5020.00    0.91033   1.00450    0.000
 5021.00    0.83540   1.00684    0.000
 5022.00    0.78784   1.00705    0.000
 5023.00    0.74293   1.00825    0.000
 5024.00    0.83347   1.00937    0.000
 5025.00    0.92637   1.01001    0.000
 5026.00    1.06663   1.00856    0.000
 5027.00    1.18992   1.00834    0.000
 5028.00    1.11493   1.00963    0.000
 5029.00    1.03647   1.00608    0.009
 5030.00    0.92990   1.00477    0.009
 5031.00    0.83729   1.00750    0.009
 5032.00    0.82938   1.00407    0.009
 5033.00    0.86791   1.00189    0.009
 5034.00    1.12858   1.00555    0.009
 5035.00    1.28426   1.00409    0.009
 5036.00    1.03098   1.00180    0.009
 5037.00    0.86514   1.00551    0.009
 5038.00    0.98294   1.00695    0.009
 5039.00    1.07789   1.00569    0.009
 5040.00    1.11012   1.00898    0.009
 5041.00    1.13159   1.01266    0.009
 5042.00    1.12775   1.01282    0.009
 5043.00    1.09959   1.01539    0.009
 5044.00    1.02198   1.01962    0.009
 5045.00    0.96880   1.02091    0.009
 5046.00    0.95885   1.02272    0.009
 5047.00    0.96045   1.02600    0.009
 5048.00    0.97994   1.02799    0.009
 5049.00    0.94276   1.02894    0.009
 5050.00    0.82856   1.03010    0.009
 5051.00    0.82014   1.03229    0.009
 5052.00    0.93833   1.03222    0.009
 5053.00    0.99907   1.03025    0.009
 5054.00    0.99919   1.03187    0.009
 5055.00    0.95256   1.03192    0.009
 5056.00    0.86243   1.02741    0.009
 5057.00    0.91008   1.02679    0.009
 5058.00    1.07080   1.02745    0.009
 5059.00    1.16948   1.02240    0.009
 5060.00    1.22334   1.01872    0.009
 5061.00    1.26675   1.01922    0.009
 5062.00    1.30353   1.01569    0.009
 5063.00    1.20319   1.01017    0.009
 5064.00    1.02683   1.00919    0.009
 5065.00    0.95996   1.00774    0.009
 5066.00    0.94588   1.00287    0.009
 5067.00    1.03950   0.99986    0.009
 5068.00    1.17795   0.99922    0.009
 5069.00    0.99251   0.99697    0.009
 5070.00    0.69173   0.99356    0.009
 5071.00    0.68093   0.99252    0.009
 5072.00    0.75736   0.99277    0.009
 5073.00    0.87540   0.99113    0.009
 5074.00    1.00385   0.99001    0.009
 5075.00    1.04584   0.99140    0.009
 5076.00    1.07032   0.99191    0.009
 5077.00    0.99853   0.99155    0.009
 5078.00    0.91144   0.99310    0.009
 5079.00    0.94045   0.99493    0.009
 5080.00    0.98319   0.99550    0.009
 5081.00    0.93233   0.99669    0.009
 5082.00    0.87394   0.99875    0.008
 5083.00    0.79242   0.99955    0.008
 5084.00    0.70986   0.99986    0.008
 5085.00    0.90980   1.00134    0.008
 5086.00    1.10720   1.00159    0.008
 5087.00    1.01119   1.00043    0.008
 5088.00    0.92058   1.00096    0.008
 5089.00    0.93062   1.00069    0.008
 5090.00    0.94696   0.99847    0.008
 5091.00    1.03359   0.99810    0.008
 5092.00    1.11037   0.99753    0.008
 5093.00    1.11036   0.99560    0.008
 5094.00    1.08792   0.99475    0.009
 5095.00    0.93326   0.99307    0.009
 5096.00    0.81529   0.99216    0.009
 5097.00    0.86852   0.99229    0.009
 5098.00    0.95457   0.98956    0.009
 5099.00    1.16575   0.98968    0.008
 5100.00    1.31998   0.99162    0.008
 5101.00    1.29310   0.98845    0.008
 5102.00    1.23716   0.98902    0.009
 5103.00    1.10287   0.99239    0.009
 5104.00    1.00522   0.98968    0.009
 5105.00    0.99227   0.98969    0.009
 5106.00    0.98647   0.99306    0.009
 5107.00    0.99498   0.99121    0.009
 5108.00    1.01177   0.98999    0.009
 5109.00    1.04298   0.99226    0.009
 5110.00    1.07347   0.99138    0.009
 5111.00    1.10288   0.98822    0.009
 5112.00    1.13485   0.98829    0.009
 5113.00    1.17028   0.98852    0.009
 5114.00    1.17954   0.98409    0.009
 5115.00    1.15793   0.98164    0.009
 5116.00    1.10305   0.98266    0.009
 5117.00    1.01356   0.97868    0.009
 5118.00    1.02078   0.97464    0.009
 5119.00    1.11676   0.97578    0.009
 5120.00    1.12957   0.97304    0.009
 5121.00    1.07510   0.96815    0.009
 5122.00    1.08130   0.96938    0.009
 5123.00    1.13069   0.96903    0.009
 5124.00    1.09773   0.96356    0.009
 5125.00    1.01333   0.96396    0.009
 5126.00    0.97729   0.96640    0.009
 5127.00    0.96766   0.96059    0.009
 5128.00    0.95983   0.95965    0.009
 5129.00    0.95286   0.96409    0.009
 5130.00    0.88630   0.95766    0.009
 5131.00    0.79536   0.95569    0.009
 5132.00    0.84945   0.96204    0.009
 5133.00    0.95424   0.95573    0.009
 5134.00    0.93657   0.95192    0.009
 5135.00    0.88280   0.95876    0.009
 5136.00    0.89207   0.95478    0.009
 5137.00    0.91674   0.94998    0.009
 5138.00    1.05464   0.95498    0.009
 5139.00    1.21491   0.95368    0.009
 5140.00    1.16037   0.94988    0.009
 5141.00    1.07270   0.95267    0.009
 5142.00    1.17188   0.95278    0.009
 5143.00    1.29235   0.95012    0.009
 5144.00    1.17223   0.95113    0.009
 5145.00    1.03377   0.95189    0.009
 5146.00    0.89293   0.94980    0.009
 5147.00    0.75199   0.94866    0.009
 5148.00    0.85548   0.94912    0.009
 5149.00    0.95721   0.94696    0.009
 5150.00    0.89999   0.94280    0.009
 5151.00    0.85019   0.94156    0.008
 5152.00    0.92908   0.93897    0.009
 5153.00    1.00087   0.93158    0.009
 5154.00    0.99727   0.92724    0.009
 5155.00    1.00523   0.92425    0.009
 5156.00    1.10025   0.91550    0.009
 5157.00    1.15791   0.90771    0.009
 5158.00    1.00160   0.90377    0.009
 5159.00    0.88172   0.89628    0.009
 5160.00    0.92787   0.88725    0.009
 5161.00    0.96463   0.88362    0.009
 5162.00    0.96641   0.87972    0.009
 5163.00    0.95070   0.87101    0.009
 5164.00    0.88039   0.86761    0.008
 5165.00    0.79136   0.86907    0.008
 5166.00    0.65272   0.86403    0.008
 5167.00    0.63580   0.85990    0.008
 5168.00    0.89564   0.86395    0.008
 5169.00    1.01068   0.86494    0.009
 5170.00    0.84059   0.86195    0.009
 5171.00    0.75445   0.86458    0.009
 5172.00    0.81237   0.86919    0.009
 5173.00    0.89359   0.86908    0.009
 5174.00    1.00980   0.86928    0.009
 5175.00    1.01521   0.87481    0.009
 5176.00    0.87427   0.87803    0.008
 5177.00    0.84165   0.87766    0.008
 5178.00    0.93506   0.88317    0.008
 5179.00    1.01208   0.88757    0.008
 5180.00    1.07230   0.88804    0.008
 5181.00    1.02213   0.89522    0.008
 5182.00    0.87207   0.89870    0.008
 5183.00    0.84273   0.89673    0.008
 5184.00    0.90967   0.90500    0.008
 5185.00    0.94357   0.91049    0.008
 5186.00    0.95429   0.90608    0.008
 5187.00    0.96797   0.91195    0.008
 5188.00    0.98348   0.91999    0.008
 5189.00    0.92182   0.91548    0.008
 5190.00    0.81870   0.91715    0.000
 5191.00    0.80188   0.92585    0.000
 5192.00    0.82535   0.92285    0.000
 5193.00    0.94940   0.92014    0.000
 5194.00    1.11392   0.92793    0.000
 5195.00    1.02057   0.92768    0.000
 5196.00    0.83871   0.92149    0.000
 5197.00    0.78119   0.92724    0.000
 5198.00    0.75958   0.93079    0.000
 5199.00    0.75616   0.92358    0.000
 5200.00    0.75709   0.92634    0.000
 5201.00    0.79378   0.93336    0.000
 5202.00    0.83736   0.92904    0.000
 5203.00    0.89095   0.92941    0.000
 5204.00    0.94602   0.93660    0.000
 5205.00    0.98426   0.93641    0.000
 5206.00    1.02065   0.93645    0.000
 5207.00    1.03995   0.94163    0.000
 5208.00    1.05801   0.94349    0.000
 5209.00    1.07098   0.94397    0.000
 5210.00    1.08376   0.94682    0.000
 5211.00    1.02783   0.94819    0.009
 5212.00    0.97564   0.94980    0.009
 5213.00    1.07091   0.95219    0.009
 5214.00    1.14962   0.95143    0.009
 5215.00    0.95969   0.95214    0.009
 5216.00    0.79923   0.95529    0.009
 5217.00    0.93873   0.95323    0.009
 5218.00    1.05309   0.95161    0.009
 5219.00    0.98447   0.95657    0.009
 5220.00    0.92778   0.95535    0.009
 5221.00    0.93759   0.95100    0.009
 5222.00    0.96504   0.95780    0.009
 5223.00    1.07096   0.96042    0.009
 5224.00    1.10408   0.95531    0.009
 5225.00    0.87122   0.96087    0.009
 5226.00    0.74738   0.96604    0.009
 5227.00    0.95727   0.96205    0.009
 5228.00    1.10839   0.96465    0.009
 5229.00    1.10662   0.97152    0.009
 5230.00    1.07582   0.97100    0.009
 5231.00    0.98006   0.97040    0.009
 5232.00    0.93045   0.97641    0.009
 5233.00    0.97027   0.97809    0.009
 5234.00    1.05086   0.97475    0.009
 5235.00    1.20035   0.97849    0.009
 5236.00    1.26726   0.98178    0.009
 5237.00    1.21185   0.97752    0.008
 5238.00    1.14076   0.97728    0.008
 5239.00    1.04926   0.98121    0.008
 5240.00    0.99528   0.97826    0.008
 5241.00    0.98433   0.97317    0.008
 5242.00    1.02768   0.97521    0.008
 5243.00    1.12594   0.97503    0.008
 5244.00    1.15500   0.96870    0.008
 5245.00    1.12232   0.96758    0.008
 5246.00    1.12946   0.96725    0.008
 5247.00    1.16791   0.96183    0.008
 5248.00    1.21579   0.95934    0.008
 5249.00    1.27019   0.95721    0.008
 5250.00    1.22840   0.95093    0.008
 5251.00    1.12831   0.94741    0.008
 5252.00    0.96540   0.94640    0.008
 5253.00    0.76924   0.93956    0.009
 5254.00    0.81576   0.93305    0.009
 5255.00    0.97370   0.93318    0.009
 5256.00    1.05493   0.92736    0.009
 5257.00    1.10583   0.91817    0.009
 5258.00    1.12463   0.92023    0.009
 5259.00    1.13261   0.91950    0.009
 5260.00    1.18076   0.90908    0.009
 5261.00    1.24027   0.91119    0.009
 5262.00    1.22351   0.91828    0.009
 5263.00    1.18895   0.91008    0.009
 5264.00    1.14000   0.90754    0.009
 5265.00    1.08835   0.91983    0.009
 5266.00    1.00637   0.92096    0.009
 5267.00    0.91999   0.91710    0.009
 5268.00    0.89015   0.92785    0.009
 5269.00    0.86627   0.93451    0.009
 5270.00    0.94281   0.93231    0.009
 5271.00    1.02620   0.94074    0.009
 5272.00    1.01120   0.95068    0.009
 5273.00    0.99290   0.95158    0.009
 5274.00    1.09904   0.95568    0.009
 5275.00    1.19927   0.96420    0.009
 5276.00    1.10594   0.96823    0.009
 5277.00    1.02280   0.96993    0.009
 5278.00    1.09501   0.97452    0.009
 5279.00    1.13836   0.97978    0.009
 5280.00    0.90017   0.98258    0.009
 5281.00    0.71478   0.98419    0.009
 5282.00    0.90129   0.98588    0.009
 5283.00    1.07294   0.98814    0.009
 5284.00    1.16400   0.98946    0.009
 5285.00    1.19983   0.98915    0.009
 5286.00    0.99561   0.99013    0.009
 5287.00    0.86231   0.99077    0.009
 5288.00    0.98275   0.98925    0.009
 5289.00    1.08330   0.98944    0.009
 5290.00    1.12413   0.99086    0.009
 5291.00    1.15555   0.98891    0.009
 5292.00    1.16290   0.98734    0.009
 5293.00    1.14193   0.99040    0.009
 5294.00    1.05865   0.99134    0.009
 5295.00    0.96819   0.98910    0.009
 5296.00    0.86402   0.99080    0.009
 5297.00    0.80844   0.99300    0.009
 5298.00    0.83378   0.99238    0.009
 5299.00    0.87109   0.99365    0.009
 5300.00    0.92587   0.99525    0.009
 5301.00    1.04678   0.99417    0.009
 5302.00    1.25255   0.99465    0.009
 5303.00    1.24337   0.99648    0.009
 5304.00    0.99112   0.99479    0.009
 5305.00    0.92284   0.99297    0.009
 5306.00    1.03803   0.99407    0.009
 5307.00    1.07442   0.99216    0.009
 5308.00    1.04150   0.98797    0.009
 5309.00    0.99617   0.98712    0.009
 5310.00    0.94122   0.98529    0.008
 5311.00    0.91400   0.97984    0.008
 5312.00    0.90567   0.97611    0.008
 5313.00    0.92448   0.97478    0.008
 5314.00    0.95948   0.97066    0.008
 5315.00    1.06446   0.96502    0.008
 5316.00    1.20592   0.96343    0.008
 5317.00    1.13063   0.96157    0.008
 5318.00    0.95745   0.95533    0.008
 5319.00    0.93813   0.95263    0.008
 5320.00    0.97859   0.95399    0.008
 5321.00    1.06436   0.95028    0.008
 5322.00    1.16510   0.94547    0.008
 5323.00    1.01787   0.94750    0.008
 5324.00    0.80188   0.94840    0.008
 5325.00    0.76532   0.94585    0.008
 5326.00    0.76969   0.94737    0.008
 5327.00    0.89302   0.94931    0.008
 5328.00    1.03807   0.94961    0.009
 5329.00    1.01573   0.95145    0.008
 5330.00    0.96990   0.95274    0.008
 5331.00    1.01839   0.95374    0.008
 5332.00    1.07639   0.95650    0.009
 5333.00    1.12499   0.95828    0.009
 5334.00    1.17299   0.95855    0.009
 5335.00    1.03527   0.96169    0.009
 5336.00    0.89225   0.96501    0.008
 5337.00    0.84144   0.96513    0.009
 5338.00    0.79547   0.96872    0.009
 5339.00    0.88781   0.97261    0.009
 5340.00    0.97595   0.97210    0.009
 5341.00    1.00392   0.97538    0.008
 5342.00    1.02225   0.97982    0.008
 5343.00    0.95034   0.97947    0.008
 5344.00    0.89966   0.98114    0.008
 5345.00    0.99388   0.98570    0.008
 5346.00    1.05086   0.98647    0.008
 5347.00    0.91122   0.98612    0.008
 5348.00    0.82694   0.98910    0.008
 5349.00    0.97780   0.99042    0.008
 5350.00    1.08055   0.98907    0.008
 5351.00    1.01465   0.98956    0.008
 5352.00    0.97351   0.98974    0.008
 5353.00    1.00531   0.98805    0.008
 5354.00    1.02304   0.98649    0.008
 5355.00    1.00539   0.98453    0.008
 5356.00    1.00258   0.98262    0.008
 5357.00    1.03189   0.98125    0.008
 5358.00    1.08965   0.97834    0.008
 5359.00    1.20087   0.97613    0.008
 5360.00    1.23981   0.97561    0.008
 5361.00    1.16020   0.97273    0.008
 5362.00    1.11319   0.97064    0.008
 5363.00    1.11305   0.97135    0.008
 5364.00    1.15567   0.96927    0.008
 5365.00    1.25236   0.96682    0.008
 5366.00    1.22593   0.96853    0.008
 5367.00    1.06223   0.96887    0.008
 5368.00    1.00381   0.96692   -2.000
 5369.00    1.04891   0.96885   -2.000
 5370.00    1.08478   0.97029   -2.000
 5371.00    1.11267   0.96848   -2.000
 5372.00    1.18610   0.97017   -2.000
 5373.00    1.29433   0.97159   -2.000
 5374.00    1.32020   0.96872   -2.000
 5375.00    1.29076   0.96910   -2.000
 5376.00    1.18553   0.97097   -2.000
 5377.00    1.03573   0.96729   -2.000
 5378.00    1.12923   0.96539   -2.000
 5379.00    1.34752   0.96781   -2.000
 5380.00    1.32334   0.96409   -2.000
 5381.00    1.19142   0.95892   -2.000
 5382.00    1.16108   0.96089   -2.000
 5383.00    1.16952   0.95883    0.009
 5384.00    1.12072   0.95100    0.008
 5385.00    1.05335   0.95057    0.008
 5386.00    1.00663   0.95158    0.008
 5387.00    0.96551   0.94409    0.008
 5388.00    0.91921   0.93980    0.008
 5389.00    0.87176   0.94256    0.008
 5390.00    0.91252   0.93816    0.008
 5391.00    0.96894   0.93092    0.008
 5392.00    1.03992   0.93307    0.008
 5393.00    1.11288   0.93317    0.008
 5394.00    1.15788   0.92632    0.009
 5395.00    1.20017   0.92642    0.009
 5396.00    1.03755   0.92981    0.008
 5397.00    0.86260   0.92593    0.008
 5398.00    0.93148   0.92377    0.008
 5399.00    1.00592   0.92766    0.008
 5400.00    0.95066   0.92781    0.008
 5401.00    0.90056   0.92593    0.008
 5402.00    0.98339   0.92914    0.008
 5403.00    1.06425   0.93185    0.008
 5404.00    1.11835   0.93139    0.008
 5405.00    1.16560   0.93420    0.008
 5406.00    1.15115   0.93812    0.008
 5407.00    1.12698   0.93838    0.008
 5408.00    1.03860   0.93955    0.008
 5409.00    0.95785   0.94333    0.008
 5410.00    0.91634   0.94510    0.008
 5411.00    0.89048   0.94531    0.008
 5412.00    0.92962   0.94724    0.008
 5413.00    0.96911   0.94861    0.008
 5414.00    1.00976   0.94880    0.008
 5415.00    1.04894   0.95005    0.008
 5416.00    1.08387   0.94979    0.008
 5417.00    1.10823   0.94850    0.008
 5418.00    1.10650   0.94934    0.008
 5419.00    1.11029   0.94943    0.008
 5420.00    1.12583   0.94756    0.008
 5421.00    1.09604   0.94766    0.008
 5422.00    0.98241   0.94841    0.008
 5423.00    0.91562   0.94550    0.008
 5424.00    0.92454   0.94496    0.008
 5425.00    0.98401   0.94831    0.008
 5426.00    1.11513   0.94623    0.008
 5427.00    1.14925   0.94370    0.008
 5428.00    1.06238   0.94687    0.008
 5429.00    0.96279   0.94774    0.008
 5430.00    0.84923   0.94523    0.008
 5431.00    0.88066   0.94616    0.008
 5432.00    1.05268   0.94856    0.008
 5433.00    1.11386   0.94611    0.008
 5434.00    1.08029   0.94485    0.008
 5435.00    1.04636   0.94826    0.008
 5436.00    1.01216   0.94775    0.008
 5437.00    1.07307   0.94528    0.008
 5438.00    1.19691   0.94598    0.008
 5439.00    1.28112   0.94566    0.008
 5440.00    1.34236   0.94313    0.008
 5441.00    1.26328   0.94234    0.008
 5442.00    1.11336   0.94186    0.008
 5443.00    1.03667   0.93908    0.008
 5444.00    0.99197   0.93859    0.008
 5445.00    0.98720   0.93961    0.008
 5446.00    0.99740   0.93726    0.008
 5447.00    1.03958   0.93573    0.008
 5448.00    1.09194   0.93700    0.008
 5449.00    1.11144   0.93461    0.008
 5450.00    1.12221   0.93105    0.008
 5451.00    1.10932   0.93357    0.014
 5452.00    1.09129   0.93457    0.109
 5453.00    1.13178   0.92987   -1.000
 5454.00    1.18238   0.93030   -1.000
 5455.00    1.16937   0.93464   -1.000
 5456.00    1.14802   0.93146   -1.000
 5457.00    1.13274   0.92675   -1.000
 5458.00    1.11802   0.93086   -1.000
 5459.00    1.06798   0.93208   -1.000
 5460.00    1.01596   0.92458   -1.000
 5461.00    1.01707   0.92529   -1.000
 5462.00    1.01853   0.93135   -1.000
 5463.00    0.93375   0.92550   -1.000
 5464.00    0.85174   0.91957    0.385
 5465.00    0.83500   0.92595    0.015
 5466.00    0.82561   0.92720    0.008
 5467.00    0.91059   0.91843    0.008
 5468.00    1.00039   0.91930    0.008
 5469.00    1.13186   0.92561    0.008
 5470.00    1.23989   0.91973    0.008
 5471.00    1.19761   0.91588    0.008
 5472.00    1.13876   0.92377    0.008
 5473.00    0.99683   0.92371    0.008
 5474.00    0.90443   0.91635    0.008
 5475.00    1.01313   0.92045    0.008
 5476.00    1.09398   0.92692    0.008
 5477.00    1.08104   0.92163    0.008
 5478.00    1.08836   0.92024   -2.000
 5479.00    1.15323   0.92806   -2.000
 5480.00    1.14642   0.92691   -2.000
 5481.00    0.96560   0.92216   -2.000
 5482.00    0.97971   0.92799   -2.000
 5483.00    1.40221   0.93148   -2.000
 5484.00    1.71202   0.92531   -2.000
 5485.00    1.81661   0.92592   -2.000
 5486.00    1.63461   0.93203   -2.000
 5487.00    0.99640   0.92865   -2.000
 5488.00    0.79256   0.92512   -2.000
 5489.00    1.19553   0.92956   -2.000
 5490.00    1.59331   0.92941   -2.000
 5491.00    1.98470   0.92440   -2.000
 5492.00    2.28457   0.92557   -2.000
 5493.00    2.48527   0.92728   -2.000
 5494.00    2.23278   0.92331   -2.000
 5495.00    1.54710   0.92226   -2.000
 5496.00    1.09426   0.92407   -2.000
 5497.00    0.83767   0.92243   -2.000
 5498.00    0.74688   0.92068   -2.000
 5499.00    0.77913   0.92085   -2.000
 5500.00    0.84164   0.92000   -2.000
 5501.00    0.92387   0.91933   -2.000
 5502.00    0.95391   0.92028    0.008
 5503.00    0.95416   0.91953    0.008
 5504.00    1.01380   0.91886    0.008
 5505.00    1.10295   0.92091    0.008
 5506.00    1.07658   0.92121    0.008
 5507.00    1.00057   0.92011    0.008
 5508.00    0.90841   0.92131    0.008
 5509.00    0.81029   0.92280    0.008
 5510.00    0.86925   0.92241    0.008
 5511.00    0.97723   0.92241    0.008
 5512.00    1.03718   0.92433    0.008
 5513.00    1.08463   0.92548    0.008
 5514.00    1.04117   0.92455    0.008
 5515.00    0.97842   0.92404    0.008
 5516.00    0.88399   0.92578    0.008
 5517.00    0.78425   0.92667    0.008
 5518.00    0.79628   0.92483    0.008
 5519.00    0.82246   0.92496    0.008
 5520.00    0.91699   0.92762    0.008
 5521.00    1.01755   0.92685    0.008
 5522.00    1.03642   0.92437    0.008
 5523.00    1.05102   0.92666    0.008
 5524.00    1.02160   0.92857    0.008
 5525.00    0.99055   0.92553    0.008
 5526.00    0.89806   0.92575    0.008
 5527.00    0.81365   0.93009    0.008
 5528.00    0.90336   0.93018    0.008
 5529.00    0.98340   0.92794    0.008
 5530.00    0.94539   0.93035    0.008
 5531.00    0.92036   0.93305    0.008
 5532.00    1.00353   0.93126    0.008
 5533.00    1.06857   0.93134    0.008
 5534.00    1.02088   0.93487    0.008
 5535.00    0.98841   0.93591    0.008
 5536.00    1.03031   0.93458    0.008
 5537.00    1.04335   0.93557    0.008
 5538.00    0.94187   0.93798    0.008
 5539.00    0.87850   0.93754    0.008
 5540.00    0.94085   0.93614    0.008
 5541.00    0.99704   0.93725    0.008
 5542.00    1.03603   0.93825    0.008
 5543.00    1.05436   0.93680    0.008
 5544.00    1.02339   0.93591    0.008
 5545.00    0.96662   0.93662    0.008
 5546.00    0.85667   0.93594    0.008
 5547.00    0.81425   0.93415    0.008
 5548.00    0.89289   0.93327    0.008
 5549.00    0.99990   0.93223    0.008
 5550.00    1.15139   0.93072    0.008
 5551.00    1.24461   0.92972    0.008
 5552.00    1.25761   0.92765    0.008
 5553.00    1.19896   0.92571    0.008
 5554.00    1.05348   0.92593    0.008
 5555.00    0.97453   0.92411    0.008
 5556.00    0.96666   0.92029    0.008
 5557.00    0.97719   0.92042    0.008
 5558.00    1.00505   0.92131    0.008
 5559.00    1.06920   0.91662    0.008
 5560.00    1.16352   0.91431    0.008
 5561.00    1.16064   0.91781    0.008
 5562.00    1.08665   0.91537    0.008
 5563.00    1.02154   0.91019    0.008
 5564.00    0.96212   0.91298    0.008
 5565.00    0.97639   0.91467    0.008
 5566.00    1.03205   0.90871    0.008
 5567.00    1.09471   0.90771    0.008
 5568.00    1.16080   0.91182    0.008
 5569.00    1.17650   0.90812    0.008
 5570.00    1.17091   0.90368    0.007
 5571.00    1.08332   0.90666    0.008
 5572.00    0.96606   0.90641    0.008
 5573.00    0.89738   0.90111    0.008
 5574.00    0.84355   0.90054    0.008
 5575.00    0.98607   0.90181    0.008
 5576.00    1.17859   0.89810    0.008
 5577.00    1.13231   0.89488    0.008
 5578.00    1.03656   0.89523    0.007
 5579.00    1.06345   0.89417    0.008
 5580.00    1.11034   0.89154    0.008
 5581.00    1.04200   0.88995    0.008
 5582.00    0.95959   0.88987    0.008
 5583.00    0.97391   0.88924    0.008
 5584.00    0.99636   0.88673    0.008
 5585.00    1.01082   0.88561    0.008
 5586.00    1.02489   0.88756    0.008
 5587.00    0.99958   0.88830    0.008
 5588.00    0.97453   0.88611    0.008
 5589.00    0.99972   0.88719    0.008
 5590.00    1.02792   0.89043    0.008
 5591.00    1.11587   0.88907    0.008
 5592.00    1.19215   0.88824    0.008
 5593.00    1.13296   0.89280    0.008
 5594.00    1.07173   0.89544    0.008
 5595.00    0.99414   0.89346    0.008
 5596.00    0.94384   0.89547    0.008
 5597.00    1.05839   0.89969    0.008
 5598.00    1.13683   0.89859    0.008
 5599.00    1.04308   0.89807    0.008
 5600.00    0.98207   0.90210    0.008
 5601.00    1.04819   0.90371    0.008
 5602.00    1.10821   0.90177    0.008
 5603.00    1.14849   0.90357    0.008
 5604.00    1.17312   0.90575    0.008
 5605.00    1.15488   0.90282    0.008
 5606.00    1.14591   0.90208    0.008
 5607.00    1.15868   0.90472    0.008
 5608.00    1.16254   0.90411    0.008
 5609.00    1.14830   0.90205    0.008
 5610.00    1.08933   0.90328    0.008
 5611.00    0.95136   0.90349    0.008
 5612.00    0.85777   0.90053    0.007
 5613.00    0.83275   0.90035    0.007
 5614.00    0.88835   0.90155    0.007
 5615.00    1.05334   0.90067    0.007
 5616.00    1.11883   0.90051    0.007
 5617.00    1.06543   0.90107    0.007
 5618.00    1.02697   0.90050    0.007
 5619.00    1.00426   0.90039    0.007
 5620.00    0.97791   0.90097    0.007
 5621.00    0.94818   0.90020    0.007
 5622.00    0.98511   0.90022    0.007
 5623.00    1.07665   0.90171    0.007
 5624.00    1.10916   0.90101    0.007
 5625.00    1.09912   0.90033    0.007
 5626.00    1.02545   0.90176    0.007
 5627.00    0.91153   0.90141    0.007
 5628.00    0.87919   0.89973    0.007
 5629.00    0.89200   0.90074    0.008
 5630.00    0.97065   0.90149    0.008
 5631.00    1.08099   0.89929    0.008
 5632.00    1.08769   0.89941    0.008
 5633.00    1.05134   0.90083    0.008
 5634.00    1.05102   0.89883    0.008
 5635.00    1.06350   0.89766    0.008
 5636.00    1.03439   0.89975    0.007
 5637.00    0.99278   0.89899    0.007
 5638.00    0.96711   0.89576    0.007
 5639.00    0.94540   0.89721    0.007
 5640.00    0.98420   0.89836    0.007
 5641.00    1.03521   0.89436    0.007
 5642.00    1.02095   0.89361    0.007
 5643.00    0.99635   0.89699    0.007
 5644.00    1.02339   0.89461    0.007
 5645.00    1.05652   0.88975    0.007
 5646.00    1.03098   0.89245    0.007
 5647.00    1.00074   0.89409    0.007
 5648.00    1.08514   0.88805    0.007
 5649.00    1.17464   0.88694    0.007
 5650.00    1.14689   0.89209    0.007
 5651.00    1.11749   0.88982    0.007
 5652.00    1.07272   0.88418    0.007
 5653.00    1.02546   0.88757    0.007
 5654.00    0.93214   0.89071    0.007
 5655.00    0.85159   0.88595    0.007
 5656.00    0.91236   0.88545    0.007
 5657.00    0.96781   0.89078    0.007
 5658.00    0.98198   0.89012    0.007
 5659.00    0.98758   0.88712    0.007
 5660.00    0.94279   0.89060    0.007
 5661.00    0.90564   0.89329    0.007
 5662.00    0.90407   0.89143    0.007
 5663.00    0.91676   0.89286    0.007
 5664.00    0.98373   0.89618    0.007
 5665.00    1.03202   0.89488    0.007
 5666.00    1.02107   0.89438    0.007
 5667.00    1.00513   0.89778    0.007
 5668.00    0.97576   0.89826    0.007
 5669.00    0.95911   0.89647    0.007
 5670.00    0.97181   0.89816    0.007
 5671.00    0.97755   0.89985    0.007
 5672.00    0.96942   0.89713    0.007
 5673.00    1.00238   0.89622    0.007
 5674.00    1.10683   0.89862    0.007
 5675.00    1.14023   0.89871    0.007
 5676.00    1.06545   0.89642    0.008
 5677.00    1.00868   0.89602    0.008
 5678.00    0.97602   0.89692    0.008
 5679.00    0.98208   0.89572    0.008
 5680.00    1.03372   0.89431    0.007
 5681.00    1.01454   0.89418    0.007
 5682.00    0.92180   0.89519    0.007
 5683.00    0.89030   0.89464    0.007
 5684.00    0.91491   0.89186    0.007
 5685.00    0.90398   0.89105    0.007
 5686.00    0.86435   0.89238    0.007
 5687.00    0.89616   0.89145    0.007
 5688.00    0.97874   0.88806    0.007
 5689.00    0.97875   0.88860    0.007
 5690.00    0.92730   0.88983    0.007
 5691.00    0.93554   0.88562    0.007
 5692.00    0.97632   0.88258    0.007
 5693.00    0.97057   0.88490    0.007
 5694.00    0.94281   0.88461    0.007
 5695.00    0.96490   0.87969    0.007
 5696.00    1.00737   0.87956    0.007
 5697.00    1.01193   0.88187    0.007
 5698.00    1.00327   0.87841    0.007
 5699.00    1.02858   0.87552    0.008
 5700.00    1.06388   0.87863    0.008
 5701.00    0.98710   0.87962    0.007
 5702.00    0.88302   0.87660    0.007
 5703.00    0.92833   0.87785    0.007
 5704.00    1.00305   0.88127    0.007
 5705.00    1.03754   0.88050    0.007
 5706.00    1.06584   0.88008    0.007
 5707.00    0.99092   0.88375    0.007
 5708.00    0.90431   0.88598    0.007
 5709.00    0.96778   0.88592    0.007
 5710.00    1.04263   0.88802    0.007
 5711.00    1.07811   0.89134    0.007
 5712.00    1.11199   0.89288    0.007
 5713.00    1.11175   0.89367    0.007
 5714.00    1.11054   0.89546    0.007
 5715.00    1.08021   0.89777    0.007
 5716.00    1.04972   0.89914    0.007
 5717.00    1.01652   0.89924    0.007
 5718.00    0.99096   0.90068    0.007
 5719.00    1.04612   0.90314    0.007
 5720.00    1.09562   0.90340    0.007
 5721.00    1.10272   0.90237    0.007
 5722.00    1.11102   0.90371    0.007
 5723.00    1.12610   0.90526    0.007
 5724.00    1.13512   0.90395    0.007
 5725.00    1.11659   0.90376    0.007
 5726.00    1.09224   0.90549    0.007
 5727.00    1.04626   0.90543    0.007
 5728.00    1.01664   0.90385    0.007
 5729.00    1.03796   0.90411    0.007
 5730.00    1.03719   0.90483    0.007
 5731.00    0.97807   0.90392    0.007
 5732.00    0.92035   0.90355    0.007
 5733.00    0.86581   0.90357    0.007
 5734.00    0.87569   0.90294    0.007
 5735.00    1.01216   0.90245    0.007
 5736.00    1.07131   0.90243    0.007
 5737.00    0.99802   0.90151    0.007
 5738.00    0.94620   0.90034    0.007
 5739.00    0.92656   0.90045    0.007
 5740.00    0.94053   0.90004    0.000
 5741.00    0.99881   0.89891    0.000
 5742.00    1.04158   0.89846    0.000
 5743.00    1.06635   0.89851    0.000
 5744.00    1.03126   0.89713    0.000
 5745.00    0.93488   0.89566    0.000
 5746.00    0.94159   0.89600    0.000
 5747.00    1.04141   0.89648    0.000
 5748.00    1.13028   0.89576    0.000
 5749.00    1.21043   0.89473    0.000
 5750.00    1.15560   0.89477    0.000
 5751.00    1.00622   0.89439    0.000
 5752.00    0.92536   0.89343    0.000
 5753.00    0.88657   0.89340    0.000
 5754.00    0.93465   0.89458    0.000
 5755.00    1.02934   0.89465    0.000
 5756.00    1.07628   0.89331    0.000
 5757.00    1.10098   0.89310    0.000
 5758.00    1.09345   0.89352    0.000
 5759.00    1.07299   0.89263    0.000
 5760.00    0.98075   0.89132    0.000
 5761.00    0.86395   0.89208    0.000
 5762.00    0.85968   0.89242    0.000
 5763.00    0.88785   0.89061    0.000
 5764.00    0.89742   0.88889    0.000
 5765.00    0.90255   0.88888    0.000
 5766.00    0.99380   0.88827    0.000
 5767.00    1.10157   0.88582    0.000
 5768.00    1.05415   0.88476    0.000
 5769.00    0.98362   0.88494    0.000
 5770.00    1.00572   0.88327    0.000
 5771.00    1.03792   0.88023    0.000
 5772.00    1.05952   0.87987    0.000
 5773.00    1.08036   0.88049    0.000
 5774.00    1.07220   0.87851    0.000
 5775.00    1.06296   0.87689    0.000
 5776.00    1.09891   0.87763    0.000
 5777.00    1.13302   0.87740    0.000
 5778.00    1.09479   0.87575    0.000
 5779.00    1.05619   0.87650    0.000
 5780.00    1.01169   0.87802    0.000
 5781.00    0.96913   0.87787    0.000
 5782.00    0.94631   0.87819    0.000
 5783.00    0.92988   0.87944    0.000
 5784.00    0.95981   0.88028    0.000
 5785.00    1.00491   0.88169    0.000
 5786.00    1.13418   0.88395    0.000
 5787.00    1.23727   0.88416    0.000
 5788.00    1.22426   0.88445    0.000
 5789.00    1.18718   0.88737    0.000
 5790.00    1.06241   0.88878    0.000
 5791.00    0.98820   0.88831   -2.000
 5792.00    1.06840   0.89046   -2.000
 5793.00    1.13592   0.89335   -2.000
 5794.00    1.17055   0.89211   -2.000
 5795.00    1.17495   0.89110   -2.000
 5796.00    1.11189   0.89425   -2.000
 5797.00    1.08473   0.89600   -2.000
 5798.00    1.12701   0.89428   -2.000
 5799.00    1.16739   0.89472   -2.000
 5800.00    1.20455   0.89725   -2.000
 5801.00    1.24592   0.89647   -2.000
 5802.00    1.29354   0.89450   -2.000
 5803.00    1.29227   0.89604   -2.000
 5804.00    1.22749   0.89830   -2.000
 5805.00    1.16757   0.89698   -2.000
 5806.00    1.11321   0.89566   -2.000
 5807.00    1.07983   0.89753   -2.000
 5808.00    1.06762   0.89865   -2.000
 5809.00    0.97781   0.89701   -2.000
 5810.00    0.81888   0.89685   -2.000
 5811.00    0.77397   0.89926    0.000
 5812.00    0.81852   0.89933    0.000
 5813.00    0.87710   0.89736    0.000
 5814.00    0.94537   0.89812    0.000
 5815.00    0.97822   0.90062    0.000
 5816.00    0.98964   0.90012    0.000
 5817.00    0.96766   0.89858    0.000
 5818.00    0.92802   0.90001    0.000
 5819.00    0.92386   0.90136    0.000
 5820.00    0.93596   0.89986    0.000
 5821.00    0.96179   0.89891    0.000
 5822.00    0.99304   0.90092    0.000
 5823.00    1.05594   0.90141    0.000
 5824.00    1.12947   0.89918    0.000
 5825.00    1.11231   0.89869    0.000
 5826.00    1.06954   0.90024    0.000
 5827.00    1.10493   0.89960    0.000
 5828.00    1.15852   0.89718    0.000
 5829.00    1.17378   0.89731    0.000
 5830.00    1.18189   0.89806    0.000
 5831.00    1.15360   0.89597    0.000
 5832.00    1.12005   0.89342    0.000
 5833.00    1.07015   0.89368    0.000
 5834.00    1.01855   0.89356    0.000
 5835.00    0.96992   0.89051    0.000
 5836.00    0.92149   0.88815    0.000
 5837.00    0.86863   0.88805    0.000
 5838.00    0.81561   0.88668    0.000
 5839.00    0.76971   0.88297    0.000
 5840.00    0.72885   0.88117    0.000
 5841.00    0.84712   0.88110    0.000
 5842.00    0.96742   0.87871    0.000
 5843.00    1.11865   0.87469    0.000
 5844.00    1.24312   0.87329    0.000
 5845.00    1.10801   0.87321    0.000
 5846.00    0.99008   0.87067    0.000
 5847.00    0.99259   0.86810    0.000
 5848.00    0.99929   0.86759    0.000
 5849.00    1.02860   0.86687    0.000
 5850.00    1.05751   0.86451    0.000
 5851.00    1.08470   0.86351    0.000
 5852.00    1.09189   0.86382    0.000
 5853.00    1.02768   0.86321    0.000
 5854.00    0.97605   0.86213    0.000
 5855.00    0.96204   0.86169    0.000
 5856.00    0.98241   0.86187    0.000
 5857.00    1.09047   0.86197    0.000
 5858.00    1.13704   0.86204    0.000
 5859.00    1.04863   0.86116    0.000
 5860.00    0.98820   0.86074    0.000
 5861.00    0.98106   0.86120    0.000
 5862.00    0.99152   0.86066    0.000
 5863.00    1.03121   0.85899    0.000
 5864.00    1.06483   0.85793    0.000
 5865.00    1.08960   0.85717    0.000
 5866.00    1.09431   0.85512    0.000
 5867.00    1.07332   0.85285    0.000
 5868.00    1.01628   0.85076    0.000
 5869.00    0.91855   0.84779    0.000
 5870.00    0.85669   0.84402    0.000
 5871.00    0.83055   0.83994    0.000
 5872.00    0.82914   0.83610    0.000
 5873.00    0.84946   0.83305    0.000
 5874.00    0.86841   0.82866    0.000
 5875.00    0.88632   0.82109    0.000
 5876.00    0.92357   0.81488    0.000
 5877.00    0.97398   0.81280    0.000
 5878.00    0.96214   0.80834    0.000
 5879.00    0.91319   0.80174    0.000
 5880.00    0.89677   0.79903    0.000
 5881.00    0.89727   0.79535    0.000
 5882.00    0.91146   0.78715    0.000
 5883.00    0.93182   0.78442    0.000
 5884.00    0.87009   0.78773    0.000
 5885.00    0.77655   0.78491    0.000
 5886.00    0.73690   0.77863    0.000
 5887.00    0.71504   0.78001    0.000
 5888.00    0.80579   0.78363    0.000
 5889.00    0.92768   0.78144    0.000
 5890.00    0.87271   0.78295    0.000
 5891.00    0.77753   0.79019    0.000
 5892.00    0.79903   0.79074    0.000
 5893.00    0.84176   0.78836    0.000
 5894.00    0.86757   0.79525    0.000
 5895.00    0.89102   0.80318    0.000
 5896.00    0.85438   0.80331    0.000
 5897.00    0.81171   0.80564    0.000
 5898.00    0.82593   0.81332    0.000
 5899.00    0.84378   0.81630    0.000
 5900.00    0.82018   0.81586    0.000
 5901.00    0.79553   0.82119    0.007
 5902.00    0.82407   0.82708    0.007
 5903.00    0.85431   0.82729    0.006
 5904.00    0.93230   0.82786    0.007
 5905.00    1.00312   0.83249    0.007
 5906.00    0.97169   0.83525    0.007
 5907.00    0.93837   0.83458    0.007
 5908.00    0.88742   0.83592    0.007
 5909.00    0.84195   0.83886    0.007
 5910.00    0.83374   0.83963    0.007
 5911.00    0.83027   0.83889    0.007
 5912.00    0.85178   0.83989    0.007
 5913.00    0.87239   0.84163    0.007
 5914.00    0.88922   0.84227    0.007
 5915.00    0.89535   0.84170    0.007
 5916.00    0.86402   0.84146    0.007
 5917.00    0.84409   0.84293    0.007
 5918.00    0.85763   0.84398    0.007
 5919.00    0.87777   0.84294    0.007
 5920.00    0.91446   0.84215    0.007
 5921.00    0.95807   0.84387    0.007
 5922.00    1.01664   0.84480    0.007
 5923.00    1.03330   0.84282    0.007
 5924.00    0.97137   0.84252    0.007
 5925.00    0.94705   0.84524    0.007
 5926.00    0.98429   0.84511    0.007
 5927.00    0.99913   0.84184    0.007
 5928.00    0.98179   0.84257    0.007
 5929.00    0.96950   0.84590    0.007
 5930.00    0.96358   0.84445    0.006
 5931.00    0.95831   0.84132    0.006
 5932.00    0.95377   0.84332    0.006
 5933.00    0.98259   0.84578    0.006
 5934.00    1.04417   0.84252    0.006
 5935.00    1.06367   0.84042    0.006
 5936.00    1.04673   0.84400    0.006
 5937.00    1.01013   0.84506    0.007
 5938.00    0.95852   0.84075    0.007
 5939.00    0.90624   0.84007    0.006
 5940.00    0.85352   0.84403    0.006
 5941.00    0.81287   0.84347    0.006
 5942.00    0.77930   0.83966    0.006
 5943.00    0.78534   0.84092    0.006
 5944.00    0.81163   0.84426    0.006
 5945.00    0.83940   0.84218    0.007
 5946.00    0.86783   0.83950    0.007
 5947.00    0.91634   0.84222    0.007
 5948.00    0.97250   0.84466    0.006
 5949.00    0.97140   0.84243    0.007
 5950.00    0.95179   0.84122    0.007
 5951.00    0.94733   0.84385    0.007
 5952.00    0.94698   0.84504    0.007
 5953.00    0.93592   0.84373    0.006
 5954.00    0.92247   0.84378    0.006
 5955.00    0.91235   0.84541    0.007
 5956.00    0.90280   0.84580    0.007
 5957.00    0.95500   0.84532    0.007
 5958.00    1.01554   0.84537    0.006
 5959.00    1.00223   0.84588    0.006
 5960.00    0.98183   0.84627    0.006
 5961.00    0.95480   0.84596    0.006
 5962.00    0.92737   0.84515    0.006
 5963.00    0.88773   0.84507    0.006
 5964.00    0.84829   0.84573    0.006
 5965.00    0.88835   0.84484    0.006
 5966.00    0.92700   0.84318    0.006
 5967.00    0.92981   0.84343    0.006
 5968.00    0.93113   0.84412    0.006
 5969.00    0.91255   0.84217    0.006
 5970.00    0.90238   0.84023    0.006
 5971.00    0.96742   0.84128    0.006
 5972.00    1.02796   0.84173    0.006
 5973.00    1.05886   0.83907    0.006
 5974.00    1.07922   0.83783    0.006
 5975.00    1.04550   0.83978    0.006
 5976.00    1.01458   0.83953    0.006
 5977.00    0.99523   0.83653    0.006
 5978.00    0.98233   0.83664    0.006
 5979.00    0.99151   0.83902    0.006
 5980.00    1.00318   0.83771    0.006
 5981.00    1.02204   0.83499    0.006
 5982.00    1.02242   0.83646    0.006
 5983.00    0.97728   0.83855    0.006
 5984.00    0.94899   0.83624    0.007
 5985.00    0.95651   0.83431    0.007
 5986.00    0.97808   0.83648    0.007
 5987.00    1.02562   0.83753    0.007
 5988.00    1.04878   0.83494    0.007
 5989.00    1.03264   0.83393    0.006
 5990.00    1.02068   0.83526    0.006
 5991.00    1.01462   0.83486    0.006
 5992.00    1.00973   0.83320    0.006
 5993.00    1.00628   0.83326    0.006
 5994.00    0.99007   0.83327    0.006
 5995.00    0.95985   0.83155    0.006
 5996.00    0.96491   0.83086    0.006
 5997.00    1.00410   0.83146    0.006
 5998.00    1.00111   0.83040    0.006
 5999.00    0.96212   0.82892    0.006
 6000.00    0.90791   0.82939    0.006
 6001.00    0.84225   0.82886    0.006
 6002.00    0.84092   0.82678    0.006
 6003.00    0.88208   0.82731    0.006
 6004.00    0.90545   0.82910    0.006
 6005.00    0.91853   0.82698    0.006
 6006.00    0.88271   0.82439    0.006
 6007.00    0.82226   0.82705    0.006
 6008.00    0.83455   0.82940    0.006
 6009.00    0.87857   0.82625    0.006
 6010.00    0.96871   0.82477    0.006
 6011.00    1.07612   0.82886    0.006
 6012.00    1.11031   0.83020    0.006
 6013.00    1.12126   0.82683    0.006
 6014.00    1.02338   0.82772    0.006
 6015.00    0.89664   0.83234    0.007
 6016.00    0.87436   0.83207    0.007
 6017.00    0.87473   0.82955    0.007
 6018.00    0.90132   0.83258    0.007
 6019.00    0.93242   0.83644    0.007
 6020.00    0.92564   0.83499    0.006
 6021.00    0.91391   0.83422    0.006
 6022.00    0.88324   0.83810    0.006
 6023.00    0.85082   0.84024    0.006
 6024.00    0.87737   0.83843    0.006
 6025.00    0.90720   0.83943    0.006
 6026.00    0.94584   0.84289    0.006
 6027.00    0.98395   0.84324    0.006
 6028.00    0.95010   0.84201    0.006
 6029.00    0.91672   0.84381    0.006
 6030.00    0.89417   0.84590    0.006
 6031.00    0.87505   0.84514    0.006
 6032.00    0.89966   0.84484    0.006
 6033.00    0.91749   0.84661    0.006
 6034.00    0.87694   0.84717    0.006
 6035.00    0.83622   0.84584    0.006
 6036.00    0.79441   0.84635    0.006
 6037.00    0.76713   0.84767    0.006
 6038.00    0.81242   0.84689    0.006
 6039.00    0.84921   0.84565    0.006
 6040.00    0.85153   0.84650    0.006
 6041.00    0.85254   0.84708    0.006
 6042.00    0.84913   0.84554    0.006
 6043.00    0.85410   0.84460    0.006
 6044.00    0.88285   0.84537    0.006
 6045.00    0.92775   0.84537    0.006
 6046.00    1.01179   0.84367    0.007
 6047.00    1.07074   0.84282    0.007
 6048.00    1.07721   0.84345    0.007
 6049.00    1.06251   0.84327    0.007
 6050.00    1.00929   0.84173    0.006
 6051.00    0.97872   0.84108    0.006
 6052.00    0.98412   0.84185    0.006
 6053.00    0.97433   0.84173    0.006
 6054.00    0.94337   0.84026    0.006
 6055.00    0.91096   0.83976    0.006
 6056.00    0.87677   0.84077    0.006
 6057.00    0.86283   0.84077    0.006
 6058.00    0.87078   0.83913    0.006
 6059.00    0.88208   0.83873    0.006
 6060.00    0.89657   0.83990    0.006
 6061.00    0.91600   0.84002    0.006
 6062.00    0.93957   0.83882    0.006
 6063.00    0.96628   0.83804    0.006
 6064.00    0.99533   0.83838    0.006
 6065.00    0.98696   0.83865    0.006
 6066.00    0.95424   0.83810    0.006
 6067.00    0.91373   0.83652    0.006
 6068.00    0.86879   0.83593    0.006
 6069.00    0.83580   0.83665    0.006
 6070.00    0.80872   0.83617    0.006
 6071.00    0.85528   0.83343    0.006
 6072.00    0.93340   0.83256    0.006
 6073.00    0.95618   0.83418    0.006
 6074.00    0.95860   0.83318    0.006
 6075.00    0.91716   0.82972    0.006
 6076.00    0.86205   0.82939    0.006
 6077.00    0.87282   0.83155    0.006
 6078.00    0.90068   0.82998    0.006
 6079.00    0.91117   0.82669    0.006
 6080.00    0.91799   0.82680    0.006
 6081.00    0.91577   0.82860    0.006
 6082.00    0.91203   0.82708    0.006
 6083.00    0.90711   0.82458    0.006
 6084.00    0.90203   0.82502    0.006
 6085.00    0.87228   0.82612    0.006
 6086.00    0.84036   0.82476    0.006
 6087.00    0.82045   0.82314    0.006
 6088.00    0.80116   0.82361    0.006
 6089.00    0.85777   0.82427    0.006
 6090.00    0.91489   0.82356    0.006
 6091.00    0.90862   0.82205    0.006
 6092.00    0.90217   0.82167    0.006
 6093.00    0.89173   0.82297    0.006
 6094.00    0.88567   0.82356    0.006
 6095.00    0.93260   0.82123    0.006
 6096.00    0.96487   0.81944    0.006
 6097.00    0.87557   0.82146    0.006
 6098.00    0.79863   0.82331    0.006
 6099.00    0.79825   0.82140    0.006
 6100.00    0.81369   0.81893    0.006
 6101.00    0.90614   0.82004    0.006
 6102.00    0.98093   0.82217    0.006
 6103.00    0.98578   0.82097    0.006
 6104.00    0.96962   0.81853    0.006
 6105.00    0.88435   0.81904    0.006
 6106.00    0.82057   0.82044    0.006
 6107.00    0.81665   0.81897    0.006
 6108.00    0.82134   0.81730    0.006
 6109.00    0.84655   0.81803    0.006
 6110.00    0.86348   0.81803    0.006
 6111.00    0.86335   0.81539    0.006
 6112.00    0.87872   0.81469    0.006
 6113.00    0.92184   0.81663    0.006
 6114.00    0.95493   0.81527    0.006
 6115.00    0.97231   0.81083    0.006
 6116.00    0.95700   0.81124    0.006
 6117.00    0.89679   0.81435    0.006
 6118.00    0.84238   0.81185    0.006
 6119.00    0.79500   0.80759    0.006
 6120.00    0.79756   0.80903    0.006
 6121.00    0.85340   0.81106    0.006
 6122.00    0.89973   0.80739    0.006
 6123.00    0.93712   0.80481    0.006
 6124.00    0.95735   0.80774    0.006
 6125.00    0.96334   0.80834    0.006
 6126.00    0.96949   0.80343    0.006
 6127.00    0.97577   0.80244    0.006
 6128.00    0.93854   0.80702    0.006
 6129.00    0.87340   0.80655    0.006
 6130.00    0.87310   0.80019    0.006
 6131.00    0.90917   0.80016    0.006
 6132.00    0.90722   0.80610    0.006
 6133.00    0.88671   0.80599    0.006
 6134.00    0.84793   0.80008    0.006
 6135.00    0.80143   0.79945    0.006
 6136.00    0.80782   0.80384    0.006
 6137.00    0.83329   0.80381    0.007
 6138.00    0.89211   0.79986    0.007
 6139.00    0.96110   0.79874    0.007
 6140.00    0.94145   0.80050    0.007
 6141.00    0.89928   0.80015    0.006
 6142.00    0.86484   0.79740    0.006
 6143.00    0.83199   0.79479    0.006
 6144.00    0.82113   0.79452    0.006
 6145.00    0.81384   0.79483    0.006
 6146.00    0.85921   0.79219    0.006
 6147.00    0.91098   0.78743    0.006
 6148.00    0.95088   0.78659    0.006
 6149.00    0.98979   0.78817    0.006
 6150.00    0.95763   0.78414    0.006
 6151.00    0.92206   0.77765    0.006
 6152.00    0.90544   0.77844    0.006
 6153.00    0.88990   0.78152    0.006
 6154.00    0.92082   0.77574    0.006
 6155.00    0.94846   0.76876    0.006
 6156.00    0.91139   0.77201    0.006
 6157.00    0.87531   0.77606    0.006
 6158.00    0.85051   0.76965    0.006
 6159.00    0.83031   0.76449    0.006
 6160.00    0.84697   0.77022    0.006
 6161.00    0.86451   0.77360    0.006
 6162.00    0.88727   0.76682    0.006
 6163.00    0.90617   0.76467    0.006
 6164.00    0.90671   0.77169    0.006
 6165.00    0.90497   0.77330    0.006
 6166.00    0.89448   0.76789    0.006
 6167.00    0.87837   0.76908    0.006
 6168.00    0.84418   0.77482    0.006
 6169.00    0.83072   0.77378    0.006
 6170.00    0.87390   0.77074    0.006
 6171.00    0.91849   0.77416    0.006
 6172.00    0.96637   0.77710    0.006
 6173.00    0.98788   0.77429    0.006
 6174.00    0.95599   0.77395    0.006
 6175.00    0.91615   0.77766    0.006
 6176.00    0.86231   0.77717    0.006
 6177.00    0.84013   0.77400    0.006
 6178.00    0.86678   0.77619    0.006
 6179.00    0.87698   0.77914    0.006
 6180.00    0.86488   0.77563    0.006
 6181.00    0.84644   0.77291    0.006
 6182.00    0.82045   0.77720    0.006
 6183.00    0.81262   0.77933    0.006
 6184.00    0.82389   0.77416    0.006
 6185.00    0.85439   0.77234    0.006
 6186.00    0.90273   0.77756    0.006
 6187.00    0.89936   0.77894    0.006
 6188.00    0.85371   0.77390    0.006
 6189.00    0.85123   0.77290    0.006
 6190.00    0.87981   0.77752    0.006
 6191.00    0.90994   0.77828    0.006
 6192.00    0.94105   0.77423    0.006
 6193.00    1.03267   0.77363    0.006
 6194.00    1.15769   0.77688    0.006
 6195.00    1.39715   0.77698    0.007
 6196.00    1.69155   0.77395   -2.000
 6197.00    1.56559   0.77346   -2.000
 6198.00    1.26537   0.77515   -2.000
 6199.00    0.93088   0.77442   -2.000
 6200.00    0.58423   0.77182   -2.000
 6201.00    0.68910   0.77115   -2.000
 6202.00    0.92908   0.77172   -2.000
 6203.00    1.16681   0.77049   -2.000
 6204.00    1.40399   0.76779   -2.000
 6205.00    1.32854   0.76666   -2.000
 6206.00    1.19014   0.76696   -2.000
 6207.00    1.05416   0.76590   -2.000
 6208.00    0.91856   0.76285    0.006
 6209.00    0.91225   0.76125    0.006
 6210.00    0.92108   0.76184    0.006
 6211.00    0.92458   0.76110    0.006
 6212.00    0.92765   0.75810    0.006
 6213.00    0.86433   0.75666    0.006
 6214.00    0.79809   0.75740    0.006
 6215.00    0.75885   0.75653    0.006
 6216.00    0.72109   0.75405    0.006
 6217.00    0.73972   0.75350    0.006
 6218.00    0.75589   0.75417    0.006
 6219.00    0.72738   0.75271    0.006
 6220.00    0.70449   0.75075    0.006
 6221.00    0.74343   0.75113    0.006
 6222.00    0.78387   0.75166    0.006
 6223.00    0.83600   0.75010    0.006
 6224.00    0.88462   0.74864    0.006
 6225.00    0.91268   0.74914    0.006
 6226.00    0.92954   0.74957    0.006
 6227.00    0.89442   0.74817    0.006
 6228.00    0.85863   0.74675    0.006
 6229.00    0.82028   0.74705    0.006
 6230.00    0.78221   0.74769    0.006
 6231.00    0.74504   0.74642    0.006
 6232.00    0.72919   0.74474    0.006
 6233.00    0.77056   0.74502    0.006
 6234.00    0.81034   0.74566    0.006
 6235.00    0.84647   0.74425    0.006
 6236.00    0.87125   0.74290    0.006
 6237.00    0.87343   0.74335    0.006
 6238.00    0.85721   0.74350    0.006
 6239.00    0.80904   0.74217    0.006
 6240.00    0.77746   0.74175    0.006
 6241.00    0.77109   0.74211    0.006
 6242.00    0.78264   0.74141    0.006
 6243.00    0.81811   0.74037    0.006
 6244.00    0.83030   0.74141    0.006
 6245.00    0.81510   0.74221    0.006
 6246.00    0.81054   0.74065    0.006
 6247.00    0.81701   0.73988    0.006
 6248.00    0.81920   0.74244    0.006
 6249.00    0.81747   0.74385    0.006
 6250.00    0.81356   0.74158    0.006
 6251.00    0.80788   0.74155    0.006
 6252.00    0.77463   0.74557    0.006
 6253.00    0.72183   0.74691    0.006
 6254.00    0.70173   0.74420    0.006
 6255.00    0.70199   0.74500    0.006
 6256.00    0.78957   0.74967    0.006
 6257.00    0.92463   0.75070    0.006
 6258.00    1.04362   0.74826    0.006
 6259.00    1.15502   0.74959    0.006
 6260.00    1.07793   0.75384    0.007
 6261.00    0.92403   0.75439    0.007
 6262.00    0.81461   0.75255    0.007
 6263.00    0.72066   0.75412    0.008
 6264.00    0.80145   0.75744    0.008
 6265.00    0.93350   0.75736    0.007
 6266.00    1.05520   0.75602    0.007
 6267.00    1.17439   0.75766    0.007
 6268.00    1.09153   0.76007    0.006
 6269.00    0.96900   0.75949    0.006
 6270.00    0.88010   0.75841    0.006
 6271.00    0.79635   0.75988    0.006
 6272.00    0.80234   0.76167    0.006
 6273.00    0.81844   0.76103    0.006
 6274.00    0.80533   0.76000    0.006
 6275.00    0.79003   0.76104    0.006
 6276.00    0.76679   0.76242    0.006
 6277.00    0.74324   0.76179    0.006
 6278.00    0.74381   0.76060    0.006
 6279.00    0.74730   0.76126    0.006
 6280.00    0.86123   0.76255    0.000
 6281.00    0.96836   0.76185    0.000
 6282.00    0.95969   0.76012    0.000
 6283.00    0.94395   0.76043    0.000
 6284.00    0.85375   0.76204    0.000
 6285.00    0.77466   0.76145    0.000
 6286.00    0.77853   0.75908    0.000
 6287.00    0.78124   0.75887    0.000
 6288.00    0.77735   0.76083    0.000
 6289.00    0.77499   0.76075    0.000
 6290.00    0.77953   0.75818    0.000
 6291.00    0.78167   0.75737    0.000
 6292.00    0.77490   0.75937    0.000
 6293.00    0.76001   0.76002    0.000
 6294.00    0.71990   0.75789    0.000
 6295.00    0.69970   0.75647    0.000
 6296.00    0.73200   0.75798    0.000
 6297.00    0.76529   0.75951    0.000
 6298.00    0.80081   0.75833    0.000
 6299.00    0.82389   0.75615    0.000
 6300.00    0.82258   0.75683    0.000
 6301.00    0.81683   0.75945    0.000
 6302.00    0.80348   0.75924    0.000
 6303.00    0.80798   0.75609    0.000
 6304.00    0.83918   0.75612    0.000
 6305.00    0.85809   0.75981    0.000
 6306.00    0.86079   0.76029    0.000
 6307.00    0.83798   0.75652    0.000
 6308.00    0.78558   0.75613    0.000
 6309.00    0.73322   0.76042    0.000
 6310.00    0.68090   0.76142    0.000
 6311.00    0.68049   0.75757    0.000
 6312.00    0.72688   0.75683    0.000
 6313.00    0.75973   0.76118    0.000
 6314.00    0.78180   0.76269    0.000
 6315.00    0.77986   0.75918    0.000
 6316.00    0.76112   0.75796    0.000
 6317.00    0.75262   0.76177    0.000
 6318.00    0.75039   0.76384    0.000
 6319.00    0.75515   0.76102    0.000
 6320.00    0.76364   0.75900    0.000
 6321.00    0.78342   0.76179    0.006
 6322.00    0.80844   0.76444    0.006
 6323.00    0.80463   0.76233    0.006
 6324.00    0.78927   0.75946    0.006
 6325.00    0.78272   0.76126    0.006
 6326.00    0.77919   0.76437    0.006
 6327.00    0.77673   0.76271    0.006
 6328.00    0.77458   0.75914    0.006
 6329.00    0.78225   0.76031    0.006
 6330.00    0.79226   0.76368    0.006
 6331.00    0.81348   0.76207    0.006
 6332.00    0.83683   0.75818    0.006
 6333.00    0.83315   0.75932    0.006
 6334.00    0.82545   0.76263    0.006
 6335.00    0.80555   0.76056    0.006
 6336.00    0.78432   0.75670    0.006
 6337.00    0.80033   0.75830    0.006
 6338.00    0.81899   0.76120    0.006
 6339.00    0.78080   0.75830    0.006
 6340.00    0.74055   0.75477    0.006
 6341.00    0.71525   0.75706    0.006
 6342.00    0.69121   0.75925    0.006
 6343.00    0.70961   0.75546    0.006
 6344.00    0.72920   0.75255    0.006
 6345.00    0.76779   0.75555    0.006
 6346.00    0.80015   0.75699    0.006
 6347.00    0.76979   0.75261    0.006
 6348.00    0.74509   0.75056    0.006
 6349.00    0.76112   0.75420    0.006
 6350.00    0.78133   0.75507    0.006
 6351.00    0.82458   0.75066    0.006
 6352.00    0.85633   0.74962    0.006
 6353.00    0.83724   0.75372    0.006
 6354.00    0.80916   0.75434    0.006
 6355.00    0.74844   0.75049    0.006
 6356.00    0.71570   0.75042    0.006
 6357.00    0.76822   0.75459    0.006
 6358.00    0.80637   0.75514    0.006
 6359.00    0.80731   0.75222    0.006
 6360.00    0.77724   0.75288    0.006
 6361.00    0.67813   0.75661    0.006
 6362.00    0.61915   0.75704    0.006
 6363.00    0.63762   0.75511    0.006
 6364.00    0.68644   0.75613    0.006
 6365.00    0.78634   0.75890    0.006
 6366.00    0.83470   0.75900    0.006
 6367.00    0.80704   0.75795    0.006
 6368.00    0.77188   0.75902    0.006
 6369.00    0.72702   0.76045    0.006
 6370.00    0.71183   0.76005    0.006
 6371.00    0.73055   0.75980    0.006
 6372.00    0.74890   0.76074    0.006
 6373.00    0.76685   0.76066    0.006
 6374.00    0.77831   0.75982    0.006
 6375.00    0.78399   0.76038    0.006
 6376.00    0.76608   0.76105    0.006
 6377.00    0.72968   0.75959    0.006
 6378.00    0.72118   0.75864    0.006
 6379.00    0.73189   0.76003    0.006
 6380.00    0.74700   0.76022    0.006
 6381.00    0.76477   0.75768    0.006
 6382.00    0.75489   0.75721    0.006
 6383.00    0.73042   0.75937    0.006
 6384.00    0.69643   0.75877    0.006
 6385.00    0.65809   0.75558    0.006
 6386.00    0.63339   0.75618    0.006
 6387.00    0.61405   0.75894    0.006
 6388.00    0.61726   0.75723    0.006
 6389.00    0.62803   0.75384    0.006
 6390.00    0.67198   0.75586    0.006
 6391.00    0.72527   0.75888    0.006
 6392.00    0.75403   0.75598    0.006
 6393.00    0.77708   0.75278    0.006
 6394.00    0.75281   0.75609    0.006
 6395.00    0.71973   0.75899    0.006
 6396.00    0.71516   0.75518    0.006
 6397.00    0.71469   0.75244    0.006
 6398.00    0.71190   0.75645    0.006
 6399.00    0.70886   0.75893    0.006
 6400.00    0.69011   0.75485    0.006
 6401.00    0.67030   0.75264    0.006
 6402.00    0.69146   0.75655    0.006
 6403.00    0.71395   0.75853    0.006
 6404.00    0.65367   0.75492    0.006
 6405.00    0.59454   0.75325    0.006
 6406.00    0.57203   0.75637    0.006
 6407.00    0.55399   0.75785    0.006
 6408.00    0.60308   0.75529    0.006
 6409.00    0.65291   0.75418    0.006
 6410.00    0.70988   0.75621    0.006
 6411.00    0.76020   0.75714    0.006
 6412.00    0.76396   0.75575    0.006
 6413.00    0.76827   0.75536    0.006
 6414.00    0.77555   0.75640    0.006
 6415.00    0.77879   0.75656    0.006
 6416.00    0.76453   0.75607    0.006
 6417.00    0.75870   0.75662    0.006
 6418.00    0.78289   0.75702    0.006
 6419.00    0.80610   0.75616    0.006
 6420.00    0.82641   0.75613    0.006
 6421.00    0.84020   0.75775    0.006
 6422.00    0.83736   0.75787    0.006
 6423.00    0.82944   0.75590    0.006
 6424.00    0.81039   0.75599    0.006
 6425.00    0.78460   0.75856    0.006
 6426.00    0.74604   0.75856    0.006
 6427.00    0.72158   0.75570    0.006
 6428.00    0.72049   0.75581    0.006
 6429.00    0.71250   0.75893    0.006
 6430.00    0.69446   0.75870    0.006
 6431.00    0.67946   0.75535    0.006
 6432.00    0.66833   0.75561    0.006
 6433.00    0.69473   0.75876    0.006
 6434.00    0.76342   0.75809    0.006
 6435.00    0.78846   0.75466    0.006
 6436.00    0.77012   0.75519    0.006
 6437.00    0.71972   0.75806    0.006
 6438.00    0.64123   0.75687    0.006
 6439.00    0.59517   0.75357    0.006
 6440.00    0.57415   0.75441    0.006
 6441.00    0.60282   0.75697    0.006
 6442.00    0.66521   0.75546    0.006
 6443.00    0.70618   0.75229    0.006
 6444.00    0.73440   0.75329    0.006
 6445.00    0.72795   0.75584    0.006
 6446.00    0.70353   0.75437    0.006
 6447.00    0.63982   0.75121    0.006
 6448.00    0.55843   0.75214    0.006
 6449.00    0.53166   0.75496    0.006
 6450.00    0.52602   0.75387    0.006
 6451.00    0.55992   0.75057    0.006
 6452.00    0.60682   0.75120    0.006
 6453.00    0.62765   0.75437    0.006
 6454.00    0.64129   0.75381    0.006
 6455.00    0.65425   0.75031    0.006
 6456.00    0.66706   0.75046    0.006
 6457.00    0.70209   0.75380    0.006
 6458.00    0.74116   0.75364    0.006
 6459.00    0.78792   0.74998    0.006
 6460.00    0.83575   0.74960    0.006
 6461.00    0.79271   0.75276    0.006
 6462.00    0.74059   0.75271    0.006
 6463.00    0.68504   0.74891    0.006
 6464.00    0.62928   0.74808    0.006
 6465.00    0.62062   0.75078    0.006
 6466.00    0.61332   0.75042    0.006
 6467.00    0.60264   0.74642    0.006
 6468.00    0.59436   0.74530    0.006
 6469.00    0.65304   0.74742    0.006
 6470.00    0.71106   0.74640    0.006
 6471.00    0.75969   0.74211    0.006
 6472.00    0.80175   0.74088    0.006
 6473.00    0.78309   0.74250    0.006
 6474.00    0.76914   0.74074    0.006
 6475.00    0.78716   0.73612    0.006
 6476.00    0.80239   0.73491    0.006
 6477.00    0.80302   0.73629    0.006
 6478.00    0.79724   0.73410    0.006
 6479.00    0.76439   0.72938    0.006
 6480.00    0.72199   0.72827    0.006
 6481.00    0.64635   0.72972    0.006
 6482.00    0.59434   0.72778    0.006
 6483.00    0.61166   0.72346    0.006
 6484.00    0.64561   0.72258    0.006
 6485.00    0.72116   0.72436    0.006
 6486.00    0.77911   0.72338    0.006
 6487.00    0.79914   0.72009    0.006
 6488.00    0.79798   0.71953    0.006
 6489.00    0.75719   0.72170    0.006
 6490.00    0.71215   0.72205    0.006
 6491.00    0.66018   0.72019    0.006
 6492.00    0.63499   0.71998    0.006
 6493.00    0.64816   0.72231    0.006
 6494.00    0.66839   0.72383    0.006
 6495.00    0.69749   0.72327    0.006
 6496.00    0.71332   0.72328    0.006
 6497.00    0.71439   0.72545    0.006
 6498.00    0.69335   0.72752    0.006
 6499.00    0.65065   0.72771    0.006
 6500.00    0.62642   0.72776    0.006
 6501.00    0.61814   0.72955    0.006
 6502.00    0.65691   0.73154    0.006
 6503.00    0.73147   0.73180    0.006
 6504.00    0.77728   0.73172    0.006
 6505.00    0.80384   0.73316    0.006
 6506.00    0.80331   0.73472    0.006
 6507.00    0.78690   0.73459    0.006
 6508.00    0.78526   0.73434    0.006
 6509.00    0.79117   0.73560    0.006
 6510.00    0.80486   0.73670    0.006
 6511.00    0.82198   0.73609    0.006
 6512.00    0.81120   0.73570    0.006
 6513.00    0.78981   0.73689    0.006
 6514.00    0.80464   0.73761    0.006
 6515.00    0.83116   0.73666    0.006
 6516.00    0.80801   0.73625    0.006
 6517.00    0.77144   0.73728    0.006
 6518.00    0.70725   0.73755    0.006
 6519.00    0.63694   0.73645    0.006
 6520.00    0.64912   0.73614    0.006
 6521.00    0.67585   0.73682    0.006
 6522.00    0.71221   0.73638    0.006
 6523.00    0.74987   0.73512    0.006
 6524.00    0.75710   0.73501    0.006
 6525.00    0.76142   0.73522    0.006
 6526.00    0.73244   0.73370    0.006
 6527.00    0.70149   0.73194    0.006
 6528.00    0.69659   0.73204    0.000
 6529.00    0.69252   0.73185    0.000
 6530.00    0.71306   0.72891    0.000
 6531.00    0.73344   0.72612    0.000
 6532.00    0.75007   0.72628    0.000
 6533.00    0.76715   0.72592    0.000
 6534.00    0.79010   0.72144    0.000
 6535.00    0.81194   0.71700    0.000
 6536.00    0.82394   0.71704    0.000
 6537.00    0.83661   0.71690    0.000
 6538.00    0.85363   0.71099    0.000
 6539.00    0.86080   0.70450    0.000
 6540.00    0.81766   0.70431    0.000
 6541.00    0.78375   0.70493    0.000
 6542.00    0.78793   0.69806    0.000
 6543.00    0.78669   0.68953    0.000
 6544.00    0.76690   0.68924    0.000
 6545.00    0.75685   0.69133    0.000
 6546.00    0.77486   0.68442    0.000
 6547.00    0.79939   0.67445    0.000
 6548.00    0.83994   0.67438    0.000
 6549.00    0.85247   0.67857    0.000
 6550.00    0.80557   0.67293    0.000
 6551.00    0.76419   0.66273    0.000
 6552.00    0.73301   0.66321    0.000
 6553.00    0.72780   0.66969    0.000
 6554.00    0.76440   0.66653    0.000
 6555.00    0.77283   0.65764    0.000
 6556.00    0.74144   0.65882    0.000
 6557.00    0.72344   0.66692    0.000
 6558.00    0.72205   0.66675    0.000
 6559.00    0.78315   0.66045    0.000
 6560.00    0.91270   0.66229    0.000
 6561.00    1.02341   0.67066    0.000
 6562.00    1.11594   0.67288    0.000
 6563.00    1.15439   0.66968    0.000
 6564.00    1.14679   0.67192    0.000
 6565.00    1.10772   0.67908    0.000
 6566.00    1.04505   0.68239    0.000
 6567.00    0.98375   0.68191    0.000
 6568.00    0.92336   0.68424    0.000
 6569.00    0.85154   0.68919    0.000
 6570.00    0.77314   0.69225    0.000
 6571.00    0.70754   0.69359    0.000
 6572.00    0.64839   0.69575    0.000
 6573.00    0.66027   0.69822    0.000
 6574.00    0.70305   0.70018    0.000
 6575.00    0.75167   0.70245    0.000
 6576.00    0.80247   0.70440    0.000
 6577.00    0.81394   0.70476    0.000
 6578.00    0.81295   0.70537    0.000
 6579.00    0.77499   0.70795    0.000
 6580.00    0.72724   0.70977    0.000
 6581.00    0.74399   0.70872    0.000
 6582.00    0.77469   0.70820    0.000
 6583.00    0.82914   0.71078    0.000
 6584.00    0.88765   0.71261    0.000
 6585.00    0.88098   0.71089    0.000
 6586.00    0.86583   0.70967    0.000
 6587.00    0.78835   0.71212    0.000
 6588.00    0.70517   0.71402    0.000
 6589.00    0.71257   0.71214    0.000
 6590.00    0.72498   0.71067    0.000
 6591.00    0.72063   0.71300    0.000
 6592.00    0.71604   0.71492    0.000
 6593.00    0.72226   0.71309    0.000
 6594.00    0.72732   0.71165    0.000
 6595.00    0.70596   0.71394    0.000
 6596.00    0.68423   0.71579    0.000
 6597.00    0.65765   0.71401    0.000
 6598.00    0.63186   0.71266    0.000
 6599.00    0.61268   0.71493    0.000
 6600.00    0.59438   0.71669    0.000
 6601.00    0.58169   0.71491    0.000
 6602.00    0.58773   0.71357    0.000
 6603.00    0.68708   0.71567    0.000
 6604.00    0.77435   0.71731    0.000
 6605.00    0.81286   0.71557    0.000
 6606.00    0.84097   0.71410    0.000
 6607.00    0.83427   0.71584    0.000
 6608.00    0.80004   0.71728    0.000
 6609.00    0.68800   0.71562    0.006
 6610.00    0.60183   0.71403    0.006
 6611.00    0.57818   0.71520    0.006
 6612.00    0.56351   0.71633    0.006
 6613.00    0.56757   0.71485    0.006
 6614.00    0.57138   0.71320    0.006
 6615.00    0.57475   0.71370    0.006
 6616.00    0.58195   0.71448    0.006
 6617.00    0.59522   0.71336    0.006
 6618.00    0.58948   0.71176    0.006
 6619.00    0.55731   0.71154    0.006
 6620.00    0.43850   0.71199    0.006
 6621.00    0.21356   0.71149    0.006
 6622.00    0.08165   0.71017    0.006
 6623.00    0.05019   0.70922    0.006
 6624.00    0.14518   0.70931    0.006
 6625.00    0.36061   0.70963    0.006
 6626.00    0.51763   0.70888    0.006
 6627.00    0.62557   0.70725    0.006
 6628.00    0.67776   0.70683    0.006
 6629.00    0.68870   0.70793    0.006
 6630.00    0.65544   0.70800    0.006
 6631.00    0.59345   0.70596    0.006
 6632.00    0.57024   0.70484    0.006
 6633.00    0.56906   0.70635    0.006
 6634.00    0.62699   0.70730    0.006
 6635.00    0.71415   0.70519    0.006
 6636.00    0.76587   0.70335    0.006
 6637.00    0.80241   0.70483    0.006
 6638.00    0.79995   0.70638    0.006
 6639.00    0.78319   0.70446    0.006
 6640.00    0.71769   0.70214    0.006
 6641.00    0.63706   0.70326    0.006
 6642.00    0.59496   0.70503    0.006
 6643.00    0.56283   0.70340    0.006
 6644.00    0.56343   0.70091    0.006
 6645.00    0.57094   0.70162    0.006
 6646.00    0.59970   0.70325    0.006
 6647.00    0.63200   0.70192    0.006
 6648.00    0.61936   0.69955    0.006
 6649.00    0.60107   0.69987    0.006
 6650.00    0.60533   0.70121    0.006
 6651.00    0.61155   0.70024    0.006
 6652.00    0.61688   0.69821    0.006
 6653.00    0.62217   0.69810    0.006
 6654.00    0.69886   0.69902    0.006
 6655.00    0.77553   0.69859    0.006
 6656.00    0.76044   0.69715    0.006
 6657.00    0.74353   0.69650    0.006
 6658.00    0.68809   0.69679    0.006
 6659.00    0.63788   0.69703    0.006
 6660.00    0.65065   0.69642    0.006
 6661.00    0.65524   0.69531    0.006
 6662.00    0.59236   0.69485    0.006
 6663.00    0.54421   0.69554    0.006
 6664.00    0.58702   0.69583    0.006
 6665.00    0.62121   0.69457    0.006
 6666.00    0.61353   0.69336    0.006
 6667.00    0.60760   0.69406    0.006
 6668.00    0.60859   0.69511    0.006
 6669.00    0.61935   0.69421    0.006
 6670.00    0.66219   0.69251    0.006
 6671.00    0.68491   0.69274    0.006
 6672.00    0.65177   0.69416    0.006
 6673.00    0.61220   0.69398    0.006
 6674.00    0.55734   0.69226    0.006
 6675.00    0.52934   0.69182    0.006
 6676.00    0.55646   0.69303    0.006
 6677.00    0.58492   0.69354    0.006
 6678.00    0.61577   0.69227    0.006
 6679.00    0.62910   0.69130    0.006
 6680.00    0.61506   0.69195    0.006
 6681.00    0.61284   0.69278    0.006
 6682.00    0.62683   0.69212    0.006
 6683.00    0.62760   0.69097    0.006
 6684.00    0.61239   0.69090    0.006
 6685.00    0.63298   0.69156    0.006
 6686.00    0.69168   0.69144    0.006
 6687.00    0.73719   0.69047    0.006
 6688.00    0.77031   0.68981    0.006
 6689.00    0.76994   0.68992    0.006
 6690.00    0.74185   0.69002    0.006
 6691.00    0.71368   0.68950    0.006
 6692.00    0.68547   0.68856    0.006
 6693.00    0.64928   0.68787    0.006
 6694.00    0.60798   0.68785    0.006
 6695.00    0.63588   0.68792    0.006
 6696.00    0.70252   0.68702    0.000
 6697.00    0.72237   0.68543    0.000
 6698.00    0.71942   0.68500    0.000
 6699.00    0.68064   0.68575    0.000
 6700.00    0.62680   0.68523    0.000
 6701.00    0.60762   0.68288    0.000
 6702.00    0.60094   0.68182    0.000
 6703.00    0.59176   0.68316    0.000
 6704.00    0.58183   0.68338    0.000
 6705.00    0.63602   0.68074    0.000
 6706.00    0.70644   0.67898    0.000
 6707.00    0.77299   0.68053    0.000
 6708.00    0.83874   0.68167    0.000
 6709.00    0.82402   0.67930    0.000
 6710.00    0.79628   0.67698    0.000
 6711.00    0.71318   0.67836    0.000
 6712.00    0.62338   0.68032    0.000
 6713.00    0.66106   0.67870    0.000
 6714.00    0.70932   0.67612    0.000
 6715.00    0.76636   0.67696    0.000
 6716.00    0.82382   0.67938    0.000
 6717.00    0.80925   0.67868    0.000
 6718.00    0.79247   0.67608    0.000
 6719.00    0.70831   0.67617    0.000
 6720.00    0.62766   0.67866    0.000
 6721.00    0.61523   0.67885    0.000
 6722.00    0.60552   0.67637    0.000
 6723.00    0.62696   0.67561    0.000
 6724.00    0.64421   0.67775    0.000
 6725.00    0.62807   0.67862    0.000
 6726.00    0.61955   0.67645    0.000
 6727.00    0.65677   0.67506    0.000
 6728.00    0.71597   0.67658    0.000
 6729.00    0.87927   0.67769    0.000
 6730.00    0.99891   0.67605    0.000
 6731.00    0.94983   0.67454    0.000
 6732.00    0.88777   0.67535    0.000
 6733.00    0.78393   0.67622    0.000
 6734.00    0.70527   0.67519    0.000
 6735.00    0.69527   0.67410    0.000
 6736.00    0.66888   0.67439    0.000
 6737.00    0.60420   0.67482    0.000
 6738.00    0.54689   0.67440    0.000
 6739.00    0.50449   0.67390    0.000
 6740.00    0.51075   0.67401    0.000
 6741.00    0.60261   0.67416    0.000
 6742.00    0.65526   0.67401    0.000
 6743.00    0.64756   0.67396    0.000
 6744.00    0.66048   0.67429    0.000
 6745.00    0.70127   0.67447    0.000
 6746.00    0.72882   0.67419    0.000
 6747.00    0.74061   0.67421    0.000
 6748.00    0.72576   0.67493    0.000
 6749.00    0.68293   0.67544    0.000
 6750.00    0.61766   0.67495    0.000
 6751.00    0.53160   0.67455    0.000
 6752.00    0.51146   0.67545    0.000
 6753.00    0.54510   0.67648    0.007
 6754.00    0.58633   0.67597    0.007
 6755.00    0.63299   0.67500    0.007
 6756.00    0.68538   0.67568    0.007
 6757.00    0.74139   0.67702    0.007
 6758.00    0.82497   0.67678    0.007
 6759.00    0.92375   0.67554    0.007
 6760.00    0.91229   0.67570    0.007
 6761.00    0.84801   0.67689    0.007
 6762.00    0.83176   0.67701    0.008
 6763.00    0.83538   0.67594    0.008
 6764.00    0.80924   0.67552    0.008
 6765.00    0.77258   0.67622    0.008
 6766.00    0.83718   0.67654    0.008
 6767.00    0.93200   0.67578    0.008
 6768.00    0.93123   0.67501    0.008
 6769.00    0.90677   0.67518    0.007
 6770.00    0.80102   0.67541    0.007
 6771.00    0.67896   0.67497    0.007
 6772.00    0.66506   0.67425    0.007
 6773.00    0.66816   0.67395    0.007
 6774.00    0.71089   0.67385    0.007
 6775.00    0.75825   0.67377    0.007
 6776.00    0.70411   0.67339    0.007
 6777.00    0.64197   0.67279    0.007
 6778.00    0.67830   0.67229    0.007
 6779.00    0.71893   0.67241    0.007
 6780.00    0.71590   0.67244    0.007
 6781.00    0.71359   0.67186    0.007
 6782.00    0.76610   0.67110    0.007
 6783.00    0.81645   0.67120    0.007
 6784.00    0.82755   0.67157    0.007
 6785.00    0.82612   0.67134    0.007
 6786.00    0.68764   0.67053    0.007
 6787.00    0.56203   0.67036    0.007
 6788.00    0.53530   0.67093    0.007
 6789.00    0.52577   0.67116    0.007
 6790.00    0.61640   0.67037    0.007
 6791.00    0.69599   0.66987    0.007
 6792.00    0.72455   0.67058    0.007
 6793.00    0.72588   0.67122    0.007
 6794.00    0.62430   0.67033    0.007
 6795.00    0.58725   0.66948    0.007
 6796.00    0.75397   0.67043    0.007
 6797.00    0.86035   0.67145    0.007
 6798.00    0.80518   0.67046    0.007
 6799.00    0.74125   0.66923    0.007
 6800.00    0.65718   0.67011    0.007
 6801.00    0.61295   0.67154    0.007
 6802.00    0.64795   0.67088    0.007
 6803.00    0.67202   0.66917    0.007
 6804.00    0.67719   0.66948    0.007
 6805.00    0.69123   0.67130    0.007
 6806.00    0.71872   0.67148    0.007
 6807.00    0.74296   0.66957    0.007
 6808.00    0.76288   0.66884    0.007
 6809.00    0.74212   0.67056    0.007
 6810.00    0.67363   0.67177    0.007
 6811.00    0.64845   0.67018    0.007
 6812.00    0.66812   0.66847    0.007
 6813.00    0.68840   0.66955    0.007
 6814.00    0.70925   0.67149    0.008
 6815.00    0.68472   0.67059    0.008
 6816.00    0.62367   0.66816    0.007
 6817.00    0.61247   0.66824    0.007
 6818.00    0.63656   0.67033    0.007
 6819.00    0.65031   0.67046    0.007
 6820.00    0.65762   0.66811    0.007
 6821.00    0.68787   0.66695    0.007
 6822.00    0.73056   0.66842    0.007
 6823.00    0.76475   0.66938    0.007
 6824.00    0.79494   0.66776    0.007
 6825.00    0.81629   0.66582    0.007
 6826.00    0.83404   0.66615    0.007
 6827.00    0.77538   0.66738    0.007
 6828.00    0.69019   0.66685    0.007
 6829.00    0.65514   0.66474    0.007
 6830.00    0.63476   0.66393    0.007
 6831.00    0.66620   0.66496    0.007
 6832.00    0.71019   0.66541    0.007
 6833.00    0.73918   0.66391    0.007
 6834.00    0.76523   0.66239    0.007
 6835.00    0.79598   0.66271    0.007
 6836.00    0.82745   0.66365    0.007
 6837.00    0.79387   0.66296    0.007
 6838.00    0.75299   0.66125    0.008
 6839.00    0.78411   0.66079    0.008
 6840.00    0.82062   0.66178    0.008
 6841.00    0.83073   0.66199    0.007
 6842.00    0.83979   0.66042    0.007
 6843.00    0.74677   0.65928    0.007
 6844.00    0.65627   0.66006    0.007
 6845.00    0.69402   0.66075    0.007
 6846.00    0.72496   0.65956    0.007
 6847.00    0.64086   0.65843    0.007
 6848.00    0.56802   0.65892    0.007
 6849.00    0.61301   0.65951    0.007
 6850.00    0.65645   0.65874    0.007
 6851.00    0.68844   0.65789    0.007
 6852.00    0.71904   0.65815    0.007
 6853.00    0.74183   0.65875    0.007
 6854.00    0.76327   0.65849    0.007
 6855.00    0.77857   0.65770    0.007
 6856.00    0.77427   0.65749    0.007
 6857.00    0.69744   0.65823    0.007
 6858.00    0.63644   0.65871    0.007
 6859.00    0.62442   0.65800    0.007
 6860.00    0.60528   0.65739    0.007
 6861.00    0.56740   0.65813    0.007
 6862.00    0.57520   0.65907    0.007
 6863.00    0.68624   0.65866    0.007
 6864.00    0.75488   0.65815    0.007
 6865.00    0.74053   0.65865    0.007
 6866.00    0.72496   0.65948    0.007
 6867.00    0.70733   0.65954    0.007
 6868.00    0.65090   0.65954    0.007
 6869.00    0.53647   0.65976    0.007
 6870.00    0.49180   0.66004    0.007
 6871.00    0.53878   0.66042    0.007
 6872.00    0.57427   0.66103    0.007
 6873.00    0.59647   0.66126    0.007
 6874.00    0.57092   0.66106    0.007
 6875.00    0.49664   0.66143    0.007
 6876.00    0.52103   0.66234    0.007
 6877.00    0.63423   0.66283    0.007
 6878.00    0.64732   0.66263    0.007
 6879.00    0.58100   0.66272    0.007
 6880.00    0.61727   0.66333    0.007
 6881.00    0.72510   0.66410    0.007
 6882.00    0.74573   0.66441    0.007
 6883.00    0.71300   0.66421    0.007
 6884.00    0.63985   0.66407    0.007
 6885.00    0.54511   0.66487    0.007
 6886.00    0.50719   0.66585    0.007
 6887.00    0.49562   0.66567    0.007
 6888.00    0.54330   0.66480    0.007
 6889.00    0.61467   0.66511    0.007
 6890.00    0.65478   0.66650    0.007
 6891.00    0.68424   0.66680    0.007
 6892.00    0.71143   0.66566    0.007
 6893.00    0.73797   0.66519    0.007
 6894.00    0.63652   0.66629    0.007
 6895.00    0.50475   0.66714    0.007
 6896.00    0.51103   0.66639    0.007
 6897.00    0.54362   0.66528    0.007
 6898.00    0.52001   0.66558    0.007
 6899.00    0.48809   0.66657    0.007
 6900.00    0.66723   0.66643    0.007
 6901.00    0.86913   0.66518    0.007
 6902.00    0.82490   0.66474    0.007
 6903.00    0.76328   0.66551    0.007
 6904.00    0.76731   0.66579    0.007
 6905.00    0.77370   0.66478    0.007
 6906.00    0.69336   0.66409    0.007
 6907.00    0.61542   0.66446    0.007
 6908.00    0.63074   0.66460    0.007
 6909.00    0.64554   0.66406    0.007
 6910.00    0.65199   0.66382    0.007
 6911.00    0.65309   0.66384    0.007
 6912.00    0.60057   0.66348    0.007
 6913.00    0.54415   0.66319    0.007
 6914.00    0.45974   0.66344    0.007
 6915.00    0.38770   0.66362    0.007
 6916.00    0.38397   0.66296    0.007
 6917.00    0.39261   0.66245    0.007
 6918.00    0.45579   0.66293    0.007
 6919.00    0.49713   0.66352    0.007
 6920.00    0.45933   0.66299    0.007
 6921.00    0.46034   0.66213    0.007
 6922.00    0.57931   0.66257    0.007
 6923.00    0.64448   0.66358    0.007
 6924.00    0.57061   0.66325    0.007
 6925.00    0.53661   0.66212    0.007
 6926.00    0.59123   0.66229    0.007
 6927.00    0.65158   0.66352    0.007
 6928.00    0.72296   0.66353    0.007
 6929.00    0.74604   0.66241    0.007
 6930.00    0.68793   0.66223    0.007
 6931.00    0.62956   0.66335    0.007
 6932.00    0.57083   0.66365    0.007
 6933.00    0.56463   0.66264    0.007
 6934.00    0.62642   0.66237    0.007
 6935.00    0.66830   0.66341    0.007
 6936.00    0.68744   0.66379    0.007
 6937.00    0.64979   0.66281    0.007
 6938.00    0.55500   0.66253    0.007
 6939.00    0.50630   0.66346    0.007
 6940.00    0.49849   0.66406    0.007
 6941.00    0.57762   0.66346    0.007
 6942.00    0.72473   0.66303    0.007
 6943.00    0.76295   0.66360    0.007
 6944.00    0.72630   0.66434    0.008
 6945.00    0.70750   0.66402    0.008
 6946.00    0.69946   0.66343    0.008
 6947.00    0.63652   0.66402    0.007
 6948.00    0.54469   0.66492    0.007
 6949.00    0.58106   0.66455    0.007
 6950.00    0.67593   0.66374    0.007
 6951.00    0.68062   0.66432    0.007
 6952.00    0.64987   0.66531    0.007
 6953.00    0.68049   0.66477    0.007
 6954.00    0.73163   0.66371    0.007
 6955.00    0.67088   0.66418    0.007
 6956.00    0.57869   0.66533    0.007
 6957.00    0.54401   0.66467    0.007
 6958.00    0.52263   0.66313    0.007
 6959.00    0.55214   0.66323    0.007
 6960.00    0.59109   0.66465    0.007
 6961.00    0.64610   0.66453    0.007
 6962.00    0.70341   0.66272    0.007
 6963.00    0.70747   0.66197    0.008
 6964.00    0.70600   0.66327    0.008
 6965.00    0.67800   0.66397    0.008
 6966.00    0.64822   0.66221    0.008
 6967.00    0.58988   0.66088    0.008
 6968.00    0.53054   0.66201    0.008
 6969.00    0.18772   0.66318    0.007
 6970.00   -0.13102   0.66167    0.000
 6971.00    0.28796   0.66020    0.008
 6972.00    0.67068   0.66120    0.008
 6973.00    0.51372   0.66250    0.008
 6974.00    0.38296   0.66183    0.008
 6975.00    0.50367   0.66077    0.007
 6976.00    0.60401   0.66118    0.007
 6977.00    0.56266   0.66199    0.008
 6978.00    0.53025   0.66175    0.008
 6979.00    0.54591   0.66099    0.008
 6980.00    0.56149   0.66132    0.008
 6981.00    0.57676   0.66199    0.008
 6982.00    0.60285   0.66157    0.008
 6983.00    0.66734   0.66060    0.008
 6984.00    0.72709   0.66110    0.008
 6985.00    0.77273   0.66210    0.008
 6986.00    0.78357   0.66141    0.008
 6987.00    0.70606   0.66001    0.008
 6988.00    0.65040   0.66038    0.008
 6989.00    0.64251   0.66168    0.008
 6990.00    0.62689   0.66110    0.008
 6991.00    0.59660   0.65912    0.008
 6992.00    0.57123   0.65883    0.008
 6993.00    0.55399   0.66048    0.008
 6994.00    0.55312   0.66053    0.008
 6995.00    0.57600   0.65824    0.008
 6996.00    0.58795   0.65724    0.008
 6997.00    0.58594   0.65906    0.008
 6998.00    0.58611   0.65970    0.008
 6999.00    0.58873   0.65754    0.008
 7000.00    0.63173   0.65620    0.008
 7001.00    0.71479   0.65794    0.008
 7002.00    0.72409   0.65917    0.008
 7003.00    0.66886   0.65719    0.008
 7004.00    0.64458   0.65518    0.008
 7005.00    0.64415   0.65670    0.008
 7006.00    0.59987   0.65906    0.008
 7007.00    0.52588   0.65784    0.008
 7008.00    0.49688   0.65496    0.008
 7009.00    0.49461   0.65568    0.008
 7010.00    0.52083   0.65893    0.008
 7011.00    0.56181   0.65895    0.008
 7012.00    0.65570   0.65629    0.008
 7013.00    0.77335   0.65614    0.008
 7014.00    0.71155   0.65909    0.008
 7015.00    0.58050   0.66027    0.008
 7016.00    0.50592   0.65820    0.008
 7017.00    0.44988   0.65688    0.008
 7018.00    0.47074   0.65922    0.008
 7019.00    0.51275   0.66181    0.008
 7020.00    0.63355   0.66100    0.008
 7021.00    0.77217   0.65901    0.008
 7022.00    0.80950   0.65996    0.008
 7023.00    0.82854   0.66281    0.008
 7024.00    0.81298   0.66333    0.008
 7025.00    0.79262   0.66174    0.008
 7026.00    0.59820   0.66131    0.008
 7027.00    0.38649   0.66323    0.008
 7028.00    0.39991   0.66484    0.008
 7029.00    0.42744   0.66398    0.008
 7030.00    0.57847   0.66231    0.009
 7031.00    0.73168   0.66293    0.009
 7032.00    0.53252   0.66477    0.009
 7033.00    0.34721   0.66455    0.009
 7034.00    0.54223   0.66284    0.009
 7035.00    0.72395   0.66237    0.008
 7036.00    0.71905   0.66313    0.008
 7037.00    0.69932   0.66283    0.009
 7038.00    0.54287   0.66119    0.008
 7039.00    0.40928   0.65993    0.008
 7040.00    0.42968   0.65991    0.008
 7041.00    0.45495   0.65969    0.008
 7042.00    0.50570   0.65790    0.008
 7043.00    0.54993   0.65591    0.008
 7044.00    0.56668   0.65526    0.008
 7045.00    0.57204   0.65490    0.008
 7046.00    0.53782   0.65311    0.008
 7047.00    0.50484   0.65078    0.009
 7048.00    0.47549   0.64990    0.009
 7049.00    0.44294   0.64981    0.008
 7050.00    0.40234   0.64847   -2.000
 7051.00    0.42059   0.64587   -2.000
 7052.00    0.56540   0.64446   -2.000
 7053.00    0.66972   0.64466   -2.000
 7054.00    0.69842   0.64413   -2.000
 7055.00    0.67581   0.64192   -2.000
 7056.00    0.56949   0.64036   -2.000
 7057.00    0.53485   0.64041   -2.000
 7058.00    0.60272   0.64022   -2.000
 7059.00    0.67465   0.63871   -2.000
 7060.00    0.75170   0.63694   -2.000
 7061.00    0.74888   0.63671   -2.000
 7062.00    0.65748   0.63703   -2.000
 7063.00    0.65186   0.63599   -2.000
 7064.00    0.73012   0.63425   -2.000
 7065.00    0.66484   0.63381   -2.000
 7066.00    0.47575   0.63386   -2.000
 7067.00    0.41167   0.63253   -2.000
 7068.00    0.44255   0.63079   -2.000
 7069.00    0.39645   0.63050   -2.000
 7070.00    0.29895   0.63046   -2.000
 7071.00    0.37851   0.62889   -2.000
 7072.00    0.56163   0.62672   -2.000
 7073.00    0.75296   0.62598   -2.000
 7074.00    0.94849   0.62623   -2.000
 7075.00    0.89068   0.62515   -2.000
 7076.00    0.72102   0.62229   -2.000
 7077.00    0.37706   0.62081   -2.000
 7078.00   -0.03299   0.62165   -2.000
 7079.00    0.05609   0.62133   -2.000
 7080.00    0.30591   0.61860   -2.000
 7081.00    0.41137   0.61630   -2.000
 7082.00    0.47794   0.61688   -2.000
 7083.00    0.41555   0.61767   -2.000
 7084.00    0.32469   0.61637   -2.000
 7085.00    0.43328   0.61362   -2.000
 7086.00    0.57693   0.61319   -2.000
 7087.00    0.51677   0.61480   -2.000
 7088.00    0.42931   0.61510   -2.000
 7089.00    0.47328   0.61279   -2.000
 7090.00    0.52973   0.61117   -2.000
 7091.00    0.48431   0.61283   -2.000
 7092.00    0.43290   0.61437   -2.000
 7093.00    0.54482   0.61354   -2.000
 7094.00    0.66071   0.61139   -2.000
 7095.00    0.77002   0.61158   -2.000
 7096.00    0.86975   0.61349   -2.000
 7097.00    0.73135   0.61440   -2.000
 7098.00    0.60778   0.61282   -2.000
 7099.00    0.68116   0.61166   -2.000
 7100.00    0.74136   0.61274   -2.000
 7101.00    0.68479   0.61414   -2.000
 7102.00    0.64760   0.61384   -2.000
 7103.00    0.73712   0.61236   -2.000
 7104.00    0.82047   0.61208   -2.000
 7105.00    0.87241   0.61274   -2.000
 7106.00    0.92100   0.61350   -2.000
 7107.00    0.95576   0.61304   -2.000
 7108.00    0.91434   0.61180   -2.000
 7109.00    0.61325   0.61094   -2.000
 7110.00    0.39877   0.61141   -2.000
 7111.00    0.43312   0.61227   -2.000
 7112.00    0.43394   0.61166   -2.000
 7113.00    0.35244   0.60963   -2.000
 7114.00    0.29750   0.60847   -2.000
 7115.00    0.29876   0.60983   -2.000
 7116.00    0.30371   0.61087   -2.000
 7117.00    0.31548   0.60902   -2.000
 7118.00    0.39234   0.60637   -2.000
 7119.00    0.57379   0.60679   -2.000
 7120.00    0.54924   0.60919   -2.000
 7121.00    0.23428   0.60877   -2.000
 7122.00    0.19706   0.60545   -2.000
 7123.00    0.50433   0.60431   -2.000
 7124.00    0.60649   0.60691   -2.000
 7125.00    0.48439   0.60826   -2.000
 7126.00    0.43136   0.60590   -2.000
 7127.00    0.44496   0.60363   -2.000
 7128.00    0.53801   0.60515   -2.000
 7129.00    0.69864   0.60780   -2.000
 7130.00    0.82037   0.60683   -2.000
 7131.00    0.91296   0.60397   -2.000
 7132.00    0.87745   0.60443   -2.000
 7133.00    0.75765   0.60737   -2.000
 7134.00    0.83595   0.60754   -2.000
 7135.00    1.02836   0.60540   -2.000
 7136.00    0.91261   0.60532   -2.000
 7137.00    0.64223   0.60745   -2.000
 7138.00    0.54119   0.60818   -2.000
 7139.00    0.51367   0.60675   -2.000
 7140.00    0.33146   0.60634   -2.000
 7141.00    0.09163   0.60810   -2.000
 7142.00    0.23901   0.60924   -2.000
 7143.00    0.50869   0.60775   -2.000
 7144.00    0.60475   0.60695   -2.000
 7145.00    0.65502   0.60911   -2.000
 7146.00    0.49236   0.61048   -2.000
 7147.00    0.28381   0.60868   -2.000
 7148.00    0.29115   0.60719   -2.000
 7149.00    0.33538   0.60916   -2.000
 7150.00    0.24775   0.61119   -2.000
 7151.00    0.14305   0.61016   -2.000
 7152.00    0.30425   0.60793   -2.000
 7153.00    0.48959   0.60846   -2.000
 7154.00    0.69546   0.61094   -2.000
 7155.00    0.90246   0.61106   -2.000
 7156.00    0.79655   0.60874   -2.000
 7157.00    0.68922   0.60801   -2.000
 7158.00    1.05016   0.61003   -2.000
 7159.00    1.36832   0.61086   -2.000
 7160.00    0.71546   0.60943   -2.000
 7161.00    0.10847   0.60820   -2.000
 7162.00    0.07923   0.60894   -2.000
 7163.00    0.07694   0.60972   -2.000
 7164.00    0.30458   0.60913   -2.000
 7165.00    0.58121   0.60833   -2.000
 7166.00    1.16835   0.60835   -2.000
 7167.00    1.52145   0.60858   -2.000
 7168.00    0.71249   0.60811   -2.000
 7169.00    0.08614   0.60794   -2.000
 7170.00    0.19483   0.60782   -2.000
 7171.00    0.30793   0.60728   -2.000
 7172.00    0.43577   0.60644   -2.000
 7173.00    0.55332   0.60657   -2.000
 7174.00    0.64186   0.60741   -2.000
 7175.00    0.66866   0.60684   -2.000
 7176.00    0.54656   0.60513   -2.000
 7177.00    0.48975   0.60483   -2.000
 7178.00    0.56890   0.60654   -2.000
 7179.00    0.54327   0.60667   -2.000
 7180.00    0.32794   0.60433   -2.000
 7181.00    0.24563   0.60301   -2.000
 7182.00    0.37388   0.60490   -2.000
 7183.00    0.48427   0.60658   -2.000
 7184.00    0.56985   0.60470   -2.000
 7185.00    0.61109   0.60204   -2.000
 7186.00    0.59811   0.60289   -2.000
 7187.00    0.38452   0.60604   -2.000
 7188.00   -0.04532   0.60596   -2.000
 7189.00   -0.07996   0.60258   -2.000
 7190.00    0.26117   0.60138   -2.000
 7191.00    0.42765   0.60447   -2.000
 7192.00    0.44772   0.60657   -2.000
 7193.00    0.50247   0.60427   -2.000
 7194.00    0.58283   0.60165   -2.000
 7195.00    0.62658   0.60305   -2.000
 7196.00    0.64660   0.60641   -2.000
 7197.00    0.77745   0.60646   -2.000
 7198.00    0.97118   0.60368   -2.000
 7199.00    0.66283   0.60295   -2.000
 7200.00    0.10652   0.60583   -2.000
 7201.00    0.25020   0.60792   -2.000
 7202.00    0.69278   0.60646   -2.000
 7203.00    0.63932   0.60486   -2.000
 7204.00    0.40437   0.60629   -2.000
 7205.00    0.68592   0.60889   -2.000
 7206.00    1.12748   0.60913   -2.000
 7207.00    0.93013   0.60792   -2.000
 7208.00    0.56788   0.60822   -2.000
 7209.00    0.54616   0.61032   -2.000
 7210.00    0.59607   0.61166   -2.000
 7211.00    0.51392   0.61108   -2.000
 7212.00    0.40983   0.61084   -2.000
 7213.00    0.31112   0.61230   -2.000
 7214.00    0.21309   0.61391   -2.000
 7215.00    0.20915   0.61400   -2.000
 7216.00    0.21336   0.61385   -2.000
 7217.00    0.43818   0.61486   -2.000
 7218.00    0.67422   0.61607   -2.000
