###################################################################
## OUTPUT of StarlightChains_v04.for    [Cid@UFSC - 01/Apr/2007] ##
###################################################################

## Some input info
KUG0210-078._29_35.txt                   [arq_obs]
Base.CB07.vall.4m                        [arq_base]
Masks.EmLines.NEW.gm                     [arq_masks]
StCv04.C11.config                        [arq_config]
   66                                    [N_base]
    0                                    [N_YAV_components = # of components with extra extinction!]
    0                                    [i_FitPowerLaw (1/0 = Yes/No)]
-9.99                                    [alpha_PowerLaw]
CCM                                      [red_law_option]
 1.458241                                [q_norm = A(l_norm)/A(V)]

## (Re)Sampling Parameters
 3741.00                                 [l_ini (A)]
 7218.00                                 [l_fin (A)]
    1.00                                 [dl    (A)]     (OBS: dl_cushion =    50.00 A)

## Normalization info
 4020.00                                 [l_norm (A) - for base]
 4010.00                                 [llow_norm (A) - window for f_obs]
 4060.00                                 [lupp_norm (A) - window for f_obs]
1.935755E-16                             [fobs_norm (in input units)]

## S/N
 3691.00                                 [llow_SN (A) - window for S/N]
 7268.00                                 [lupp_SN (A) - window for S/N]
  10.162                                 [S/N in S/N window]
  10.375                                 [S/N in norm. window]
   0.442                                 [S/N_err in S/N window]
   0.451                                 [S/N_err in norm. window]
  1.0000                                 [fscale_chi2]

## etc...
    -2007411                             [idum_orig]
  2432                                   [NOl_eff]
  2328                                   [Nl_eff]
   104    NSIGMA                         [Ntot_cliped & clip_method]
 15340220                                [Nglobal_steps]
   7                                     [N_chains]
  13                                     [NEX0s_base = N_base in EX0s-fits]
 0   0   1      104   2.0   8.526E+04    [Clip-Bug, RC-Crash & Burn-In warning-flags, n_censored_weights, wei_nsig_threshold & wei_limit]
   121    121.291    120.824      0.467  [idt_all, wdt_TotTime, wdt_UsrTime & wdt_SysTime (sec)]

## Synthesis Results - Best model ##

 1.39568E-03                             [chi2/Nl_eff]
     4.58905                             [adev (%)]

    92.38203                             [sum-of-x (%)]
 5.40742E-15                             [Flux_tot (units of input spectrum!)]
 6.29006E-12                             [Mini_tot (???)]
 3.67845E-12                             [Mcor_tot (???)]

 329.94                                  [v0_min  (km/s)]
 141.02                                  [vd_min  (km/s)]
 2.5382                                  [AV_min  (mag)]
 0.0000                                  [YAV_min (mag)]

# j     x_j(%)      Mini_j(%)     Mcor_j(%)     age_j(yr)     Z_j      (L/M)_j    YAV?  Mstars   component_j        a/Fe...       SSP_chi2r SSP_adev(%)   SSP_AV   SSP_x(%)
  1     18.6511     1.5865E+00    2.7128E+00    1.000000E+06  0.00400  1.094E-02    0   1.0000   age020_m42            0.0000     1.5437E-03     5.3611   3.1007    89.3217
  2      0.0000     0.0000E+00    0.0000E+00    3.160000E+06  0.00400  4.007E-02    0   0.9999   age045_m42            0.0000     2.4071E-03     5.8088   2.3569    96.1083
  3      0.0000     0.0000E+00    0.0000E+00    5.010000E+06  0.00400  2.539E-02    0   0.9488   age055_m42            0.0000     1.9655E-03     5.4530   2.6858    93.4359
  4      0.0000     0.0000E+00    0.0000E+00    6.610000E+06  0.00400  2.620E-02    0   0.9220   age061_m42            0.0000     2.5919E-03     5.7132   2.2861    96.2045
  5      0.0000     0.0000E+00    0.0000E+00    1.000000E+07  0.00400  1.322E-02    0   0.8862   age070_m42            0.0000     2.2438E-03     5.0307   2.0303    97.2037
  6      0.0000     0.0000E+00    0.0000E+00    1.445000E+07  0.00400  7.883E-03    0   0.8571   age078_m42            0.0000     1.9579E-03     4.8653   2.3578    94.7036
  7      0.0000     0.0000E+00    0.0000E+00    2.512000E+07  0.00400  5.251E-03    0   0.8174   age090_m42            0.0000     2.3028E-03     5.1173   1.9033    97.6372
  8      0.0000     0.0000E+00    0.0000E+00    4.000000E+07  0.00400  3.649E-03    0   0.7851   age104_m42            0.0000     2.5149E-03     5.2723   1.6704    98.7145
  9      0.0000     0.0000E+00    0.0000E+00    5.500000E+07  0.00400  3.098E-03    0   0.7629   age110_m42            0.0000     3.0220E-03     5.6120   1.8110    99.1891
 10      0.0000     0.0000E+00    0.0000E+00    1.015200E+08  0.00400  2.228E-03    0   0.7207   age116_m42            0.0000     3.5834E-03     5.9589   1.8234    99.6754
 11      0.0000     0.0000E+00    0.0000E+00    2.861200E+08  0.00400  1.093E-03    0   0.6648   age125_m42            0.0000     4.1536E-03     6.5506   1.2551   102.5031
 12      0.0000     0.0000E+00    0.0000E+00    5.088000E+08  0.00400  6.597E-04    0   0.6365   age130_m42            0.0000     4.9660E-03     6.9868   1.2328   103.9207
 13      0.0000     0.0000E+00    0.0000E+00    1.434000E+09  0.00400  2.132E-04    0   0.5798   age139_m42            0.0000     5.0780E-03     7.3728   0.2474   106.9516
 14      0.0000     0.0000E+00    0.0000E+00    4.250000E+09  0.00400  5.895E-05    0   0.5377   age158_m42            0.0000     4.5676E-03     7.8360  -0.2213   104.2474
 15      0.0000     0.0000E+00    0.0000E+00    7.500000E+09  0.00400  3.510E-05    0   0.5212   age171_m42            0.0000     5.0011E-03     8.4751  -0.4226   104.0977
 16      0.0000     0.0000E+00    0.0000E+00    1.300000E+10  0.00400  2.005E-05    0   0.5034   age193_m42            0.0000     5.4693E-03     9.0332  -0.5948   103.7976
 17      0.0000     0.0000E+00    0.0000E+00    1.800000E+10  0.00400  1.525E-05    0   0.4967   age213_m42            0.0000     5.2984E-03     8.8734  -0.6154   103.2683
 18      2.7208     2.0451E-01    3.4971E-01    1.000000E+06  0.00800  1.238E-02    0   1.0000   age020_m52            0.0000     1.5470E-03     5.3644   3.0977    89.4821
 19      0.0000     0.0000E+00    0.0000E+00    3.160000E+06  0.00800  3.074E-02    0   0.9966   age045_m52            0.0000     1.6077E-03     5.3771   3.0193    90.3603
 20      0.0000     0.0000E+00    0.0000E+00    5.010000E+06  0.00800  2.668E-02    0   0.9443   age055_m52            0.0000     1.8382E-03     5.3287   2.7717    92.4971
 21      0.0000     0.0000E+00    0.0000E+00    6.610000E+06  0.00800  2.136E-02    0   0.9177   age061_m52            0.0000     1.8946E-03     4.9767   1.5256    98.7236
 22      0.0000     0.0000E+00    0.0000E+00    1.000000E+07  0.00800  1.215E-02    0   0.8827   age070_m52            0.0000     2.0400E-03     5.1303   2.2172    96.6279
 23      0.0000     0.0000E+00    0.0000E+00    1.445000E+07  0.00800  8.717E-03    0   0.8552   age078_m52            0.0000     2.0450E-03     4.9349   2.3231    96.0438
 24      0.0000     0.0000E+00    0.0000E+00    2.512000E+07  0.00800  5.592E-03    0   0.8162   age090_m52            0.0000     2.4089E-03     5.3504   1.9682    98.7402
 25      0.0000     0.0000E+00    0.0000E+00    4.000000E+07  0.00800  3.896E-03    0   0.7841   age104_m52            0.0000     2.7485E-03     5.6487   1.8700    99.8894
 26      0.0000     0.0000E+00    0.0000E+00    1.015200E+08  0.00800  2.148E-03    0   0.7226   age116_m52            0.0000     3.3430E-03     5.9258   1.7937   100.3718
 27      0.0000     0.0000E+00    0.0000E+00    2.861200E+08  0.00800  9.925E-04    0   0.6683   age125_m52            0.0000     5.0290E-03     7.0651   1.2972   104.9088
 28      0.0000     0.0000E+00    0.0000E+00    9.047900E+08  0.00800  3.141E-04    0   0.6138   age135_m52            0.0000     6.1675E-03     8.4434   0.4674   110.8434
 29      0.0000     0.0000E+00    0.0000E+00    1.434000E+09  0.00800  1.719E-04    0   0.5853   age139_m52            0.0000     5.1618E-03     8.3276  -0.1277   109.4891
 30      0.0000     0.0000E+00    0.0000E+00    2.500000E+09  0.00800  7.872E-05    0   0.5600   age150_m52            0.0000     5.5849E-03     9.1095  -0.4183   107.6490
 31      0.0000     0.0000E+00    0.0000E+00    4.250000E+09  0.00800  4.336E-05    0   0.5426   age158_m52            0.0000     5.5882E-03     9.1408  -0.4341   106.6716
 32      0.0000     0.0000E+00    0.0000E+00    6.250000E+09  0.00800  3.159E-05    0   0.5319   age166_m52            0.0000     6.5099E-03    10.0286  -0.6532   107.3831
 33      0.0000     0.0000E+00    0.0000E+00    1.300000E+10  0.00800  1.361E-05    0   0.5073   age193_m52            0.0000     8.0872E-03     9.9957  -1.0000   103.3151
 34      0.0000     0.0000E+00    0.0000E+00    1.800000E+10  0.00800  9.886E-06    0   0.4990   age213_m52            0.0000     9.7071E-03    10.4404  -1.0000    99.5804
 35      5.1694     3.1156E-01    5.3276E-01    1.000000E+06  0.02000  1.544E-02    0   1.0000   age020_m62            0.0000     1.5520E-03     5.3675   3.0941    89.6754
 36      0.0000     0.0000E+00    0.0000E+00    3.160000E+06  0.02000  3.762E-02    0   0.9858   age045_m62            0.0000     1.6032E-03     5.4092   3.0325    90.4905
 37      0.0000     0.0000E+00    0.0000E+00    5.010000E+06  0.02000  3.296E-02    0   0.9342   age055_m62            0.0000     2.2726E-03     5.6999   2.6393    94.8356
 38      0.0000     0.0000E+00    0.0000E+00    8.710000E+06  0.02000  1.154E-02    0   0.8861   age067_m62            0.0000     2.2266E-03     7.3976   1.7184    97.1497
 39      0.0000     0.0000E+00    0.0000E+00    1.445000E+07  0.02000  7.663E-03    0   0.8472   age078_m62            0.0000     2.0158E-03     5.7943   1.8750    98.3224
 40      0.0000     0.0000E+00    0.0000E+00    2.512000E+07  0.02000  4.532E-03    0   0.8099   age090_m62            0.0000     2.2121E-03     6.0796   1.8677    97.9717
 41      0.0000     0.0000E+00    0.0000E+00    5.500000E+07  0.02000  2.733E-03    0   0.7595   age110_m62            0.0000     2.6686E-03     5.5198   1.8544    99.1429
 42      0.0000     0.0000E+00    0.0000E+00    1.609000E+08  0.02000  1.369E-03    0   0.6985   age120_m62            0.0000     4.2396E-03     6.3597   1.6740   102.6240
 43      0.0000     0.0000E+00    0.0000E+00    2.861200E+08  0.02000  9.013E-04    0   0.6714   age125_m62            0.0000     5.5759E-03     7.0805   1.4141   106.0035
 44      0.0000     0.0000E+00    0.0000E+00    5.088000E+08  0.02000  5.028E-04    0   0.6449   age130_m62            0.0000     6.6917E-03     8.3116   1.0095   110.0528
 45      0.0000     0.0000E+00    0.0000E+00    9.047900E+08  0.02000  2.428E-04    0   0.6179   age135_m62            0.0000     6.0750E-03     8.8002   0.3932   110.9940
 46      0.0000     0.0000E+00    0.0000E+00    1.434000E+09  0.02000  1.263E-04    0   0.5908   age139_m62            0.0000     5.7674E-03     9.0265  -0.0665   110.2257
 47      0.0000     0.0000E+00    0.0000E+00    2.500000E+09  0.02000  5.985E-05    0   0.5673   age150_m62            0.0000     6.4023E-03     9.9832  -0.4540   109.7213
 48      2.3291     6.6260E+01    6.1954E+01    4.250000E+09  0.02000  3.271E-05    0   0.5468   age158_m62            0.0000     7.8093E-03    11.2555  -0.7838   109.8710
 49      0.0000     0.0000E+00    0.0000E+00    1.000000E+10  0.02000  1.360E-05    0   0.5167   age181_m62            0.0000     1.0273E-02    11.5253  -1.0000   105.6378
 50      0.0000     0.0000E+00    0.0000E+00    1.800000E+10  0.02000  7.124E-06    0   0.5013   age213_m62            0.0000     1.3140E-02    12.1480  -1.0000    98.1638
 51     58.1482     2.0876E+00    3.5690E+00    1.000000E+06  0.05000  2.592E-02    0   0.9998   age020_m72            0.0000     1.5206E-03     5.2966   3.0883    89.6190
 52      0.0000     0.0000E+00    0.0000E+00    3.160000E+06  0.05000  4.845E-02    0   0.9577   age045_m72            0.0000     1.8382E-03     5.5896   2.9069    92.0059
 53      0.0000     0.0000E+00    0.0000E+00    5.010000E+06  0.05000  3.072E-02    0   0.9147   age055_m72            0.0000     1.8806E-03     5.5224   2.4479    94.9964
 54      0.0000     0.0000E+00    0.0000E+00    6.610000E+06  0.05000  1.455E-02    0   0.8877   age061_m72            0.0000     3.3404E-03    10.0492   1.7677    97.1560
 55      0.0000     0.0000E+00    0.0000E+00    1.000000E+07  0.05000  9.074E-03    0   0.8524   age070_m72            0.0000     2.1980E-03     6.5603   2.6223    94.7398
 56      0.0000     0.0000E+00    0.0000E+00    2.512000E+07  0.05000  4.250E-03    0   0.7902   age090_m72            0.0000     2.5087E-03     6.2316   2.3208    96.7432
 57      0.0000     0.0000E+00    0.0000E+00    4.000000E+07  0.05000  3.087E-03    0   0.7618   age104_m72            0.0000     2.8573E-03     6.5136   2.0938    98.3228
 58      0.0000     0.0000E+00    0.0000E+00    1.015200E+08  0.05000  1.700E-03    0   0.7096   age116_m72            0.0000     3.9718E-03     6.3575   1.8234   101.8345
 59      0.0000     0.0000E+00    0.0000E+00    2.861200E+08  0.05000  7.384E-04    0   0.6633   age125_m72            0.0000     6.2208E-03     7.7730   1.2652   108.2101
 60      0.0739     1.8007E-01    1.9620E-01    5.088000E+08  0.05000  3.819E-04    0   0.6372   age130_m72            0.0000     6.3151E-03     8.6662   0.7404   111.6721
 61      5.2897     2.9370E+01    3.0686E+01    9.047900E+08  0.05000  1.676E-04    0   0.6110   age135_m72            0.0000     6.4680E-03     9.8963   0.0020   111.8521
 62      0.0000     0.0000E+00    0.0000E+00    1.434000E+09  0.05000  8.837E-05    0   0.5874   age139_m72            0.0000     6.8880E-03    10.3810  -0.4650   111.8029
 63      0.0000     0.0000E+00    0.0000E+00    2.500000E+09  0.05000  4.233E-05    0   0.5598   age150_m72            0.0000     8.2946E-03    11.7511  -0.7998   111.4950
 64      0.0000     0.0000E+00    0.0000E+00    6.250000E+09  0.05000  1.435E-05    0   0.5249   age166_m72            0.0000     1.0967E-02    11.6665  -1.0000   102.2760
 65      0.0000     0.0000E+00    0.0000E+00    1.300000E+10  0.05000  6.513E-06    0   0.5036   age193_m72            0.0000     1.5397E-02    13.4690  -1.0000    93.9979
 66      0.0000     0.0000E+00    0.0000E+00    1.800000E+10  0.05000  4.527E-06    0   0.4945   age213_m72            0.0000     1.8504E-02    15.1214  -1.0000    88.3975


## Synthesis Results - Average & Chains ##

# j      x_j: min, <> & last-chain-values for 1 ...  7 chains
  1     18.6511     10.3953      9.8713     18.2306      7.5934     54.7629     11.1330     10.2887      9.8666
  2      0.0000      0.8514      0.4956      0.0000      0.4469      0.0183      1.4664      0.0000      1.7144
  3      0.0000      1.0224      0.0000      0.0255      2.6318      0.0000      0.1614      0.0000      1.5853
  4      0.0000      0.9004      0.8789      0.0169      0.6616      0.0968      0.4989      0.0000      0.5651
  5      0.0000      1.0953      0.9959      0.2131      5.1243      0.0000      1.4142      0.4234      1.2428
  6      0.0000      0.9694      1.0270      0.1987      0.0000      0.0078      1.7545      0.6385      0.0000
  7      0.0000      0.8945      1.0102      0.0000      5.2352      0.0000      0.9424      0.8202      0.0000
  8      0.0000      1.0328      1.5628      0.0870      0.9141      0.0110      0.1288      2.0182      0.2993
  9      0.0000      0.7556      0.0668      0.0325      0.0000      0.0037      0.6735      0.0000      0.0000
 10      0.0000      0.8282      0.0000      0.0530      1.4045      0.0002      0.4431      0.0000      1.5685
 11      0.0000      0.7797      0.6713      0.0000      2.2891      0.0192      0.3625      0.0000      0.0000
 12      0.0000      0.9418      0.5967      0.0399      0.0000      0.0120      1.3109      0.0000      0.8499
 13      0.0000      1.2221      1.2692      0.0890      0.8252      0.0017      0.0603      0.0000      1.0683
 14      0.0000      3.6884      4.5186      6.6489      0.0000      0.0828      7.5664      5.1719      4.0471
 15      0.0000      1.5075      3.0608      2.1069      0.2349      0.3347      3.4654      1.7678      0.3451
 16      0.0000      1.1295      1.5643      1.4457      3.5192      0.0843      0.0000      0.0000      0.0000
 17      0.0000      1.2727      2.3317      1.3626      1.2505      0.0664      0.4118      0.0000      1.9105
 18      2.7208      2.1009      1.9665      3.1733      2.8391      2.5066      2.5057      2.6844      1.6672
 19      0.0000      2.1350      2.7091      1.9381      6.1162      2.5530      3.0141      2.1009      1.1723
 20      0.0000      0.7976      0.1418      0.1092      0.7545      0.6673      0.4595      2.2242      4.6092
 21      0.0000     13.0579     15.2144     33.0700     10.1272      0.4658     14.9179     14.4113     11.8695
 22      0.0000      1.3648      1.2925      1.0729      0.0000      0.0486      1.6056      1.2576      1.7368
 23      0.0000      0.9880      0.7250      0.0839      0.0000      0.0007      0.2767      1.3455      0.8445
 24      0.0000      0.9720      0.2382      0.0742      0.0000      0.0015      0.0000      0.0000      5.1212
 25      0.0000      1.3948      2.1978      0.0884      0.5316      0.0000      0.3001      2.8861      0.7138
 26      0.0000      0.8946      0.1502      0.0496      0.0000      0.0000      0.0000      0.0000      0.0000
 27      0.0000      1.0399      1.5073      0.0158      1.1247      0.0263      0.1936      2.1114      0.2585
 28      0.0000      0.8269      0.0000      0.0279      0.0000      0.0048      1.8687      2.1921      0.0000
 29      0.0000      0.8508      0.4239      0.1043      0.0000      0.0000      0.0000      1.1886      0.0000
 30      0.0000      0.6686      0.0000      0.2104      0.5778      0.0463      0.0000      0.6459      0.6962
 31      0.0000      1.3532      1.4189      2.4410      1.6479      0.1856      2.0666      1.9938      1.5725
 32      0.0000      1.8699      1.0380      1.3127      0.0000      4.8737      1.0168      3.1584      5.1204
 33      0.0000      0.8397      0.0000      0.2522      0.0000      0.0000      1.1675      0.5627      0.0000
 34      0.0000      0.7420      0.2652      0.1271      4.3868      0.0517      0.0000      0.0000      0.2318
 35      5.1694      1.7806      4.3145      1.7891      4.5228      1.3242      1.2622      2.6865      2.8540
 36      0.0000      0.9889      0.8940      0.2118      0.8362      0.0392      0.9156      0.0000      1.5211
 37      0.0000      0.8015      1.5982      0.0026      0.7149      0.0059      0.2930      0.0000      0.6285
 38      0.0000      0.9788      2.1650      0.0000      0.0000      0.0114      0.9280      2.9207      0.0000
 39      0.0000      1.0977      0.0414      0.4670      0.0000      0.0251      0.7009      1.6974      0.3840
 40      0.0000      0.7800      0.5007      0.1921      0.0000      0.0122      0.0000      0.0000      1.3404
 41      0.0000      0.7762      1.2268      0.0611      0.7350      0.0083      1.1362      0.0000      0.4024
 42      0.0000      0.9436      0.0000      0.0000      0.2118      0.0101      0.1069      0.0000      0.2447
 43      0.0000      0.9877      0.6186      0.0864      0.0690      0.0000      0.4539      0.7557      2.4438
 44      0.0000      0.8074      0.0000      0.0643      1.2728      0.0042      1.2260      0.0408      0.0438
 45      0.0000      0.8716      0.0000      0.0160      1.6746      0.0000      0.0097      2.1138      0.3209
 46      0.0000      2.6901      1.0494      3.3358      1.8047      5.2811      3.3397      0.9115      0.2372
 47      0.0000      1.1065      0.0036      1.5537      3.8543      0.0652      1.1683      0.7631      1.5811
 48      2.3291      3.1167      2.8654      4.0609      0.0000     13.5823      3.2060      0.1586      4.7571
 49      0.0000      0.8252      0.7341      0.1011      4.0314      0.0409      2.4568      1.6046      0.1129
 50      0.0000      0.6434      0.0000      0.0000      2.7328      0.0253      0.2097      0.1203      3.6747
 51     58.1482      2.7064      3.1583      3.7557      4.1093      5.5676      6.0927      2.2643      3.7980
 52      0.0000      0.9741      2.2664      0.7681      3.9326      0.0069      0.4212      1.0087      0.5557
 53      0.0000      0.9022      1.1646      0.1157      0.2716      0.0028      0.6369      3.7044      2.1663
 54      0.0000      0.8895      0.6768      0.0486      0.0000      0.0000      0.6595      2.7185      0.0298
 55      0.0000      1.1280      1.0144      0.0879      1.8576      0.0000      0.7546      0.3845      1.1058
 56      0.0000      0.6228      0.0000      0.0217      0.0000      0.0063      1.0500      0.0000      0.7985
 57      0.0000      1.0438      0.3262      0.0000      0.2286      0.0010      0.3771      0.1391      1.2678
 58      0.0000      0.9780      0.8015      0.0000      1.3194      0.0016      0.1329      1.9089      1.3882
 59      0.0000      1.0467      0.0000      0.0000      1.8507      0.0124      2.5380      0.1040      2.1447
 60      0.0739      0.7615      0.6050      0.0893      2.2289      0.4876      0.0402      1.1857      2.5108
 61      5.2897      5.8412      8.3527      7.1267      0.8483      7.3510      7.6991      8.7368      0.0794
 62      0.0000      1.8609      2.9525      2.1980      0.0000      0.0965      1.0178      1.8361      0.0000
 63      0.0000      1.6356      2.9041      2.1003      2.8612      0.3489      2.8640      0.8452      2.1505
 64      0.0000      0.8050      1.4979      0.0409      0.0000      0.0000      0.0000      2.2370      0.0000
 65      0.0000      0.7303      1.0662      0.0585      0.1741      0.3745      0.0000      1.0654      0.5662
 66      0.0000      0.7155      0.6189      0.0000      0.6831      0.0024      0.7527      0.6069      2.5087

# j      m_j: min, <> & last-chain-values for 1 ...  7 chains
  1  2.7128E+00  1.4821E-01  1.4146E-01  3.9295E-01  7.5510E-02  1.1894E+00  1.7613E-01  1.6515E-01  9.4905E-02
  2  0.0000E+00  3.3139E-03  1.9389E-03  0.0000E+00  1.2132E-03  1.0830E-04  6.3335E-03  0.0000E+00  4.5019E-03
  3  0.0000E+00  5.9596E-03  0.0000E+00  2.2446E-04  1.0699E-02  0.0000E+00  1.0438E-03  0.0000E+00  6.2339E-03
  4  0.0000E+00  4.9424E-03  4.8488E-03  1.4039E-04  2.5330E-03  8.0960E-04  3.0385E-03  0.0000E+00  2.0925E-03
  5  0.0000E+00  1.1452E-02  1.0466E-02  3.3683E-03  3.7370E-02  0.0000E+00  1.6408E-02  4.9835E-03  8.7667E-03
  6  0.0000E+00  1.6440E-02  1.7507E-02  5.0938E-03  0.0000E+00  2.0070E-04  3.3018E-02  1.2191E-02  0.0000E+00
  7  0.0000E+00  2.1718E-02  2.4655E-02  0.0000E+00  8.8657E-02  0.0000E+00  2.5391E-02  2.2420E-02  0.0000E+00
  8  0.0000E+00  3.4659E-02  5.2715E-02  4.4164E-03  2.1396E-02  5.6377E-04  4.7959E-03  7.6251E-02  6.7754E-03
  9  0.0000E+00  2.9022E-02  2.5776E-03  1.8867E-03  0.0000E+00  2.1375E-04  2.8705E-02  0.0000E+00  0.0000E+00
 10  0.0000E+00  4.1786E-02  0.0000E+00  4.0398E-03  4.9425E-02  1.6907E-05  2.4807E-02  0.0000E+00  5.3390E-02
 11  0.0000E+00  7.3968E-02  6.4011E-02  0.0000E+00  1.5147E-01  2.7721E-03  3.8166E-02  0.0000E+00  0.0000E+00
 12  0.0000E+00  1.4173E-01  9.0262E-02  9.0731E-03  0.0000E+00  2.7481E-03  2.1890E-01  0.0000E+00  8.6292E-02
 13  0.0000E+00  5.1839E-01  5.4112E-01  5.7090E-02  2.4413E-01  1.0837E-03  2.8379E-02  0.0000E+00  3.0573E-01
 14  0.0000E+00  5.2475E+00  6.4617E+00  1.4301E+01  0.0000E+00  1.7948E-01  1.1945E+01  8.2839E+00  3.8846E+00
 15  0.0000E+00  3.4916E+00  7.1254E+00  7.3774E+00  3.7950E-01  1.1808E+00  8.9063E+00  4.6097E+00  5.3923E-01
 16  0.0000E+00  4.4234E+00  6.1575E+00  8.5590E+00  9.6124E+00  5.0278E-01  0.0000E+00  0.0000E+00  0.0000E+00
 17  0.0000E+00  6.4655E+00  1.1906E+01  1.0465E+01  4.4309E+00  5.1406E-01  2.3212E+00  0.0000E+00  6.5480E+00
 18  3.4971E-01  2.6470E-02  2.4904E-02  6.0442E-02  2.4949E-02  4.8110E-02  3.5031E-02  3.8077E-02  1.4171E-02
 19  0.0000E+00  1.0796E-02  1.3770E-02  1.4816E-02  2.1572E-02  1.9667E-02  1.6913E-02  1.1961E-02  3.9994E-03
 20  0.0000E+00  4.4034E-03  7.8665E-04  9.1161E-04  2.9052E-03  5.6123E-03  2.8146E-03  1.3823E-02  1.7167E-02
 21  0.0000E+00  8.7506E-02  1.0248E-01  3.3503E-01  4.7335E-02  4.7548E-03  1.1093E-01  1.0873E-01  5.3662E-02
 22  0.0000E+00  1.5465E-02  1.4722E-02  1.8380E-02  0.0000E+00  8.3930E-04  2.0190E-02  1.6044E-02  1.3278E-02
 23  0.0000E+00  1.5118E-02  1.1152E-02  1.9403E-03  0.0000E+00  1.5389E-05  4.6989E-03  2.3180E-02  8.7180E-03
 24  0.0000E+00  2.2129E-02  5.4512E-03  2.5555E-03  0.0000E+00  5.2404E-05  0.0000E+00  0.0000E+00  7.8658E-02
 25  0.0000E+00  4.3787E-02  6.9348E-02  4.1940E-03  1.1638E-02  0.0000E+00  1.0453E-02  1.0200E-01  1.5116E-02
 26  0.0000E+00  4.6943E-02  7.9212E-03  3.9333E-03  0.0000E+00  0.0000E+00  0.0000E+00  0.0000E+00  0.0000E+00
 27  0.0000E+00  1.0921E-01  1.5912E-01  2.5136E-03  8.2385E-02  4.2111E-03  2.2567E-02  2.4965E-01  1.8317E-02
 28  0.0000E+00  2.5203E-01  0.0000E+00  1.2862E-02  0.0000E+00  2.2363E-03  6.3204E-01  7.5224E-01  0.0000E+00
 29  0.0000E+00  4.5187E-01  2.2631E-01  8.3729E-02  0.0000E+00  0.0000E+00  0.0000E+00  7.1066E-01  0.0000E+00
 30  0.0000E+00  7.4187E-01  0.0000E+00  3.5302E-01  4.4718E-01  7.8330E-02  0.0000E+00  8.0684E-01  5.2116E-01
 31  0.0000E+00  2.6414E+00  2.7838E+00  7.2029E+00  2.2435E+00  5.5198E-01  4.4759E+00  4.3812E+00  2.0707E+00
 32  0.0000E+00  4.9108E+00  2.7401E+00  5.2119E+00  0.0000E+00  1.9499E+01  2.9632E+00  9.3384E+00  9.0724E+00
 33  0.0000E+00  4.8821E+00  0.0000E+00  2.2166E+00  0.0000E+00  0.0000E+00  7.5319E+00  3.6828E+00  0.0000E+00
 34  0.0000E+00  5.8421E+00  2.0983E+00  1.5131E+00  2.4089E+01  6.1992E-01  0.0000E+00  0.0000E+00  1.2310E+00
 35  5.3276E-01  1.7988E-02  4.3809E-02  2.7323E-02  3.1868E-02  2.0378E-02  1.4149E-02  3.0554E-02  1.9451E-02
 36  0.0000E+00  4.0419E-03  3.6727E-03  1.3085E-03  2.3837E-03  2.4393E-04  4.1528E-03  0.0000E+00  4.1944E-03
 37  0.0000E+00  3.5434E-03  7.1019E-03  1.7667E-05  2.2043E-03  3.9910E-05  1.4372E-03  0.0000E+00  1.8746E-03
 38  0.0000E+00  1.1723E-02  2.6063E-02  0.0000E+00  0.0000E+00  2.0716E-04  1.2333E-02  3.9382E-02  0.0000E+00
 39  0.0000E+00  1.8930E-02  7.1801E-04  1.2174E-02  0.0000E+00  6.5960E-04  1.3413E-02  3.2953E-02  4.4678E-03
 40  0.0000E+00  2.1741E-02  1.4027E-02  8.0935E-03  0.0000E+00  5.1970E-04  0.0000E+00  0.0000E+00  2.5206E-02
 41  0.0000E+00  3.3647E-02  5.3450E-02  4.0017E-03  2.2222E-02  5.5126E-04  5.4652E-02  0.0000E+00  1.1768E-02
 42  0.0000E+00  7.5097E-02  0.0000E+00  0.0000E+00  1.1754E-02  1.2218E-03  9.4367E-03  0.0000E+00  1.3136E-02
 43  0.0000E+00  1.1477E-01  7.2247E-02  1.5175E-02  5.5902E-03  0.0000E+00  5.8527E-02  9.8850E-02  1.9157E-01
 44  0.0000E+00  1.6152E-01  0.0000E+00  1.9435E-02  1.7760E-01  1.2873E-03  2.7216E-01  9.1953E-03  5.9069E-03
 45  0.0000E+00  3.4598E-01  0.0000E+00  9.6148E-03  4.6362E-01  0.0000E+00  4.2921E-03  9.4462E-01  8.5949E-02
 46  0.0000E+00  1.9628E+00  7.6960E-01  3.6795E+00  9.1841E-01  5.8700E+00  2.7039E+00  7.4875E-01  1.1674E-01
 47  0.0000E+00  1.6360E+00  5.2777E-03  3.4727E+00  3.9744E+00  1.4677E-01  1.9166E+00  1.2702E+00  1.5771E+00
 48  6.1954E+01  8.1266E+00  7.5096E+00  1.6007E+01  0.0000E+00  5.3950E+01  9.2759E+00  4.6559E-01  8.3682E+00
 49  0.0000E+00  4.8900E+00  4.3724E+00  9.0553E-01  1.6663E+01  3.6885E-01  1.6155E+01  1.0705E+01  4.5145E-01
 50  0.0000E+00  7.0616E+00  0.0000E+00  0.0000E+00  2.0920E+01  4.2220E-01  2.5536E+00  1.4870E+00  2.7211E+01
 51  3.5690E+00  1.6283E-02  1.9099E-02  3.4160E-02  1.7244E-02  5.1029E-02  4.0675E-02  1.5337E-02  1.5416E-02
 52  0.0000E+00  3.0033E-03  7.0236E-03  3.5802E-03  8.4568E-03  3.2565E-05  1.4411E-03  3.5013E-03  1.1558E-03
 53  0.0000E+00  4.1900E-03  5.4363E-03  8.1261E-04  8.7968E-04  1.9593E-05  3.2822E-03  1.9369E-02  6.7876E-03
 54  0.0000E+00  8.4645E-03  6.4737E-03  6.9900E-04  0.0000E+00  0.0000E+00  6.9645E-03  2.9124E-02  1.9158E-04
 55  0.0000E+00  1.6528E-02  1.4940E-02  1.9460E-03  1.8984E-02  0.0000E+00  1.2269E-02  6.3426E-03  1.0931E-02
 56  0.0000E+00  1.8061E-02  0.0000E+00  9.4977E-04  0.0000E+00  2.7644E-04  3.3788E-02  0.0000E+00  1.5622E-02
 57  0.0000E+00  4.0178E-02  1.2619E-02  0.0000E+00  6.1377E-03  5.6702E-05  1.6107E-02  6.0295E-03  3.2922E-02
 58  0.0000E+00  6.3678E-02  5.2448E-02  0.0000E+00  5.9916E-02  1.6100E-04  9.6045E-03  1.3992E-01  6.0977E-02
 59  0.0000E+00  1.4666E-01  0.0000E+00  0.0000E+00  1.8086E-01  2.6527E-03  3.9460E-01  1.6405E-02  2.0273E-01
 60  1.9620E-01  1.9817E-01  1.5825E-01  3.5131E-02  4.0459E-01  1.9330E-01  1.1620E-02  3.4740E-01  4.4083E-01
 61  3.0686E+01  3.3215E+00  4.7740E+00  6.1264E+00  3.3645E-01  6.3678E+00  4.8579E+00  5.5931E+00  3.0470E-02
 62  0.0000E+00  1.9294E+00  3.0769E+00  3.4452E+00  0.0000E+00  1.5235E-01  1.1709E+00  2.1432E+00  0.0000E+00
 63  0.0000E+00  3.3739E+00  6.0211E+00  6.5496E+00  4.1164E+00  1.0963E+00  6.5553E+00  1.9628E+00  2.9926E+00
 64  0.0000E+00  4.5931E+00  8.5902E+00  3.5297E-01  0.0000E+00  0.0000E+00  0.0000E+00  1.4369E+01  0.0000E+00
 65  0.0000E+00  8.8073E+00  1.2924E+01  1.0669E+00  1.4645E+00  6.8815E+00  0.0000E+00  1.4465E+01  4.6067E+00
 66  0.0000E+00  1.2190E+01  1.0598E+01  0.0000E+00  8.1174E+00  6.1416E-02  1.4231E+01  1.1641E+01  2.8836E+01

# AV, chi2 & Mass for <> & i_chain = 1 ...  7 solutions
AV       2.5382      0.8115      0.7870      0.8591      0.7954      1.1893      0.7635      0.8350      0.7909
chi2 1.3957E-03  2.2228E-03  2.0952E-03  1.9852E-03  2.0741E-03  1.7322E-03  2.1730E-03  2.1420E-03  2.1153E-03
Mass 3.6785E-12  3.6908E-12  3.5531E-12  2.6027E-12  5.1784E-12  4.0241E-12  3.1186E-12  3.3834E-12  5.3215E-12
 329.94                                  [v0_min (km/s) before EX0s...]
 141.02                                  [vd_min (km/s) before EX0s...]


## Synthetic spectrum (Best Model) ##l_obs f_obs f_syn wei
 3478    [Nl_obs]
 3741.00    0.77762   0.81401    0.000
 3742.00    0.81492   0.83467    0.000
 3743.00    0.83344   0.85357    0.000
 3744.00    0.83520   0.86767    0.000
 3745.00    0.82721   0.87592    1.012
 3746.00    0.83101   0.87833    0.964
 3747.00    0.84080   0.87533    0.885
 3748.00    0.85512   0.86741    0.929
 3749.00    0.87143   0.85475    1.042
 3750.00    0.90175   0.83734    1.033
 3751.00    0.93737   0.81594    0.978
 3752.00    0.93002   0.79326    0.969
 3753.00    0.90891   0.77452    0.974
 3754.00    0.88993   0.76550    0.949
 3755.00    0.87152   0.76899    0.919
 3756.00    0.85436   0.78226    0.874
 3757.00    0.83747   0.79966    0.829
 3758.00    0.82553   0.81588    0.821
 3759.00    0.81444   0.82837    0.818
 3760.00    0.80991   0.83738    0.948
 3761.00    0.80626   0.84225    1.156
 3762.00    0.80515   0.84422    1.018
 3763.00    0.80429   0.84615    0.886
 3764.00    0.80176   0.84966    0.881
 3765.00    0.79913   0.85638    0.883
 3766.00    0.79226   0.86430    0.816
 3767.00    0.78522   0.86949    0.757
 3768.00    0.77083   0.86946    0.735
 3769.00    0.75551   0.86232    0.715
 3770.00    0.71790   0.84746    0.707
 3771.00    0.68037   0.82534    0.700
 3772.00    0.64392   0.79813    0.706
 3773.00    0.60940   0.77093    0.710
 3774.00    0.59183   0.75097    0.694
 3775.00    0.57907   0.74451    0.680
 3776.00    0.59752   0.75386    0.676
 3777.00    0.62056   0.77552    0.679
 3778.00    0.66687   0.80276    0.723
 3779.00    0.71444   0.83023    0.764
 3780.00    0.76717   0.85438    0.776
 3781.00    0.81373   0.87353    0.797
 3782.00    0.83936   0.88799    0.853
 3783.00    0.86647   0.89859    0.910
 3784.00    0.89781   0.90614    0.956
 3785.00    0.92458   0.91135    0.985
 3786.00    0.94019   0.91460    0.962
 3787.00    0.94681   0.91611    0.941
 3788.00    0.93447   0.91598    0.920
 3789.00    0.92309   0.91421    0.894
 3790.00    0.91345   0.91084    0.861
 3791.00    0.90726   0.90600    0.846
 3792.00    0.90656   0.89943    0.856
 3793.00    0.90369   0.89067    0.857
 3794.00    0.89775   0.87998    0.844
 3795.00    0.88598   0.86770    0.833
 3796.00    0.86699   0.85379    0.823
 3797.00    0.85766   0.83698    0.834
 3798.00    0.85886   0.81443    0.869
 3799.00    0.87382   0.78533    0.890
 3800.00    0.90201   0.75373    0.896
 3801.00    0.92390   0.72802    0.903
 3802.00    0.94046   0.71736    0.911
 3803.00    0.94564   0.72668    0.905
 3804.00    0.94234   0.75310    0.888
 3805.00    0.93841   0.78772    0.860
 3806.00    0.93408   0.82153    0.826
 3807.00    0.93582   0.84908    0.811
 3808.00    0.94103   0.86887    0.806
 3809.00    0.93210   0.88208    0.789
 3810.00    0.91611   0.89102    0.767
 3811.00    0.89311   0.89779    0.801
 3812.00    0.86707   0.90365    0.868
 3813.00    0.85268   0.90860    0.838
 3814.00    0.84260   0.91186    0.778
 3815.00    0.83377   0.91293    0.771
 3816.00    0.82534   0.91200    0.780
 3817.00    0.84233   0.90975    0.804
 3818.00    0.86600   0.90684    0.833
 3819.00    0.86561   0.90347    0.828
 3820.00    0.86007   0.89860    0.815
 3821.00    0.82798   0.89096    0.803
 3822.00    0.79140   0.88144    0.791
 3823.00    0.75407   0.87312    0.812
 3824.00    0.71666   0.86973    0.838
 3825.00    0.69016   0.87358    0.833
 3826.00    0.66465   0.88215    0.825
 3827.00    0.68550   0.89014    0.804
 3828.00    0.70885   0.89421    0.785
 3829.00    0.73416   0.89373    0.812
 3830.00    0.75945   0.88981    0.842
 3831.00    0.78018   0.88346    0.877
 3832.00    0.80155   0.87452    0.910
 3833.00    0.83757   0.86193    0.836
 3834.00    0.87042   0.84400    0.778
 3835.00    0.86372   0.81913    0.791
 3836.00    0.85734   0.78681    0.803
 3837.00    0.85358   0.74971    0.796
 3838.00    0.85079   0.71527    0.787
 3839.00    0.85405   0.69301    0.766
 3840.00    0.85582   0.69042    0.755
 3841.00    0.85023   0.70891    0.787
 3842.00    0.84812   0.74164    0.815
 3843.00    0.85993   0.77853    0.810
 3844.00    0.87051   0.81238    0.804
 3845.00    0.87700   0.83989    0.790
 3846.00    0.88310   0.86080    0.783
 3847.00    0.88812   0.87616    0.000
 3848.00    0.89585   0.88718    0.000
 3849.00    0.91011   0.89511    0.000
 3850.00    0.91897   0.90085    0.000
 3851.00    0.91666   0.90498    0.000
 3852.00    0.91531   0.90783    0.000
 3853.00    0.91569   0.90972    0.000
 3854.00    0.91800   0.91111    0.000
 3855.00    0.92333   0.91237    0.000
 3856.00    0.91843   0.91349    0.000
 3857.00    0.89936   0.91385    0.000
 3858.00    0.88403   0.91283    0.000
 3859.00    0.87327   0.91069    0.000
 3860.00    0.86113   0.90800    0.000
 3861.00    0.84751   0.90558    0.000
 3862.00    0.82444   0.90428    0.000
 3863.00    0.79242   0.90439    0.000
 3864.00    0.73693   0.90579    0.000
 3865.00    0.66185   0.90813    0.000
 3866.00    0.59443   0.91060    0.000
 3867.00    0.53265   0.91228    0.000
 3868.00    0.47801   0.91273    0.000
 3869.00    0.42799   0.91205    0.000
 3870.00    0.40672   0.91088    0.000
 3871.00    0.40170   0.90993    0.000
 3872.00    0.43176   0.90922    0.000
 3873.00    0.47907   0.90851    0.000
 3874.00    0.54237   0.90700    0.000
 3875.00    0.61247   0.90424    0.000
 3876.00    0.67353   0.90113    0.000
 3877.00    0.73130   0.89891    0.000
 3878.00    0.78341   0.89814    0.000
 3879.00    0.83376   0.89804    0.000
 3880.00    0.84865   0.89727    0.000
 3881.00    0.85442   0.89548    0.723
 3882.00    0.86371   0.89280    0.717
 3883.00    0.87373   0.88883    0.706
 3884.00    0.89495   0.88312    0.724
 3885.00    0.91802   0.87488    0.748
 3886.00    0.90370   0.86297    0.767
 3887.00    0.88475   0.84638    0.787
 3888.00    0.88778   0.82404    0.771
 3889.00    0.89268   0.79497    0.752
 3890.00    0.89284   0.75907    0.752
 3891.00    0.89276   0.72041    0.752
 3892.00    0.88537   0.68810    0.731
 3893.00    0.87789   0.67173    0.712
 3894.00    0.87263   0.67776    0.746
 3895.00    0.86701   0.70537    0.780
 3896.00    0.85407   0.74466    0.730
 3897.00    0.83897   0.78423    0.685
 3898.00    0.79820   0.81764    0.648
 3899.00    0.75594   0.84293    0.615
 3900.00    0.70158   0.86084    0.597
 3901.00    0.64633   0.87329    0.578
 3902.00    0.58563   0.88211    0.552
 3903.00    0.52786   0.88863    0.528
 3904.00    0.48424   0.89388    0.504
 3905.00    0.45102   0.89833    0.488
 3906.00    0.45858   0.90194    0.497
 3907.00    0.47909   0.90438    0.509
 3908.00    0.54181   0.90578    0.535
 3909.00    0.60881   0.90700    0.560
 3910.00    0.68759   0.90855    0.582
 3911.00    0.75760   0.91068    0.602
 3912.00    0.80687   0.91339    0.615
 3913.00    0.84449   0.91597    0.628
 3914.00    0.85831   0.91769    0.642
 3915.00    0.87562   0.91834    0.658
 3916.00    0.89915   0.91815    0.678
 3917.00    0.92259   0.91758    0.695
 3918.00    0.94588   0.91688    0.706
 3919.00    0.95674   0.91577    0.711
 3920.00    0.95063   0.91375    0.709
 3921.00    0.94942   0.91029    0.714
 3922.00    0.95407   0.90532    0.726
 3923.00    0.95458   0.89932    0.730
 3924.00    0.95071   0.89294    0.724
 3925.00    0.94219   0.88697    0.722
 3926.00    0.92932   0.88206    0.725
 3927.00    0.93823   0.87860    0.735
 3928.00    0.96507   0.87672    0.754
 3929.00    0.96984   0.87666    0.780
 3930.00    0.95860   0.87805    0.813
 3931.00    0.92476   0.87977    0.828
 3932.00    0.87655   0.88116    0.830
 3933.00    0.88095   0.88150    0.816
 3934.00    0.91463   0.88009    0.792
 3935.00    0.93662   0.87681    0.794
 3936.00    0.95294   0.87209    0.809
 3937.00    0.96138   0.86739    0.797
 3938.00    0.96651   0.86473    0.776
 3939.00    0.96193   0.86555    0.757
 3940.00    0.95387   0.87027    0.739
 3941.00    0.94801   0.87767    0.729
 3942.00    0.94282   0.88557    0.722
 3943.00    0.94307   0.89229    0.718
 3944.00    0.94468   0.89719    0.714
 3945.00    0.97493   0.90012    0.730
 3946.00    1.01101   0.90118    0.750
 3947.00    1.03175   0.90103    0.740
 3948.00    1.05003   0.90070    0.725
 3949.00    1.04629   0.90073    0.726
 3950.00    1.03992   0.90124    0.729
 3951.00    1.03723   0.90223    0.732
 3952.00    1.03483   0.90327    0.736
 3953.00    1.03474   0.90422    0.728
 3954.00    1.03476   0.90523    0.720
 3955.00    1.02199   0.90591    0.725
 3956.00    1.00928   0.90573    0.730
 3957.00    1.00845   0.90465    0.713
 3958.00    1.00752   0.90296    0.698
 3959.00    1.00478   0.90096    0.710
 3960.00    1.00155   0.89872    0.000
 3961.00    0.99278   0.89594    0.000
 3962.00    0.98342   0.89182    0.000
 3963.00    0.96954   0.88522    0.000
 3964.00    0.95401   0.87544    0.000
 3965.00    0.92871   0.86306    0.000
 3966.00    0.90954   0.84883    0.000
 3967.00    0.91920   0.83336    0.000
 3968.00    0.92981   0.81609    0.000
 3969.00    0.94408   0.79430    0.000
 3970.00    0.95902   0.76561    0.000
 3971.00    0.97609   0.73006    0.000
 3972.00    0.99995   0.69121    0.000
 3973.00    1.04218   0.65778    0.000
 3974.00    1.06836   0.64038    0.000
 3975.00    1.05725   0.64565    0.000
 3976.00    1.03878   0.67286    0.000
 3977.00    1.00549   0.71359    0.000
 3978.00    0.98354   0.75658    0.000
 3979.00    0.98142   0.79420    0.000
 3980.00    0.98193   0.82391    0.000
 3981.00    0.98649   0.84617    0.662
 3982.00    0.99882   0.86259    0.662
 3983.00    1.02158   0.87468    0.679
 3984.00    1.02923   0.88332    0.688
 3985.00    1.01895   0.88915    0.686
 3986.00    1.01883   0.89308    0.685
 3987.00    1.02930   0.89615    0.684
 3988.00    1.04009   0.89922    0.677
 3989.00    1.05115   0.90263    0.664
 3990.00    1.06096   0.90610    0.649
 3991.00    1.06975   0.90918    0.634
 3992.00    1.06504   0.91157    0.627
 3993.00    1.05068   0.91336    0.625
 3994.00    1.02916   0.91475    0.626
 3995.00    1.00314   0.91581    0.629
 3996.00    1.00321   0.91652    0.634
 3997.00    1.01758   0.91661    0.640
 3998.00    1.02019   0.91589    0.638
 3999.00    1.01719   0.91447    0.632
 4000.00    1.02576   0.91279    0.632
 4001.00    1.03908   0.91170    0.636
 4002.00    1.04824   0.91188    0.639
 4003.00    1.05593   0.91318    0.642
 4004.00    1.05238   0.91497    0.641
 4005.00    1.04550   0.91630    0.640
 4006.00    1.03369   0.91611    0.634
 4007.00    1.02067   0.91421    0.628
 4008.00    1.01714   0.91145    0.629
 4009.00    1.01550   0.90898    0.631
 4010.00    1.02532   0.90752    0.626
 4011.00    1.03692   0.90709    0.619
 4012.00    1.02279   0.90751    0.620
 4013.00    1.00571   0.90864    0.622
 4014.00    1.00000   0.91035    0.634
 4015.00    0.99517   0.91270    0.646
 4016.00    1.00633   0.91557    0.634
 4017.00    1.01816   0.91832    0.622
 4018.00    1.01872   0.92043    0.617
 4019.00    1.01986   0.92176    0.613
 4020.00    1.05096   0.92235    0.634
 4021.00    1.07996   0.92247    0.655
 4022.00    1.07170   0.92212    0.642
 4023.00    1.06360   0.92082    0.629
 4024.00    1.05712   0.91767    0.621
 4025.00    1.04959   0.91126    0.653
 4026.00    1.03410   0.90004    1.419
 4027.00    1.01718   0.88342   -1.000
 4028.00    0.99206   0.86328   -1.000
 4029.00    0.96743   0.84509   -1.000
 4030.00    0.94503   0.83538   -1.000
 4031.00    0.92086   0.83747   -1.000
 4032.00    0.89004   0.85019   -1.000
 4033.00    0.85738   0.86814   -1.000
 4034.00    0.81895   0.88427   -1.000
 4035.00    0.78945   0.89509   -1.000
 4036.00    0.78373   0.90143   -1.000
 4037.00    0.79199   0.90554    3.710
 4038.00    0.83215   0.90927    0.866
 4039.00    0.87032   0.91347    0.579
 4040.00    0.90452   0.91805    0.593
 4041.00    0.93353   0.92223    0.605
 4042.00    0.95361   0.92519    0.613
 4043.00    0.96207   0.92638    0.621
 4044.00    0.95301   0.92596    0.630
 4045.00    0.95484   0.92454    0.635
 4046.00    0.97111   0.92242    0.635
 4047.00    0.98930   0.91973    0.628
 4048.00    1.00974   0.91692    0.615
 4049.00    1.01505   0.91484    0.608
 4050.00    1.00478   0.91437    0.608
 4051.00    0.99989   0.91588    0.612
 4052.00    0.99987   0.91891    0.623
 4053.00    0.99745   0.92220    0.633
 4054.00    0.99309   0.92434    0.643
 4055.00    1.00239   0.92474    0.642
 4056.00    1.02130   0.92363    0.632
 4057.00    1.02694   0.92132    0.628
 4058.00    1.02437   0.91846    0.628
 4059.00    1.02307   0.91602    0.628
 4060.00    1.02247   0.91462    0.627
 4061.00    1.00519   0.91439    0.630
 4062.00    0.98010   0.91511    0.636
 4063.00    0.97921   0.91609    0.634
 4064.00    0.98810   0.91652    0.631
 4065.00    0.98832   0.91598    0.626
 4066.00    0.98557   0.91458    0.621
 4067.00    0.98242   0.91280    0.616
 4068.00    0.97917   0.91069    0.610
 4069.00    0.99754   0.90729    0.616
 4070.00    1.02111   0.90121    0.626
 4071.00    1.02625   0.89210    0.627
 4072.00    1.02782   0.88151    0.626
 4073.00    1.01933   0.87256    0.614
 4074.00    1.00933   0.86875    0.600
 4075.00    0.99355   0.87130    0.598
 4076.00    0.97713   0.87838    0.596
 4077.00    0.99056   0.88651    0.597
 4078.00    1.00618   0.89233    0.598
 4079.00    1.00708   0.89498    0.604
 4080.00    1.00742   0.89560    0.610
 4081.00    1.00407   0.89583    0.607
 4082.00    1.00102   0.89744    0.613
 4083.00    1.00984   0.90083    1.263
 4084.00    1.01686   0.90476   -1.000
 4085.00    0.99432   0.90799   -1.000
 4086.00    0.97292   0.90958   -1.000
 4087.00    0.96317   0.90920   -1.000
 4088.00    0.95567   0.90720   -1.000
 4089.00    0.96457   0.90387   -1.000
 4090.00    0.97377   0.89908   -1.000
 4091.00    0.98460   0.89267   -1.000
 4092.00    0.99653   0.88616    0.000
 4093.00    1.01336   0.88192    0.000
 4094.00    1.02750   0.88031    0.000
 4095.00    1.03176   0.88087    0.000
 4096.00    1.03242   0.88188    0.000
 4097.00    1.02204   0.87938    0.000
 4098.00    1.01216   0.87050    0.000
 4099.00    1.00363   0.85446    0.000
 4100.00    0.99502   0.83144    0.000
 4101.00    0.98621   0.80276    0.000
 4102.00    0.98198   0.76923    0.000
 4103.00    0.98666   0.73174    0.000
 4104.00    0.98431   0.69440    0.000
 4105.00    0.97002   0.66489    0.000
 4106.00    0.95690   0.65181    0.000
 4107.00    0.94553   0.66048    0.000
 4108.00    0.94168   0.68988    0.000
 4109.00    0.94765   0.73197    0.000
 4110.00    0.96122   0.77556    0.000
 4111.00    0.98353   0.81231    0.000
 4112.00    0.99285   0.83937    0.000
 4113.00    0.98898   0.85773   -1.000
 4114.00    0.98697   0.87002   -1.000
 4115.00    0.98661   0.87862   -1.000
 4116.00    0.98027   0.88484   -1.000
 4117.00    0.96919   0.88892   -1.000
 4118.00    0.96268   0.89037   -1.000
 4119.00    0.95932   0.88978   -1.000
 4120.00    0.96526   0.88892   -1.000
 4121.00    0.97685   0.88832   -1.000
 4122.00    0.98087   0.88805   -1.000
 4123.00    0.98088   0.88838   -1.000
 4124.00    0.97261   0.88900   -1.000
 4125.00    0.96052   0.89051   -1.000
 4126.00    0.95328   0.89394   -1.000
 4127.00    0.94797   0.89930   -1.000
 4128.00    0.95352   0.90544   -1.000
 4129.00    0.96274   0.91046   -1.000
 4130.00    0.95375   0.91302   -1.000
 4131.00    0.93957   0.91317   -1.000
 4132.00    0.92646   0.91194   -1.000
 4133.00    0.91360   0.91022   -1.000
 4134.00    0.92341   0.90860   -1.000
 4135.00    0.93751   0.90760   -1.000
 4136.00    0.93540   0.90756   -1.000
 4137.00    0.93093   0.90872   -1.000
 4138.00    0.93023   0.91124   -1.000
 4139.00    0.92994   0.91477   -1.000
 4140.00    0.95772   0.91843   -1.000
 4141.00    0.98745   0.92145   -1.000
 4142.00    0.98225   0.92328   -1.000
 4143.00    0.97584   0.92339   -1.000
 4144.00    0.97213   0.92133   -1.000
 4145.00    0.96819   0.91671   -1.000
 4146.00    0.95661   0.90995   -1.000
 4147.00    0.94573   0.90336   -1.000
 4148.00    0.94565   0.89969   -1.000
 4149.00    0.94573   0.90000   -1.000
 4150.00    0.94745   0.90380   -1.000
 4151.00    0.94812   0.90929   -1.000
 4152.00    0.94128   0.91390   -1.000
 4153.00    0.93723   0.91626   -1.000
 4154.00    0.94837   0.91669   -1.000
 4155.00    0.95255   0.91585   -1.000
 4156.00    0.92636   0.91446   -1.000
 4157.00    0.90262   0.91327   -1.000
 4158.00    0.88766   0.91248   -1.000
 4159.00    0.87856   0.91213    4.383
 4160.00    0.88713   0.91266    0.873
 4161.00    0.89261   0.91431    0.555
 4162.00    0.89017   0.91666    0.557
 4163.00    0.88840   0.91907    0.558
 4164.00    0.88811   0.92097    0.557
 4165.00    0.88663   0.92194    0.558
 4166.00    0.88287   0.92210    0.563
 4167.00    0.88760   0.92205    0.572
 4168.00    0.90651   0.92221    0.587
 4169.00    0.91054   0.92250    0.591
 4170.00    0.89277   0.92254    0.580
 4171.00    0.88075   0.92210    0.577
 4172.00    0.87611   0.92125    0.583
 4173.00    0.87096   0.92003    0.594
 4174.00    0.86522   0.91831    0.610
 4175.00    0.87488   0.91607    0.614
 4176.00    0.89994   0.91377    0.604
 4177.00    0.90458   0.91204    0.594
 4178.00    0.89118   0.91131    0.583
 4179.00    0.88230   0.91164    0.576
 4180.00    0.87692   0.91267    0.572
 4181.00    0.87256   0.91384    0.565
 4182.00    0.86887   0.91499    0.558
 4183.00    0.86596   0.91624    0.558
 4184.00    0.86352   0.91750    0.563
 4185.00    0.88256   0.91848    0.570
 4186.00    0.91285   0.91895    0.578
 4187.00    0.91354   0.91864    0.569
 4188.00    0.90082   0.91738    0.554
 4189.00    0.89618   0.91517    0.554
 4190.00    0.89471   0.91258    0.560
 4191.00    0.88869   0.91078    0.561
 4192.00    0.88117   0.91042    0.561
 4193.00    0.88006   0.91155    0.560
 4194.00    0.88074   0.91400    0.558
 4195.00    0.88856   0.91712    0.556
 4196.00    0.89803   0.91973    0.555
 4197.00    0.89537   0.92062    0.561
 4198.00    0.89048   0.91873    0.569
 4199.00    0.90256   0.91342    0.567
 4200.00    0.91705   0.90455    0.564
 4201.00    0.88609   0.89237    0.547
 4202.00    0.85050   0.87842    0.529
 4203.00    0.83970   0.86643    0.528
 4204.00    0.83052   0.86018    0.528
 4205.00    0.83565   0.86125    0.531
 4206.00    0.84121   0.86904    0.535
 4207.00    0.84637   0.88121    0.537
 4208.00    0.85205   0.89427    0.539
 4209.00    0.87315   0.90548    0.537
 4210.00    0.89241   0.91391    0.535
 4211.00    0.88489   0.91968    0.531
 4212.00    0.88030   0.92313    0.528
 4213.00    0.90338   0.92472    0.535
 4214.00    0.92012   0.92477    0.539
 4215.00    0.89330   0.92373    0.524
 4216.00    0.86793   0.92245    0.513
 4217.00    0.85021   0.92162    0.511
 4218.00    0.83742   0.92125    0.510
 4219.00    0.84570   0.92156    0.514
 4220.00    0.84950   0.92308    0.518
 4221.00    0.83750   0.92565    0.516
 4222.00    0.83109   0.92862    0.516
 4223.00    0.84124   0.93149    0.526
 4224.00    0.84669   0.93351    0.533
 4225.00    0.84028   0.93377    0.531
 4226.00    0.83198   0.93199    0.526
 4227.00    0.81962   0.92844    0.512
 4228.00    0.80949   0.92360    0.504
 4229.00    0.80358   0.91833    0.505
 4230.00    0.79323   0.91421    0.502
 4231.00    0.77556   0.91289    0.491
 4232.00    0.76108   0.91492    0.488
 4233.00    0.75121   0.91937    0.495
 4234.00    0.74770   0.92452    0.499
 4235.00    0.75227   0.92846    0.500
 4236.00    0.75484   0.92993    0.496
 4237.00    0.75517   0.92920    0.487
 4238.00    0.75162   0.92737    0.483
 4239.00    0.74424   0.92536    0.485
 4240.00    0.75364   0.92393    0.487
 4241.00    0.77764   0.92351    0.488
 4242.00    0.78711   0.92389    0.489
 4243.00    0.78545   0.92489    0.488
 4244.00    0.81058   0.92647    0.499
 4245.00    0.85377   0.92838    0.519
 4246.00    0.86054   0.93034    0.531
 4247.00    0.84580   0.93224    0.538
 4248.00    0.86048   0.93358    0.553
 4249.00    0.89030   0.93372    0.574
 4250.00    0.90385   0.93258    0.576
 4251.00    0.91013   0.93071    0.570
 4252.00    0.89194   0.92873    0.563
 4253.00    0.86437   0.92706    0.555
 4254.00    0.86793   0.92612    0.542
 4255.00    0.88164   0.92613    0.530
 4256.00    0.86367   0.92668    0.529
 4257.00    0.83705   0.92728    0.532
 4258.00    0.86119   0.92795    0.539
 4259.00    0.89672   0.92881    0.547
 4260.00    0.90286   0.92961    0.544
 4261.00    0.90375   0.92991    0.540
 4262.00    0.90029   0.92943    0.543
 4263.00    0.89624   0.92831    0.547
 4264.00    0.86626   0.92727    0.538
 4265.00    0.83374   0.92729    0.528
 4266.00    0.81946   0.92888    0.528
 4267.00    0.80628   0.93148    0.528
 4268.00    0.75536   0.93390    0.520
 4269.00    0.70362   0.93488    0.512
 4270.00    0.69149   0.93377    0.506
 4271.00    0.68034   0.93119    0.499
 4272.00    0.69488   0.92835    0.507
 4273.00    0.70986   0.92573    0.515
 4274.00    0.73112   0.92326    0.519
 4275.00    0.75466   0.92110    0.524
 4276.00    0.79900   0.91956    0.534
 4277.00    0.83859   0.91871    0.541
 4278.00    0.84655   0.91863    0.534
 4279.00    0.85231   0.91964    0.528
 4280.00    0.84663   0.92189    0.532
 4281.00    0.84261   0.92496    0.533
 4282.00    0.84546   0.92810   -2.000
 4283.00    0.85268   0.93058   -2.000
 4284.00    0.87501   0.93186   -2.000
 4285.00    0.89379   0.93185   -2.000
 4286.00    0.90222   0.93088   -2.000
 4287.00    0.90433   0.92953   -2.000
 4288.00    0.89077   0.92828   -2.000
 4289.00    0.89146   0.92726   -2.000
 4290.00    0.92261   0.92633   -2.000
 4291.00    0.94516   0.92508   -2.000
 4292.00    0.95176   0.92315   -2.000
 4293.00    0.95207   0.92089   -2.000
 4294.00    0.94218   0.91941   -2.000
 4295.00    0.92628   0.91963   -2.000
 4296.00    0.90181   0.92140   -2.000
 4297.00    0.88917   0.92364   -2.000
 4298.00    0.89134   0.92532    0.534
 4299.00    0.89298   0.92605    0.533
 4300.00    0.89404   0.92564    0.538
 4301.00    0.88715   0.92401    0.537
 4302.00    0.87252   0.92123    0.529
 4303.00    0.86674   0.91772    0.533
 4304.00    0.86855   0.91428    0.550
 4305.00    0.88535   0.91157    0.555
 4306.00    0.91348   0.90983    0.550
 4307.00    0.92317   0.90918    0.549
 4308.00    0.92060   0.90951    0.549
 4309.00    0.90000   0.91017    0.543
 4310.00    0.86891   0.91049    0.536
 4311.00    0.86945   0.91034    0.528
 4312.00    0.88602   0.91015    0.520
 4313.00    0.89644   0.91062    0.512
 4314.00    0.90416   0.91213    0.504
 4315.00    0.89533   0.91437    0.502
 4316.00    0.88026   0.91663    0.504
 4317.00    0.89334   0.91856    0.508
 4318.00    0.91540   0.92058    0.513
 4319.00    0.92039   0.92334    0.512
 4320.00    0.92081   0.92685    0.509
 4321.00    0.92695   0.93038    0.515
 4322.00    0.93434   0.93313    0.525
 4323.00    0.92783   0.93452    0.531
 4324.00    0.91889   0.93442    0.537
 4325.00    0.91422   0.93304    0.532
 4326.00    0.91012   0.93053    0.524
 4327.00    0.90461   0.92662    0.518
 4328.00    0.89897   0.92133    0.513
 4329.00    0.91130   0.91573    0.514
 4330.00    0.92465   0.91154    0.000
 4331.00    0.92415   0.90982    0.000
 4332.00    0.92341   0.91017    0.000
 4333.00    0.93186   0.91118    0.000
 4334.00    0.94036   0.91118    0.000
 4335.00    0.95014   0.90900    0.000
 4336.00    0.95930   0.90412    0.000
 4337.00    0.96030   0.89606    0.000
 4338.00    0.95981   0.88385    0.000
 4339.00    0.94627   0.86560    0.000
 4340.00    0.93301   0.83897    0.000
 4341.00    0.92149   0.80309    0.000
 4342.00    0.91305   0.76051    0.000
 4343.00    0.92011   0.71773    0.000
 4344.00    0.92641   0.68471    0.000
 4345.00    0.92958   0.67176    0.000
 4346.00    0.93222   0.68283    0.000
 4347.00    0.93308   0.71286    0.000
 4348.00    0.94039   0.75262    0.000
 4349.00    0.96615   0.79341    0.000
 4350.00    0.98206   0.82896    0.000
 4351.00    0.97399   0.85635    0.536
 4352.00    0.97213   0.87588    0.531
 4353.00    0.98335   0.88899    0.535
 4354.00    0.98389   0.89702    0.535
 4355.00    0.96488   0.90169    0.527
 4356.00    0.95033   0.90539    0.521
 4357.00    0.94289   0.90996    0.519
 4358.00    0.94322   0.91567    0.518
 4359.00    0.95442   0.92194    0.519
 4360.00    0.96506   0.92790    0.521
 4361.00    0.97499   0.93271    0.525
 4362.00    0.97930   0.93596    0.528
 4363.00    0.97752   0.93814    0.529
 4364.00    0.96456   0.94025    0.525
 4365.00    0.94089   0.94281    0.517
 4366.00    0.93285   0.94568    0.519
 4367.00    0.93801   0.94843    0.528
 4368.00    0.94856   0.95054    0.536
 4369.00    0.96312   0.95134    0.543
 4370.00    0.96754   0.95041    0.545
 4371.00    0.96532   0.94817    0.543
 4372.00    0.96036   0.94583    0.541
 4373.00    0.95382   0.94431    0.540
 4374.00    0.93873   0.94370    0.534
 4375.00    0.91936   0.94362    0.525
 4376.00    0.92682   0.94344    0.527
 4377.00    0.94585   0.94255    0.533
 4378.00    0.95231   0.94097    0.541
 4379.00    0.95411   0.93973    0.549
 4380.00    0.94969   0.93997    0.554
 4381.00    0.94333   0.94171    0.557
 4382.00    0.93081   0.94375    0.551
 4383.00    0.91669   0.94486    0.543
 4384.00    0.92488   0.94461    0.544
 4385.00    0.93784   0.94255    0.548
 4386.00    0.93362   0.93816    0.542
 4387.00    0.92649   0.93199    0.536
 4388.00    0.93526   0.92573    0.530
 4389.00    0.94606   0.92095    0.524
 4390.00    0.94549   0.91798    0.518
 4391.00    0.94392   0.91632    0.512
 4392.00    0.95285   0.91641    0.518
 4393.00    0.96234   0.91926    0.524
 4394.00    0.96617   0.92458    0.516
 4395.00    0.96997   0.93120    0.508
 4396.00    0.98097   0.93775    0.511
 4397.00    0.99042   0.94274    0.514
 4398.00    0.96563   0.94550    0.522
 4399.00    0.94236   0.94681    0.529
 4400.00    0.93789   0.94802    0.528
 4401.00    0.93362   0.94965    0.527
 4402.00    0.93097   0.95097    0.524
 4403.00    0.93134   0.95128    0.522
 4404.00    0.95063   0.95059    0.526
 4405.00    0.96631   0.94961    0.530
 4406.00    0.96423   0.94878    0.534
 4407.00    0.96060   0.94771    0.537
 4408.00    0.95072   0.94619    0.535
 4409.00    0.94443   0.94503    0.531
 4410.00    0.95009   0.94498    0.522
 4411.00    0.95527   0.94597    0.515
 4412.00    0.95915   0.94776    0.516
 4413.00    0.96373   0.95031    0.517
 4414.00    0.96999   0.95323    0.521
 4415.00    0.97982   0.95564    0.523
 4416.00    0.99706   0.95684    0.524
 4417.00    1.00311   0.95610    0.526
 4418.00    0.98904   0.95299    0.531
 4419.00    0.98297   0.94862    0.530
 4420.00    0.98950   0.94513    0.521
 4421.00    0.98944   0.94408    0.512
 4422.00    0.98028   0.94580    0.503
 4423.00    0.97287   0.94955    0.502
 4424.00    0.96758   0.95374    0.511
 4425.00    0.96021   0.95684    0.514
 4426.00    0.95063   0.95822    0.513
 4427.00    0.95222   0.95847    0.510
 4428.00    0.96437   0.95849    0.507
 4429.00    0.97836   0.95863    0.509
 4430.00    0.99387   0.95889    0.515
 4431.00    0.99526   0.95920    0.517
 4432.00    0.98628   0.95946    0.515
 4433.00    0.98310   0.95935    0.512
 4434.00    0.98367   0.95853    0.507
 4435.00    0.98245   0.95725    0.508
 4436.00    0.98024   0.95583    0.511
 4437.00    0.96701   0.95423    0.514
 4438.00    0.94835   0.95254    0.516
 4439.00    0.96290   0.95132    0.525
 4440.00    0.99153   0.95134    0.538
 4441.00    1.00971   0.95281    0.540
 4442.00    1.02410   0.95512    0.538
 4443.00    1.01112   0.95694    0.531
 4444.00    0.98974   0.95693    0.523
 4445.00    0.99218   0.95489    0.524
 4446.00    1.00072   0.95213    0.528
 4447.00    0.99760   0.95048    0.525
 4448.00    0.99206   0.95110    0.520
 4449.00    0.97812   0.95392    0.514
 4450.00    0.96279   0.95769    0.508
 4451.00    0.96276   0.96097    0.505
 4452.00    0.96462   0.96315    0.503
 4453.00    0.96037   0.96424    0.498
 4454.00    0.95561   0.96433    0.492
 4455.00    0.93966   0.96362    0.496
 4456.00    0.92317   0.96239    0.501
 4457.00    0.92015   0.96070    0.500
 4458.00    0.91738   0.95857    0.499
 4459.00    0.91626   0.95633    0.494
 4460.00    0.91531   0.95465    0.490
 4461.00    0.91770   0.95386    0.000
 4462.00    0.92065   0.95359    0.000
 4463.00    0.93011   0.95341    0.000
 4464.00    0.93862   0.95318    0.000
 4465.00    0.93942   0.95302    0.000
 4466.00    0.94418   0.95325    0.000
 4467.00    0.97301   0.95422    0.000
 4468.00    0.99363   0.95561    0.000
 4469.00    0.97487   0.95638    0.000
 4470.00    0.96268   0.95539    0.000
 4471.00    0.97614   0.95169    0.000
 4472.00    0.98708   0.94459    0.000
 4473.00    0.98981   0.93410    0.000
 4474.00    0.99166   0.92157    0.000
 4475.00    0.99107   0.91024    0.000
 4476.00    0.98542   0.90526    0.000
 4477.00    0.96787   0.91029    0.000
 4478.00    0.95358   0.92352    0.000
 4479.00    0.94594   0.93952    0.000
 4480.00    0.93916   0.95365    0.000
 4481.00    0.93393   0.96331    0.000
 4482.00    0.94074   0.96752    0.482
 4483.00    0.96625   0.96659    0.493
 4484.00    0.98394   0.96216    0.499
 4485.00    0.99100   0.95716    0.498
 4486.00    0.98889   0.95480    0.496
 4487.00    0.97576   0.95671    0.492
 4488.00    0.97831   0.96198    0.492
 4489.00    0.99745   0.96825    0.496
 4490.00    0.99348   0.97333    0.494
 4491.00    0.96796   0.97586    0.487
 4492.00    0.96093   0.97563    0.486
 4493.00    0.96909   0.97360    0.490
 4494.00    0.97702   0.97137    0.493
 4495.00    0.98479   0.97021    0.496
 4496.00    0.98731   0.97027    0.499
 4497.00    0.98648   0.97084    0.500
 4498.00    0.99301   0.97119    0.499
 4499.00    1.00363   0.97129    0.498
 4500.00    1.00698   0.97172    0.499
 4501.00    1.00682   0.97294    0.502
 4502.00    1.00390   0.97481    0.500
 4503.00    0.99983   0.97682    0.497
 4504.00    1.00576   0.97840    0.496
 4505.00    1.01525   0.97950    0.496
 4506.00    1.00587   0.98080    0.494
 4507.00    0.99080   0.98302    0.493
 4508.00    0.96566   0.98594    0.483
 4509.00    0.93801   0.98840    0.472
 4510.00    0.95164   0.98951    0.477
 4511.00    0.97366   0.98907    0.486
 4512.00    0.96426   0.98744    0.490
 4513.00    0.94986   0.98518    0.494
 4514.00    0.95877   0.98267    0.499
 4515.00    0.97046   0.97991    0.503
 4516.00    0.97671   0.97697    0.504
 4517.00    0.98252   0.97398    0.505
 4518.00    0.98758   0.97096    0.501
 4519.00    0.99261   0.96829    0.497
 4520.00    1.00878   0.96710    0.499
 4521.00    1.02478   0.96800    0.501
 4522.00    1.02577   0.97034    0.503
 4523.00    1.02553   0.97330    0.504
 4524.00    1.00231   0.97626    0.495
 4525.00    0.98069   0.97831    0.487
 4526.00    0.97699   0.97875    0.493
 4527.00    0.97346   0.97745    0.498
 4528.00    0.97131   0.97509    0.490
 4529.00    0.97179   0.97253    0.484
 4530.00    0.98775   0.96998    0.491
 4531.00    1.00005   0.96738    0.497
 4532.00    0.99525   0.96491    0.507
 4533.00    0.99307   0.96289    0.513
 4534.00    1.00095   0.96187    0.505
 4535.00    1.00584   0.96209    0.500
 4536.00    1.00118   0.96299    0.505
 4537.00    1.00043   0.96375    0.507
 4538.00    1.01021   0.96377    0.500
 4539.00    1.01015   0.96330    0.495
 4540.00    0.98725   0.96286    0.491
 4541.00    0.97917   0.96179    0.490
 4542.00    1.00078   0.95815    0.497
 4543.00    1.00830   0.95012    0.501
 4544.00    0.99124   0.93803    0.499
 4545.00    0.98187   0.92486    0.501
 4546.00    0.98426   0.91557    0.507
 4547.00    0.98699   0.91472    0.505
 4548.00    0.99016   0.92252    0.494
 4549.00    0.99224   0.93482    0.489
 4550.00    0.99301   0.94753    0.000
 4551.00    0.99728   0.95809    0.000
 4552.00    1.00518   0.96516    0.000
 4553.00    1.00384   0.96876    0.000
 4554.00    0.99399   0.96997    0.000
 4555.00    1.00156   0.97025    0.000
 4556.00    1.02324   0.97033    0.000
 4557.00    1.02421   0.97017    0.000
 4558.00    1.01041   0.97027    0.000
 4559.00    1.00122   0.97128    0.000
 4560.00    0.99490   0.97355    0.000
 4561.00    0.98943   0.97709    0.000
 4562.00    0.98442   0.98131    0.000
 4563.00    0.99315   0.98525    0.000
 4564.00    1.00840   0.98826    0.000
 4565.00    1.01966   0.99004    0.000
 4566.00    1.02929   0.99038    0.000
 4567.00    1.01268   0.98935    0.000
 4568.00    0.98689   0.98734    0.000
 4569.00    0.99135   0.98520    0.000
 4570.00    1.00476   0.98384    0.000
 4571.00    1.00767   0.98345    0.000
 4572.00    1.00802   0.98362    0.000
 4573.00    1.00611   0.98381    0.000
 4574.00    1.00375   0.98397    0.000
 4575.00    0.99658   0.98442    0.000
 4576.00    0.98867   0.98528    0.000
 4577.00    1.00009   0.98661    0.000
 4578.00    1.01371   0.98846    0.000
 4579.00    1.00752   0.99019    0.000
 4580.00    0.99980   0.99123    0.000
 4581.00    1.00975   0.99150    0.000
 4582.00    1.02044   0.99093    0.000
 4583.00    1.02616   0.98946    0.000
 4584.00    1.03150   0.98731    0.000
 4585.00    1.02215   0.98505    0.000
 4586.00    1.01398   0.98331    0.000
 4587.00    1.02652   0.98237    0.000
 4588.00    1.03634   0.98216    0.000
 4589.00    1.01713   0.98266    0.000
 4590.00    1.00284   0.98377    0.000
 4591.00    1.02583   0.98517    0.000
 4592.00    1.04333   0.98643    0.000
 4593.00    1.02931   0.98722    0.000
 4594.00    1.01507   0.98728    0.000
 4595.00    0.99977   0.98650    0.000
 4596.00    0.98979   0.98527    0.000
 4597.00    0.99974   0.98436    0.000
 4598.00    1.00498   0.98417    0.000
 4599.00    0.99549   0.98451    0.000
 4600.00    0.99004   0.98502    0.000
 4601.00    0.99532   0.98568    0.000
 4602.00    1.00329   0.98663    0.000
 4603.00    1.01735   0.98771    0.000
 4604.00    1.02792   0.98851    0.000
 4605.00    1.03162   0.98882    0.000
 4606.00    1.03129   0.98884    0.000
 4607.00    1.02405   0.98910    0.000
 4608.00    1.02541   0.98986    0.000
 4609.00    1.03973   0.99104    0.000
 4610.00    1.03799   0.99251    0.000
 4611.00    1.01501   0.99413    0.000
 4612.00    1.01143   0.99568    0.000
 4613.00    1.03047   0.99678    0.000
 4614.00    1.03880   0.99709    0.000
 4615.00    1.03615   0.99669    0.000
 4616.00    1.02518   0.99629    0.000
 4617.00    1.00666   0.99656    0.000
 4618.00    1.00508   0.99745    0.000
 4619.00    1.01703   0.99848    0.000
 4620.00    1.02447   0.99926    0.000
 4621.00    1.02873   0.99942    0.000
 4622.00    1.02495   0.99894    0.000
 4623.00    1.01623   0.99824    0.000
 4624.00    1.01579   0.99790    0.000
 4625.00    1.01982   0.99847    0.000
 4626.00    1.01327   1.00007    0.000
 4627.00    1.00177   1.00206    0.000
 4628.00    1.01267   1.00366    0.000
 4629.00    1.03259   1.00449    0.000
 4630.00    1.03309   1.00440    0.000
 4631.00    1.02692   1.00342    0.000
 4632.00    1.02732   1.00168    0.000
 4633.00    1.02961   0.99927    0.000
 4634.00    1.02618   0.99636    0.000
 4635.00    1.02136   0.99356    0.000
 4636.00    1.02670   0.99169    0.000
 4637.00    1.03401   0.99124    0.000
 4638.00    1.01011   0.99203    0.000
 4639.00    0.98154   0.99332    0.000
 4640.00    0.98693   0.99441    0.000
 4641.00    0.99605   0.99492    0.000
 4642.00    1.01614   0.99466    0.000
 4643.00    1.03703   0.99374    0.000
 4644.00    1.02393   0.99275    0.000
 4645.00    1.00956   0.99216    0.000
 4646.00    1.02907   0.99191    0.000
 4647.00    1.04784   0.99129    0.000
 4648.00    1.03245   0.98917    0.000
 4649.00    1.01881   0.98446    0.000
 4650.00    1.03376   0.97692    0.000
 4651.00    1.04639   0.96762    0.000
 4652.00    1.03526   0.95870    0.000
 4653.00    1.02332   0.95285    0.000
 4654.00    1.00547   0.95158    0.000
 4655.00    0.99027   0.95398    0.000
 4656.00    0.98982   0.95851    0.000
 4657.00    0.99476   0.96450    0.000
 4658.00    1.02372   0.97105    0.000
 4659.00    1.04507   0.97700    0.000
 4660.00    1.03856   0.98236    0.000
 4661.00    1.03546   0.98813    0.000
 4662.00    1.04286   0.99429    0.000
 4663.00    1.04155   0.99970    0.000
 4664.00    1.01752   1.00342    0.000
 4665.00    1.00132   1.00466    0.000
 4666.00    1.00263   1.00307    0.000
 4667.00    1.00820   0.99905    0.000
 4668.00    1.02201   0.99358    0.000
 4669.00    1.01910   0.98780    0.000
 4670.00    0.98786   0.98271    0.000
 4671.00    0.98480   0.97929    0.000
 4672.00    1.02354   0.97839    0.000
 4673.00    1.04183   0.98042    0.000
 4674.00    1.03345   0.98487    0.000
 4675.00    1.03351   0.99030    0.000
 4676.00    1.04327   0.99500    0.000
 4677.00    1.03750   0.99790    0.000
 4678.00    1.01600   0.99899    0.000
 4679.00    1.00153   0.99922    0.000
 4680.00    0.99335   0.99966    0.000
 4681.00    1.00201   1.00036    0.000
 4682.00    1.02393   1.00059    0.000
 4683.00    1.02638   0.99956    0.000
 4684.00    1.01534   0.99679    0.000
 4685.00    1.00640   0.99183    0.000
 4686.00    0.99874   0.98395    0.000
 4687.00    0.99745   0.97239    0.000
 4688.00    0.99953   0.95748    0.000
 4689.00    1.00103   0.94172    0.000
 4690.00    1.00225   0.92927    0.000
 4691.00    0.99971   0.92473    0.000
 4692.00    0.99569   0.93098    0.000
 4693.00    1.01207   0.94614    0.000
 4694.00    1.03535   0.96412    0.000
 4695.00    1.03339   0.97962    0.000
 4696.00    1.02427   0.99081    0.000
 4697.00    1.02365   0.99813    0.000
 4698.00    1.02501   1.00279    0.000
 4699.00    1.00803   1.00567    0.000
 4700.00    0.98759   1.00701    0.000
 4701.00    1.00897   1.00680    0.000
 4702.00    1.03643   1.00516    0.000
 4703.00    1.02817   1.00256    0.000
 4704.00    1.01613   0.99977    0.000
 4705.00    1.01224   0.99757    0.000
 4706.00    1.00891   0.99638    0.000
 4707.00    1.00461   0.99596    0.000
 4708.00    1.00029   0.99593    0.000
 4709.00    1.02214   0.99618    0.000
 4710.00    1.04280   0.99674    0.000
 4711.00    1.02300   0.99738    0.000
 4712.00    1.00455   0.99780    0.000
 4713.00    1.00668   0.99780    0.000
 4714.00    1.00801   0.99718    0.000
 4715.00    1.00146   0.99576    0.000
 4716.00    0.99585   0.99359    0.000
 4717.00    0.99680   0.99126    0.000
 4718.00    1.00030   0.98982    0.000
 4719.00    1.01759   0.99059    0.000
 4720.00    1.02968   0.99449    0.000
 4721.00    1.01907   1.00087    0.000
 4722.00    1.01111   1.00784    0.000
 4723.00    1.01264   1.01372    0.000
 4724.00    1.01674   1.01792    0.000
 4725.00    1.02859   1.02049    0.000
 4726.00    1.03155   1.02182    0.000
 4727.00    1.01177   1.02231    0.000
 4728.00    1.00222   1.02220    0.000
 4729.00    1.01524   1.02148    0.000
 4730.00    1.02596   1.01992    0.000
 4731.00    1.03229   1.01737    0.000
 4732.00    1.03138   1.01400    0.000
 4733.00    1.01840   1.01054    0.000
 4734.00    1.01522   1.00793    0.000
 4735.00    1.02639   1.00685    0.000
 4736.00    1.03585   1.00734    0.000
 4737.00    1.04312   1.00885    0.000
 4738.00    1.05077   1.01072    0.000
 4739.00    1.05884   1.01242    0.000
 4740.00    1.06276   1.01367    0.000
 4741.00    1.06253   1.01453    0.000
 4742.00    1.05321   1.01529    0.000
 4743.00    1.03588   1.01613    0.000
 4744.00    1.03012   1.01712    0.000
 4745.00    1.03336   1.01818    0.000
 4746.00    1.02575   1.01905    0.000
 4747.00    1.01073   1.01977    0.000
 4748.00    1.00636   1.02056    0.000
 4749.00    1.00835   1.02144    0.000
 4750.00    1.01808   1.02230    0.000
 4751.00    1.03184   1.02301    0.000
 4752.00    1.03383   1.02356    0.000
 4753.00    1.03049   1.02392    0.000
 4754.00    1.01747   1.02389    0.000
 4755.00    1.00067   1.02332    0.000
 4756.00    0.99314   1.02228    0.000
 4757.00    0.98868   1.02092    0.000
 4758.00    0.99615   1.01944    0.000
 4759.00    1.00693   1.01819    0.000
 4760.00    1.02395   1.01753    0.000
 4761.00    1.04240   1.01756    0.471
 4762.00    1.02564   1.01818    0.471
 4763.00    1.00242   1.01895    0.470
 4764.00    1.01619   1.01932    0.473
 4765.00    1.03517   1.01877    0.477
 4766.00    1.01976   1.01710    0.472
 4767.00    1.00086   1.01461    0.467
 4768.00    1.01625   1.01195    0.464
 4769.00    1.03386   1.00995    0.462
 4770.00    1.01015   1.00924    0.460
 4771.00    0.98523   1.01001    0.458
 4772.00    0.98734   1.01200    0.458
 4773.00    0.99019   1.01468    0.458
 4774.00    1.01450   1.01741    0.460
 4775.00    1.03435   1.01965    0.461
 4776.00    0.98976   1.02126    0.456
 4777.00    0.94684   1.02249    0.451
 4778.00    0.91962   1.02372    0.444
 4779.00    0.89005   1.02516    0.438
 4780.00    0.84439   1.02671    0.428
 4781.00    0.80449   1.02797    0.421
 4782.00    0.79509   1.02858    0.420
 4783.00    0.78719   1.02844    0.419
 4784.00    0.78571   1.02768    0.420
 4785.00    0.79352   1.02646    0.421
 4786.00    0.83394   1.02489    0.426
 4787.00    0.86875   1.02313    0.432
 4788.00    0.88694   1.02132    0.440
 4789.00    0.90472   1.01958    0.446
 4790.00    0.92143   1.01809    0.448
 4791.00    0.93739   1.01712    0.449
 4792.00    0.95174   1.01687    0.448
 4793.00    0.96647   1.01736    0.447
 4794.00    0.98191   1.01860    0.448
 4795.00    0.99796   1.02055    0.449
 4796.00    1.01499   1.02302    0.449
 4797.00    1.01882   1.02582    0.448
 4798.00    1.00363   1.02868    0.447
 4799.00    0.99322   1.03107    0.444
 4800.00    0.98886   1.03241    0.440
 4801.00    0.98410   1.03239    0.439
 4802.00    0.97888   1.03113    0.442
 4803.00    0.98913   1.02923    0.444
 4804.00    1.01461   1.02753    0.446
 4805.00    1.02082   1.02665    0.447
 4806.00    1.01028   1.02670    0.446
 4807.00    0.99682   1.02725    0.446
 4808.00    0.98114   1.02768    0.447
 4809.00    0.98805   1.02752    0.445
 4810.00    1.01015   1.02676    0.442
 4811.00    1.01810   1.02574    0.442
 4812.00    1.01771   1.02488    0.444
 4813.00    1.01182   1.02448    0.444
 4814.00    1.00310   1.02458    0.444
 4815.00    1.01444   1.02501    0.446
 4816.00    1.03472   1.02561    0.449
 4817.00    1.03907   1.02638    0.450
 4818.00    1.03733   1.02733    0.451
 4819.00    1.02471   1.02855    0.450
 4820.00    1.00856   1.03002    0.449
 4821.00    1.00699   1.03161    0.449
 4822.00    1.00939   1.03302    0.448
 4823.00    1.01729   1.03389    0.449
 4824.00    1.02642   1.03392    0.451
 4825.00    1.02738   1.03296    0.455
 4826.00    1.02689   1.03108    0.459
 4827.00    1.03058   1.02863    0.456
 4828.00    1.03483   1.02624    0.453
 4829.00    1.03670   1.02455    0.453
 4830.00    1.03834   1.02389    0.453
 4831.00    1.03513   1.02407    0.453
 4832.00    1.03163   1.02460    0.453
 4833.00    1.03458   1.02498    0.451
 4834.00    1.03766   1.02494    0.449
 4835.00    1.03280   1.02461    0.451
 4836.00    1.02822   1.02430    0.452
 4837.00    1.03108   1.02427    0.451
 4838.00    1.03267   1.02452    0.450
 4839.00    1.01698   1.02488    0.449
 4840.00    1.00183   1.02505    0.447
 4841.00    0.99159   1.02481    0.442
 4842.00    0.98376   1.02397    0.439
 4843.00    0.99187   1.02256    0.439
 4844.00    0.99891   1.02085    0.441
 4845.00    1.00040   1.01922    0.445
 4846.00    1.00511   1.01793    0.450
 4847.00    1.02326   1.01707    0.451
 4848.00    1.03675   1.01652    0.000
 4849.00    1.03417   1.01596    0.000
 4850.00    1.03143   1.01493    0.000
 4851.00    1.02823   1.01306    0.000
 4852.00    1.02634   1.01023    0.000
 4853.00    1.02773   1.00661    0.000
 4854.00    1.02236   1.00242    0.000
 4855.00    1.00256   0.99761    0.000
 4856.00    0.98539   0.99163    0.000
 4857.00    0.97309   0.98350    0.000
 4858.00    0.97253   0.97208    0.000
 4859.00    0.99097   0.95624    0.000
 4860.00    0.99600   0.93501    0.000
 4861.00    0.98197   0.90756    0.000
 4862.00    0.97734   0.87369    0.000
 4863.00    0.98444   0.83475    0.000
 4864.00    0.99052   0.79494    0.000
 4865.00    0.99547   0.76123    0.000
 4866.00    1.00125   0.74143    0.000
 4867.00    1.00785   0.74094    0.000
 4868.00    1.00593   0.76003    0.000
 4869.00    0.99674   0.79355    0.000
 4870.00    0.99694   0.83343    0.000
 4871.00    1.00423   0.87206    0.000
 4872.00    1.01441   0.90463    0.000
 4873.00    1.02651   0.92947    0.000
 4874.00    1.03525   0.94729    0.000
 4875.00    1.04203   0.95968    0.466
 4876.00    1.03630   0.96849    0.463
 4877.00    1.02423   0.97542    0.460
 4878.00    1.02035   0.98172    0.458
 4879.00    1.02006   0.98804    0.454
 4880.00    1.02023   0.99445    0.454
 4881.00    1.02057   1.00074    0.454
 4882.00    1.03206   1.00655    0.455
 4883.00    1.04710   1.01158    0.457
 4884.00    1.04991   1.01552    0.462
 4885.00    1.04946   1.01811    0.467
 4886.00    1.03967   1.01922    0.464
 4887.00    1.02784   1.01902    0.458
 4888.00    1.02164   1.01794    0.461
 4889.00    1.01641   1.01653    0.466
 4890.00    1.02765   1.01528    0.466
 4891.00    1.04105   1.01443    0.466
 4892.00    1.04165   1.01397    0.462
 4893.00    1.04106   1.01371    0.457
 4894.00    1.05214   1.01362    0.458
 4895.00    1.06389   1.01409    0.460
 4896.00    1.02767   1.01582    0.461
 4897.00    0.99083   1.01936    0.462
 4898.00    1.00530   1.02460    0.461
 4899.00    1.01900   1.03064    0.461
 4900.00    1.01431   1.03617    0.462
 4901.00    1.01015   1.04001    0.463
 4902.00    1.01287   1.04165    0.457
 4903.00    1.01483   1.04129    0.452
 4904.00    1.01015   1.03969    0.457
 4905.00    1.00520   1.03775    0.461
 4906.00    0.99847   1.03620    0.459
 4907.00    0.99504   1.03542    0.458
 4908.00    1.00813   1.03542    0.462
 4909.00    1.02107   1.03602    0.466
 4910.00    1.03333   1.03680    0.469
 4911.00    1.03985   1.03724    0.471
 4912.00    1.02694   1.03683    0.467
 4913.00    1.02297   1.03542    0.466
 4914.00    1.04446   1.03343    0.471
 4915.00    1.05230   1.03165    0.472
 4916.00    1.02696   1.03090    0.463
 4917.00    1.01186   1.03154    0.457
 4918.00    1.01827   1.03320    0.459
 4919.00    1.01954   1.03484    0.459
 4920.00    1.01140   1.03513    0.456
 4921.00    1.00514   1.03292    0.455
 4922.00    1.00187   1.02771    0.458
 4923.00    1.00421   1.01991    0.461
 4924.00    1.01442   1.01088    0.462
 4925.00    1.02837   1.00252    0.463
 4926.00    1.04692   0.99669    0.465
 4927.00    1.04633   0.99459    0.465
 4928.00    1.02496   0.99655    0.464
 4929.00    1.01321   1.00205    0.462
 4930.00    1.01070   1.01002    0.459
 4931.00    1.01848   1.01913    0.457
 4932.00    1.03495   1.02804    0.455
 4933.00    1.02873   1.03556    0.452
 4934.00    1.00565   1.04088    0.449
 4935.00    0.99149   1.04362    0.448
 4936.00    0.98316   1.04390    0.447
 4937.00    0.99357   1.04228    0.451
 4938.00    1.01469   1.03959    0.456
 4939.00    1.01905   1.03668    0.457
 4940.00    1.01507   1.03404    0.000
 4941.00    1.01432   1.03183    0.000
 4942.00    1.01496   1.03009    0.000
 4943.00    1.01883   1.02907    0.000
 4944.00    1.02390   1.02923    0.000
 4945.00    1.03178   1.03093    0.000
 4946.00    1.04055   1.03398    0.000
 4947.00    1.05549   1.03770    0.000
 4948.00    1.07204   1.04122    0.000
 4949.00    1.06101   1.04397    0.000
 4950.00    1.04411   1.04581    0.000
 4951.00    1.05461   1.04700    0.000
 4952.00    1.06972   1.04789    0.000
 4953.00    1.06684   1.04872    0.000
 4954.00    1.06167   1.04949    0.000
 4955.00    1.03425   1.05001    0.000
 4956.00    1.00486   1.05003    0.000
 4957.00    1.00938   1.04930    0.000
 4958.00    1.01568   1.04763    0.000
 4959.00    1.02448   1.04491    0.000
 4960.00    1.03311   1.04133    0.000
 4961.00    1.02570   1.03757    0.000
 4962.00    1.01861   1.03469    0.000
 4963.00    1.01831   1.03377    0.000
 4964.00    1.01877   1.03522    0.000
 4965.00    1.02854   1.03849    0.000
 4966.00    1.03702   1.04226    0.000
 4967.00    1.03469   1.04519    0.000
 4968.00    1.03164   1.04648    0.000
 4969.00    1.02411   1.04607    0.000
 4970.00    1.01775   1.04451    0.000
 4971.00    1.01708   1.04257    0.000
 4972.00    1.01764   1.04100    0.000
 4973.00    1.02309   1.04028    0.000
 4974.00    1.02950   1.04058    0.000
 4975.00    1.03906   1.04183    0.000
 4976.00    1.04317   1.04375    0.000
 4977.00    1.03206   1.04596    0.000
 4978.00    1.02741   1.04799    0.000
 4979.00    1.03826   1.04937    0.000
 4980.00    1.04772   1.04972    0.000
 4981.00    1.05431   1.04882    0.000
 4982.00    1.05195   1.04666    0.000
 4983.00    1.03349   1.04334    0.000
 4984.00    1.02304   1.03905    0.000
 4985.00    1.02518   1.03407    0.000
 4986.00    1.02422   1.02888    0.000
 4987.00    1.01899   1.02429    0.000
 4988.00    1.01869   1.02130    0.000
 4989.00    1.02435   1.02073    0.000
 4990.00    1.02545   1.02273    0.000
 4991.00    1.02167   1.02665    0.000
 4992.00    1.01782   1.03125    0.000
 4993.00    1.01390   1.03527    0.000
 4994.00    1.01676   1.03793    0.000
 4995.00    1.02527   1.03914    0.000
 4996.00    1.02517   1.03939    0.000
 4997.00    1.01875   1.03933    0.000
 4998.00    1.01873   1.03947    0.000
 4999.00    1.02282   1.03999    0.000
 5000.00    1.02716   1.04065    0.000
 5001.00    1.03165   1.04096    0.000
 5002.00    1.03579   1.04038    0.000
 5003.00    1.03975   1.03858    0.000
 5004.00    1.04505   1.03569    0.000
 5005.00    1.05091   1.03222    0.000
 5006.00    1.04762   1.02887    0.000
 5007.00    1.04100   1.02617    0.000
 5008.00    1.03372   1.02426    0.000
 5009.00    1.02625   1.02306    0.000
 5010.00    1.03053   1.02255    0.000
 5011.00    1.03781   1.02288    0.000
 5012.00    1.03810   1.02414    0.000
 5013.00    1.03692   1.02600    0.000
 5014.00    1.02623   1.02760    0.000
 5015.00    1.01398   1.02782    0.000
 5016.00    1.01042   1.02586    0.000
 5017.00    1.00792   1.02157    0.000
 5018.00    1.02101   1.01563    0.000
 5019.00    1.03542   1.00933    0.000
 5020.00    1.02292   1.00421    0.000
 5021.00    1.00911   1.00154    0.000
 5022.00    1.02629   1.00192    0.000
 5023.00    1.04361   1.00507    0.000
 5024.00    1.04030   1.01003    0.000
 5025.00    1.03710   1.01563    0.000
 5026.00    1.03613   1.02092    0.000
 5027.00    1.03444   1.02534    0.000
 5028.00    1.02431   1.02874    0.000
 5029.00    1.01697   1.03115    0.460
 5030.00    1.03216   1.03271    0.460
 5031.00    1.04603   1.03366    0.459
 5032.00    1.05190   1.03440    0.455
 5033.00    1.05486   1.03539    0.453
 5034.00    1.04391   1.03697    0.454
 5035.00    1.03447   1.03912    0.456
 5036.00    1.03096   1.04146    0.460
 5037.00    1.02887   1.04338    0.463
 5038.00    1.03139   1.04426    0.459
 5039.00    1.03149   1.04369    0.455
 5040.00    1.02491   1.04164    0.450
 5041.00    1.02369   1.03839    0.448
 5042.00    1.03509   1.03437    0.451
 5043.00    1.04389   1.02999    0.452
 5044.00    1.04742   1.02579    0.447
 5045.00    1.04817   1.02256    0.445
 5046.00    1.04398   1.02129    0.446
 5047.00    1.03803   1.02268    0.448
 5048.00    1.02935   1.02655    0.450
 5049.00    1.02663   1.03169    0.450
 5050.00    1.03203   1.03637    0.448
 5051.00    1.03578   1.03916    0.449
 5052.00    1.03755   1.03955    0.453
 5053.00    1.03541   1.03816    0.454
 5054.00    1.02916   1.03620    0.451
 5055.00    1.02953   1.03493    0.447
 5056.00    1.03606   1.03504    0.441
 5057.00    1.03779   1.03657    0.440
 5058.00    1.03559   1.03900    0.445
 5059.00    1.03565   1.04169    0.447
 5060.00    1.03734   1.04415    0.448
 5061.00    1.04010   1.04626    0.446
 5062.00    1.04355   1.04818    0.442
 5063.00    1.04376   1.05007    0.443
 5064.00    1.04218   1.05188    0.445
 5065.00    1.03868   1.05327    0.447
 5066.00    1.03424   1.05376    0.449
 5067.00    1.03253   1.05295    0.445
 5068.00    1.03194   1.05081    0.439
 5069.00    1.01985   1.04775    0.434
 5070.00    1.00366   1.04452    0.430
 5071.00    1.01380   1.04189    0.434
 5072.00    1.03186   1.04028    0.441
 5073.00    1.05166   1.03970    0.445
 5074.00    1.07190   1.03979    0.448
 5075.00    1.06590   1.04009    0.448
 5076.00    1.05459   1.04024    0.448
 5077.00    1.04354   1.04016    0.450
 5078.00    1.03253   1.03992    0.452
 5079.00    1.01835   1.03963    0.443
 5080.00    1.00380   1.03922    0.432
 5081.00    1.00272   1.03839    0.431
 5082.00    1.00272   1.03683    0.431
 5083.00    0.99079   1.03445    0.426
 5084.00    0.97832   1.03163    0.421
 5085.00    0.94894   1.02918    0.422
 5086.00    0.92015   1.02789    0.423
 5087.00    0.93051   1.02821    0.414
 5088.00    0.94098   1.03000    0.406
 5089.00    0.95358   1.03273    0.407
 5090.00    0.96575   1.03575    0.408
 5091.00    0.97304   1.03859    0.415
 5092.00    0.98192   1.04102    0.422
 5093.00    1.00315   1.04306    0.428
 5094.00    1.02286   1.04485    0.434
 5095.00    1.03361   1.04652    0.443
 5096.00    1.03790   1.04806    0.449
 5097.00    1.01204   1.04928    0.442
 5098.00    0.98930   1.04984    0.436
 5099.00    0.97852   1.04932    0.431
 5100.00    0.97177   1.04743    0.428
 5101.00    0.97788   1.04426    0.430
 5102.00    0.98148   1.04039    0.431
 5103.00    0.97833   1.03677    0.431
 5104.00    0.97860   1.03440    0.434
 5105.00    0.98679   1.03387    0.444
 5106.00    0.99929   1.03506    0.450
 5107.00    1.02041   1.03722    0.448
 5108.00    1.03194   1.03932    0.445
 5109.00    1.02677   1.04056    0.442
 5110.00    1.01844   1.04064    0.439
 5111.00    1.00527   1.03972    0.439
 5112.00    1.00130   1.03829    0.441
 5113.00    1.00963   1.03696    0.448
 5114.00    1.02078   1.03626    0.453
 5115.00    1.03525   1.03650    0.455
 5116.00    1.04283   1.03775    0.456
 5117.00    1.04324   1.03979    0.459
 5118.00    1.04312   1.04224    0.461
 5119.00    1.04249   1.04477    0.462
 5120.00    1.03952   1.04711    0.463
 5121.00    1.03464   1.04907    0.461
 5122.00    1.03180   1.05043    0.458
 5123.00    1.03043   1.05088    0.452
 5124.00    1.02276   1.05011    0.452
 5125.00    1.01115   1.04801    0.454
 5126.00    1.01156   1.04472    0.452
 5127.00    1.01854   1.04074    0.449
 5128.00    1.01706   1.03671    0.449
 5129.00    1.01156   1.03325    0.451
 5130.00    1.02711   1.03076    0.454
 5131.00    1.05127   1.02934    0.457
 5132.00    1.05454   1.02888    0.452
 5133.00    1.05051   1.02918    0.445
 5134.00    1.04093   1.03010    0.448
 5135.00    1.02971   1.03154    0.454
 5136.00    1.02607   1.03337    0.454
 5137.00    1.02429   1.03540    0.454
 5138.00    1.02591   1.03736    0.453
 5139.00    1.02820   1.03892    0.452
 5140.00    1.02746   1.03974    0.448
 5141.00    1.02624   1.03958    0.443
 5142.00    1.01908   1.03848    0.445
 5143.00    1.01124   1.03678    0.447
 5144.00    1.00510   1.03499    0.447
 5145.00    0.99909   1.03351    0.447
 5146.00    1.00510   1.03253    0.450
 5147.00    1.01161   1.03198    0.453
 5148.00    1.01475   1.03174    0.449
 5149.00    1.01797   1.03170    0.445
 5150.00    1.02571   1.03178    0.443
 5151.00    1.03353   1.03193    0.441
 5152.00    1.04266   1.03212    0.449
 5153.00    1.05026   1.03232    0.455
 5154.00    1.04160   1.03245    0.450
 5155.00    1.03350   1.03242    0.446
 5156.00    1.02963   1.03222    0.443
 5157.00    1.02653   1.03198    0.441
 5158.00    1.02775   1.03208    0.445
 5159.00    1.03037   1.03292    0.447
 5160.00    1.03936   1.03477    0.445
 5161.00    1.04708   1.03754    0.444
 5162.00    1.05010   1.04077    0.443
 5163.00    1.05061   1.04373    0.444
 5164.00    1.04331   1.04572    0.448
 5165.00    1.03657   1.04624    0.453
 5166.00    1.03129   1.04506    0.463
 5167.00    1.02692   1.04216    0.470
 5168.00    1.02466   1.03756    0.468
 5169.00    1.02384   1.03134    0.466
 5170.00    1.02587   1.02381    0.468
 5171.00    1.02667   1.01571    0.468
 5172.00    1.02536   1.00821    0.468
 5173.00    1.02223   1.00244    0.464
 5174.00    1.01637   0.99903    0.457
 5175.00    1.01760   0.99786    0.454
 5176.00    1.02818   0.99845    0.457
 5177.00    1.02731   1.00052    0.455
 5178.00    1.01312   1.00425    0.447
 5179.00    0.99083   1.00982    0.442
 5180.00    0.96021   1.01690    0.440
 5181.00    0.95260   1.02439    0.440
 5182.00    0.96580   1.03082    0.442
 5183.00    0.96649   1.03489    0.444
 5184.00    0.95722   1.03586    0.447
 5185.00    0.96460   1.03362    0.449
 5186.00    0.98367   1.02874    0.450
 5187.00    0.99292   1.02247    0.448
 5188.00    0.99614   1.01669    0.445
 5189.00    0.99932   1.01326    0.448
 5190.00    1.00248   1.01333    0.000
 5191.00    1.01396   1.01672    0.000
 5192.00    1.02932   1.02201    0.000
 5193.00    1.03445   1.02729    0.000
 5194.00    1.03546   1.03100    0.000
 5195.00    1.04064   1.03245    0.000
 5196.00    1.04725   1.03191    0.000
 5197.00    1.03918   1.03029    0.000
 5198.00    1.02687   1.02868    0.000
 5199.00    1.04010   1.02791    0.000
 5200.00    1.05941   1.02834    0.000
 5201.00    1.05190   1.02984    0.000
 5202.00    1.03922   1.03204    0.000
 5203.00    1.03674   1.03447    0.000
 5204.00    1.03578   1.03661    0.000
 5205.00    1.03839   1.03796    0.000
 5206.00    1.04138   1.03807    0.000
 5207.00    1.03905   1.03663    0.000
 5208.00    1.03633   1.03369    0.000
 5209.00    1.04660   1.02969    0.000
 5210.00    1.05735   1.02543    0.000
 5211.00    1.04860   1.02188    0.448
 5212.00    1.03998   1.01988    0.444
 5213.00    1.03888   1.01987    0.441
 5214.00    1.03841   1.02188    0.439
 5215.00    1.04816   1.02549    0.441
 5216.00    1.05647   1.03000    0.444
 5217.00    1.05007   1.03449    0.442
 5218.00    1.04504   1.03810    0.440
 5219.00    1.05006   1.04033    0.443
 5220.00    1.05457   1.04131    0.444
 5221.00    1.05627   1.04169    0.442
 5222.00    1.05531   1.04234    0.440
 5223.00    1.04249   1.04384    0.440
 5224.00    1.03694   1.04607    0.442
 5225.00    1.05792   1.04832    0.450
 5226.00    1.07303   1.04957    0.454
 5227.00    1.07017   1.04893    0.448
 5228.00    1.06422   1.04598    0.444
 5229.00    1.05023   1.04102    0.448
 5230.00    1.03927   1.03508    0.448
 5231.00    1.03511   1.02973    0.442
 5232.00    1.03392   1.02649    0.438
 5233.00    1.03847   1.02620    0.439
 5234.00    1.04199   1.02857    0.437
 5235.00    1.04375   1.03229    0.434
 5236.00    1.04671   1.03578    0.433
 5237.00    1.05142   1.03800    0.437
 5238.00    1.05326   1.03891    0.437
 5239.00    1.05136   1.03932    0.432
 5240.00    1.04849   1.04020    0.429
 5241.00    1.04451   1.04211    0.429
 5242.00    1.04084   1.04495    0.429
 5243.00    1.03747   1.04814    0.432
 5244.00    1.04271   1.05104    0.433
 5245.00    1.05561   1.05322    0.434
 5246.00    1.05817   1.05462    0.435
 5247.00    1.05260   1.05535    0.436
 5248.00    1.04560   1.05550    0.435
 5249.00    1.03761   1.05505    0.433
 5250.00    1.04124   1.05386    0.435
 5251.00    1.05191   1.05184    0.439
 5252.00    1.04587   1.04910    0.442
 5253.00    1.03099   1.04605    0.446
 5254.00    1.03234   1.04327    0.446
 5255.00    1.04114   1.04123    0.444
 5256.00    1.04960   1.04016    0.443
 5257.00    1.05792   1.04002    0.443
 5258.00    1.05732   1.04066    0.444
 5259.00    1.05371   1.04196    0.445
 5260.00    1.05105   1.04392    0.446
 5261.00    1.04866   1.04644    0.446
 5262.00    1.04652   1.04915    0.450
 5263.00    1.04445   1.05123    0.455
 5264.00    1.04968   1.05167    0.461
 5265.00    1.05628   1.04966    0.469
 5266.00    1.05283   1.04501    0.476
 5267.00    1.04793   1.03825    0.484
 5268.00    1.04332   1.03053    0.484
 5269.00    1.03874   1.02317    0.484
 5270.00    1.03288   1.01724    0.481
 5271.00    1.02692   1.01321    0.479
 5272.00    1.04532   1.01092    0.475
 5273.00    1.06454   1.00990    0.471
 5274.00    1.06946   1.00979    0.469
 5275.00    1.07375   1.01061    0.468
 5276.00    1.05813   1.01258    0.458
 5277.00    1.04343   1.01578    0.449
 5278.00    1.04274   1.01993    0.454
 5279.00    1.04291   1.02457    0.457
 5280.00    1.05155   1.02936    0.449
 5281.00    1.05842   1.03417    0.443
 5282.00    1.05284   1.03882    0.442
 5283.00    1.04748   1.04287    0.440
 5284.00    1.04327   1.04569    0.432
 5285.00    1.04284   1.04683    0.427
 5286.00    1.05883   1.04641    0.433
 5287.00    1.06860   1.04524    0.437
 5288.00    1.05608   1.04445    0.437
 5289.00    1.04877   1.04505    0.437
 5290.00    1.05710   1.04747    0.435
 5291.00    1.06228   1.05137    0.432
 5292.00    1.05941   1.05589    0.428
 5293.00    1.05777   1.06006    0.427
 5294.00    1.05880   1.06319    0.433
 5295.00    1.06131   1.06501    0.436
 5296.00    1.06664   1.06553    0.436
 5297.00    1.06505   1.06485    0.435
 5298.00    1.05193   1.06303    0.434
 5299.00    1.04883   1.06012    0.435
 5300.00    1.06034   1.05625    0.438
 5301.00    1.07126   1.05180    0.439
 5302.00    1.08143   1.04745    0.438
 5303.00    1.08467   1.04405    0.436
 5304.00    1.08007   1.04230    0.434
 5305.00    1.07212   1.04246    0.433
 5306.00    1.06084   1.04429    0.431
 5307.00    1.05970   1.04724    0.431
 5308.00    1.06749   1.05072    0.433
 5309.00    1.06782   1.05421    0.431
 5310.00    1.06237   1.05729    0.428
 5311.00    1.05927   1.05972    0.428
 5312.00    1.05778   1.06146    0.431
 5313.00    1.06245   1.06267    0.436
 5314.00    1.07079   1.06354    0.443
 5315.00    1.06504   1.06409    0.438
 5316.00    1.05195   1.06420    0.427
 5317.00    1.04352   1.06365    0.426
 5318.00    1.03719   1.06233    0.430
 5319.00    1.04837   1.06033    0.435
 5320.00    1.06636   1.05799    0.442
 5321.00    1.05038   1.05571    0.442
 5322.00    1.02317   1.05390    0.438
 5323.00    1.01574   1.05274    0.439
 5324.00    1.01379   1.05213    0.442
 5325.00    1.02208   1.05170    0.444
 5326.00    1.03272   1.05097    0.446
 5327.00    1.05049   1.04955    0.446
 5328.00    1.06956   1.04719    0.445
 5329.00    1.06784   1.04382    0.445
 5330.00    1.06322   1.03959    0.446
 5331.00    1.07144   1.03487    0.447
 5332.00    1.08096   1.03041    0.448
 5333.00    1.08814   1.02720    0.444
 5334.00    1.09516   1.02626    0.441
 5335.00    1.06181   1.02808    0.434
 5336.00    1.02736   1.03228    0.427
 5337.00    1.03358   1.03776    0.431
 5338.00    1.03983   1.04320    0.434
 5339.00    1.04710   1.04760    0.435
 5340.00    1.05408   1.05047    0.436
 5341.00    1.05681   1.05173    0.431
 5342.00    1.05787   1.05153    0.427
 5343.00    1.04329   1.05019    0.425
 5344.00    1.03180   1.04823    0.422
 5345.00    1.04146   1.04636    0.420
 5346.00    1.04728   1.04527    0.418
 5347.00    1.03287   1.04529    0.419
 5348.00    1.02281   1.04626    0.419
 5349.00    1.03125   1.04758    0.421
 5350.00    1.04165   1.04862    0.424
 5351.00    1.05892   1.04903    0.429
 5352.00    1.07019   1.04896    0.431
 5353.00    1.06383   1.04887    0.425
 5354.00    1.06143   1.04930    0.421
 5355.00    1.06899   1.05061    0.420
 5356.00    1.07422   1.05291    0.418
 5357.00    1.07437   1.05599    0.416
 5358.00    1.07059   1.05950    0.415
 5359.00    1.05941   1.06302    0.416
 5360.00    1.05491   1.06619    0.416
 5361.00    1.06135   1.06873    0.416
 5362.00    1.05949   1.07040    0.417
 5363.00    1.04566   1.07102    0.419
 5364.00    1.04038   1.07048    0.422
 5365.00    1.04590   1.06880    0.428
 5366.00    1.04571   1.06614    0.430
 5367.00    1.03917   1.06285    0.430
 5368.00    1.03638   1.05934   -2.000
 5369.00    1.03729   1.05603   -2.000
 5370.00    1.03942   1.05311   -2.000
 5371.00    1.04259   1.05055   -2.000
 5372.00    1.04841   1.04811   -2.000
 5373.00    1.05625   1.04555   -2.000
 5374.00    1.05759   1.04290   -2.000
 5375.00    1.05458   1.04062   -2.000
 5376.00    1.05730   1.03949   -2.000
 5377.00    1.06339   1.04026   -2.000
 5378.00    1.06922   1.04311   -2.000
 5379.00    1.07491   1.04747   -2.000
 5380.00    1.07118   1.05226   -2.000
 5381.00    1.06328   1.05634   -2.000
 5382.00    1.06816   1.05900   -2.000
 5383.00    1.07792   1.06010    0.439
 5384.00    1.07972   1.05990    0.437
 5385.00    1.07894   1.05890    0.437
 5386.00    1.06325   1.05759    0.432
 5387.00    1.04351   1.05643    0.426
 5388.00    1.04250   1.05575    0.422
 5389.00    1.04566   1.05569    0.420
 5390.00    1.05067   1.05609    0.423
 5391.00    1.05601   1.05655    0.428
 5392.00    1.05322   1.05659    0.430
 5393.00    1.04933   1.05586    0.432
 5394.00    1.05502   1.05429    0.431
 5395.00    1.06164   1.05210    0.429
 5396.00    1.05845   1.04966    0.435
 5397.00    1.05466   1.04729    0.442
 5398.00    1.05746   1.04511    0.435
 5399.00    1.06039   1.04310    0.428
 5400.00    1.05583   1.04117    0.422
 5401.00    1.05181   1.03940    0.416
 5402.00    1.06169   1.03803    0.419
 5403.00    1.07081   1.03738    0.422
 5404.00    1.06974   1.03751    0.426
 5405.00    1.06716   1.03805    0.428
 5406.00    1.05107   1.03824    0.421
 5407.00    1.03865   1.03727    0.416
 5408.00    1.05051   1.03464    0.419
 5409.00    1.06174   1.03029    0.422
 5410.00    1.06972   1.02456    0.425
 5411.00    1.07546   1.01782    0.426
 5412.00    1.07188   1.01007    0.419
 5413.00    1.06657   1.00112    0.414
 5414.00    1.05529   0.99105    0.418
 5415.00    1.05134   0.98101    0.421
 5416.00    1.06855   0.97324    0.422
 5417.00    1.07968   0.97033    0.423
 5418.00    1.07575   0.97394    0.422
 5419.00    1.06452   0.98381    0.420
 5420.00    1.03773   0.99780    0.415
 5421.00    1.02846   1.01283    0.414
 5422.00    1.05158   1.02616    0.420
 5423.00    1.06376   1.03628    0.424
 5424.00    1.05826   1.04290    0.424
 5425.00    1.05422   1.04651    0.424
 5426.00    1.05224   1.04798    0.425
 5427.00    1.05416   1.04821    0.425
 5428.00    1.06096   1.04793    0.426
 5429.00    1.06490   1.04765    0.427
 5430.00    1.06570   1.04759    0.430
 5431.00    1.06729   1.04767    0.430
 5432.00    1.06963   1.04759    0.428
 5433.00    1.08062   1.04693    0.431
 5434.00    1.09899   1.04547    0.438
 5435.00    1.09444   1.04340    0.438
 5436.00    1.07262   1.04125    0.434
 5437.00    1.06274   1.03953    0.431
 5438.00    1.06076   1.03851    0.429
 5439.00    1.06035   1.03821    0.426
 5440.00    1.06086   1.03888    0.423
 5441.00    1.06429   1.04088    0.423
 5442.00    1.06919   1.04429    0.426
 5443.00    1.06665   1.04875    0.423
 5444.00    1.06085   1.05352    0.419
 5445.00    1.06336   1.05767    0.417
 5446.00    1.06900   1.06040    0.416
 5447.00    1.08050   1.06121    0.420
 5448.00    1.09387   1.05996    0.425
 5449.00    1.08622   1.05692    0.425
 5450.00    1.07298   1.05278    0.424
 5451.00    1.06330   1.04860    0.419
 5452.00    1.05440   1.04559    0.413
 5453.00    1.05133   1.04460    0.416
 5454.00    1.04926   1.04566    0.421
 5455.00    1.07048   1.04782    0.425
 5456.00    1.09475   1.04975    0.428
 5457.00    1.09327   1.05038    0.423
 5458.00    1.08940   1.04939    0.417
 5459.00    1.07815   1.04725    0.418
 5460.00    1.06648   1.04499    0.419
 5461.00    1.07305   1.04372    0.415
 5462.00    1.07995   1.04415    0.412
 5463.00    1.07870   1.04605    0.411
 5464.00    1.07753   1.04840    0.410
 5465.00    1.07802   1.05009    0.412
 5466.00    1.07876   1.05047    0.414
 5467.00    1.08278   1.04963    0.416
 5468.00    1.08593   1.04824    0.417
 5469.00    1.08163   1.04713    0.415
 5470.00    1.07931   1.04684    0.414
 5471.00    1.08971   1.04738    0.420
 5472.00    1.09646   1.04838    0.425
 5473.00    1.08494   1.04941    0.420
 5474.00    1.07453   1.05002    0.417
 5475.00    1.06863   1.04990    0.421
 5476.00    1.06090   1.04895    0.424
 5477.00    1.04696   1.04719    0.422
 5478.00    1.03716   1.04470   -2.000
 5479.00    1.03910   1.04171   -2.000
 5480.00    1.04246   1.03861   -2.000
 5481.00    1.04931   1.03582   -2.000
 5482.00    1.05063   1.03395   -2.000
 5483.00    1.04041   1.03349   -2.000
 5484.00    1.01787   1.03434   -2.000
 5485.00    0.97291   1.03598   -2.000
 5486.00    0.90700   1.03798   -2.000
 5487.00    0.80773   1.04015   -2.000
 5488.00    0.81001   1.04240   -2.000
 5489.00    0.95417   1.04460   -2.000
 5490.00    1.05978   1.04644   -2.000
 5491.00    1.11800   1.04756   -2.000
 5492.00    1.15434   1.04786   -2.000
 5493.00    1.16696   1.04761   -2.000
 5494.00    1.15314   1.04725   -2.000
 5495.00    1.11402   1.04708   -2.000
 5496.00    1.08181   1.04721   -2.000
 5497.00    1.05542   1.04750   -2.000
 5498.00    1.04829   1.04774   -2.000
 5499.00    1.05545   1.04783   -2.000
 5500.00    1.04894   1.04778   -2.000
 5501.00    1.03350   1.04764   -2.000
 5502.00    1.03771   1.04752    0.410
 5503.00    1.05312   1.04751    0.408
 5504.00    1.05682   1.04748    0.412
 5505.00    1.05470   1.04715    0.420
 5506.00    1.06135   1.04636    0.420
 5507.00    1.07178   1.04518    0.418
 5508.00    1.06683   1.04378    0.416
 5509.00    1.05622   1.04232    0.413
 5510.00    1.04647   1.04088    0.410
 5511.00    1.03700   1.03957    0.405
 5512.00    1.03599   1.03854    0.406
 5513.00    1.03719   1.03789    0.408
 5514.00    1.03938   1.03758    0.413
 5515.00    1.04177   1.03749    0.418
 5516.00    1.05747   1.03746    0.417
 5517.00    1.07539   1.03750    0.415
 5518.00    1.06304   1.03780    0.415
 5519.00    1.04685   1.03862    0.416
 5520.00    1.05253   1.04013    0.416
 5521.00    1.06015   1.04235    0.416
 5522.00    1.05223   1.04504    0.418
 5523.00    1.04350   1.04781    0.420
 5524.00    1.04714   1.05023    0.419
 5525.00    1.05089   1.05197    0.418
 5526.00    1.04623   1.05285    0.415
 5527.00    1.04206   1.05283    0.413
 5528.00    1.04857   1.05190    0.417
 5529.00    1.05467   1.05009    0.421
 5530.00    1.05580   1.04754    0.420
 5531.00    1.05754   1.04456    0.420
 5532.00    1.06438   1.04168    0.421
 5533.00    1.07079   1.03959    0.422
 5534.00    1.07451   1.03879    0.423
 5535.00    1.07502   1.03926    0.423
 5536.00    1.05983   1.04059    0.418
 5537.00    1.04677   1.04211    0.415
 5538.00    1.04215   1.04325    0.412
 5539.00    1.04281   1.04382    0.411
 5540.00    1.06086   1.04406    0.412
 5541.00    1.07216   1.04437    0.411
 5542.00    1.06463   1.04507    0.404
 5543.00    1.06331   1.04626    0.400
 5544.00    1.07682   1.04778    0.402
 5545.00    1.08434   1.04924    0.401
 5546.00    1.07947   1.05024    0.397
 5547.00    1.07416   1.05056    0.398
 5548.00    1.06805   1.05027    0.409
 5549.00    1.06855   1.04968    0.414
 5550.00    1.07941   1.04921    0.411
 5551.00    1.07644   1.04927    0.407
 5552.00    1.05441   1.05002    0.402
 5553.00    1.04135   1.05135    0.400
 5554.00    1.03915   1.05289    0.403
 5555.00    1.04775   1.05418    0.406
 5556.00    1.06790   1.05485    0.411
 5557.00    1.07496   1.05473    0.413
 5558.00    1.06970   1.05393    0.414
 5559.00    1.06323   1.05277    0.411
 5560.00    1.05576   1.05160    0.405
 5561.00    1.05772   1.05066    0.404
 5562.00    1.06658   1.05005    0.405
 5563.00    1.07142   1.04967    0.408
 5564.00    1.07368   1.04930    0.413
 5565.00    1.07017   1.04875    0.415
 5566.00    1.06340   1.04786    0.415
 5567.00    1.05993   1.04665    0.415
 5568.00    1.05806   1.04524    0.416
 5569.00    1.05607   1.04378    0.418
 5570.00    1.05403   1.04245    0.421
 5571.00    1.05846   1.04137    0.422
 5572.00    1.06524   1.04059    0.422
 5573.00    1.06923   1.04011    0.422
 5574.00    1.07237   1.03993    0.422
 5575.00    1.06290   1.03994    0.421
 5576.00    1.05022   1.04005    0.420
 5577.00    1.06296   1.04030    0.424
 5578.00    1.08097   1.04075    0.429
 5579.00    1.08211   1.04143    0.424
 5580.00    1.08050   1.04235    0.418
 5581.00    1.07573   1.04347    0.417
 5582.00    1.07058   1.04463    0.418
 5583.00    1.05873   1.04568    0.415
 5584.00    1.04633   1.04647    0.413
 5585.00    1.04239   1.04689    0.409
 5586.00    1.03886   1.04684    0.406
 5587.00    1.05484   1.04619    0.415
 5588.00    1.07054   1.04474    0.423
 5589.00    1.05315   1.04230    0.422
 5590.00    1.03696   1.03880    0.420
 5591.00    1.04483   1.03438    0.423
 5592.00    1.05186   1.02941    0.425
 5593.00    1.04910   1.02432    0.418
 5594.00    1.04693   1.01933    0.413
 5595.00    1.04945   1.01476    0.417
 5596.00    1.05146   1.01111    0.421
 5597.00    1.05042   1.00911    0.419
 5598.00    1.05090   1.00932    0.417
 5599.00    1.05854   1.01205    0.417
 5600.00    1.06496   1.01683    0.418
 5601.00    1.06664   1.02250    0.420
 5602.00    1.06920   1.02770    0.421
 5603.00    1.07462   1.03140    0.419
 5604.00    1.07598   1.03317    0.418
 5605.00    1.06623   1.03337    0.415
 5606.00    1.06134   1.03289    0.413
 5607.00    1.06783   1.03274    0.410
 5608.00    1.07417   1.03366    0.407
 5609.00    1.08023   1.03594    0.405
 5610.00    1.07967   1.03936    0.404
 5611.00    1.06745   1.04333    0.405
 5612.00    1.06034   1.04715    0.407
 5613.00    1.06114   1.05025    0.411
 5614.00    1.06161   1.05234    0.414
 5615.00    1.06164   1.05332    0.416
 5616.00    1.05440   1.05314    0.417
 5617.00    1.03849   1.05167    0.418
 5618.00    1.03755   1.04889    0.417
 5619.00    1.05239   1.04515    0.414
 5620.00    1.04721   1.04114    0.411
 5621.00    1.02342   1.03767    0.408
 5622.00    1.02206   1.03542    0.409
 5623.00    1.03908   1.03472    0.415
 5624.00    1.04130   1.03535    0.414
 5625.00    1.03285   1.03667    0.408
 5626.00    1.03177   1.03791    0.407
 5627.00    1.03535   1.03845    0.409
 5628.00    1.04839   1.03815    0.407
 5629.00    1.06667   1.03728    0.403
 5630.00    1.07302   1.03638    0.402
 5631.00    1.07362   1.03608    0.402
 5632.00    1.06306   1.03683    0.402
 5633.00    1.04785   1.03866    0.402
 5634.00    1.04997   1.04118    0.400
 5635.00    1.05824   1.04381    0.396
 5636.00    1.05655   1.04591    0.394
 5637.00    1.05186   1.04706    0.392
 5638.00    1.05048   1.04709    0.391
 5639.00    1.04993   1.04608    0.390
 5640.00    1.05976   1.04432    0.391
 5641.00    1.07169   1.04219    0.392
 5642.00    1.06505   1.04004    0.391
 5643.00    1.05546   1.03812    0.390
 5644.00    1.06016   1.03658    0.389
 5645.00    1.06654   1.03554    0.387
 5646.00    1.07107   1.03502    0.390
 5647.00    1.07544   1.03503    0.392
 5648.00    1.06943   1.03552    0.392
 5649.00    1.06296   1.03642    0.392
 5650.00    1.06036   1.03757    0.397
 5651.00    1.05777   1.03877    0.401
 5652.00    1.05370   1.03985    0.402
 5653.00    1.04980   1.04071    0.404
 5654.00    1.04894   1.04137    0.409
 5655.00    1.04807   1.04183    0.414
 5656.00    1.04712   1.04206    0.416
 5657.00    1.04606   1.04194    0.416
 5658.00    1.04418   1.04132    0.411
 5659.00    1.04358   1.04005    0.407
 5660.00    1.05053   1.03798    0.413
 5661.00    1.05671   1.03519    0.418
 5662.00    1.05925   1.03209    0.414
 5663.00    1.06167   1.02916    0.412
 5664.00    1.06363   1.02684    0.412
 5665.00    1.06399   1.02548    0.410
 5666.00    1.05931   1.02523    0.402
 5667.00    1.05904   1.02599    0.397
 5668.00    1.07065   1.02743    0.399
 5669.00    1.07599   1.02917    0.400
 5670.00    1.06686   1.03088    0.400
 5671.00    1.05748   1.03234    0.399
 5672.00    1.04758   1.03350    0.396
 5673.00    1.04411   1.03446    0.394
 5674.00    1.05179   1.03549    0.394
 5675.00    1.06015   1.03682    0.396
 5676.00    1.06957   1.03856    0.398
 5677.00    1.07612   1.04057    0.401
 5678.00    1.07885   1.04258    0.405
 5679.00    1.07934   1.04430    0.403
 5680.00    1.07717   1.04548    0.396
 5681.00    1.07177   1.04598    0.392
 5682.00    1.06299   1.04582    0.389
 5683.00    1.05863   1.04507    0.388
 5684.00    1.05832   1.04379    0.389
 5685.00    1.06503   1.04206    0.390
 5686.00    1.07741   1.04004    0.391
 5687.00    1.07016   1.03795    0.389
 5688.00    1.04897   1.03600    0.386
 5689.00    1.03664   1.03435    0.388
 5690.00    1.02982   1.03310    0.393
 5691.00    1.04103   1.03233    0.394
 5692.00    1.06206   1.03207    0.392
 5693.00    1.06538   1.03241    0.393
 5694.00    1.06031   1.03339    0.396
 5695.00    1.06015   1.03500    0.399
 5696.00    1.06200   1.03708    0.402
 5697.00    1.05986   1.03933    0.404
 5698.00    1.05633   1.04140    0.405
 5699.00    1.06074   1.04298    0.404
 5700.00    1.06748   1.04384    0.402
 5701.00    1.07044   1.04385    0.401
 5702.00    1.07247   1.04305    0.400
 5703.00    1.05974   1.04150    0.398
 5704.00    1.04410   1.03942    0.394
 5705.00    1.03730   1.03712    0.392
 5706.00    1.03186   1.03493    0.391
 5707.00    1.04584   1.03307    0.390
 5708.00    1.06202   1.03158    0.389
 5709.00    1.05951   1.03032    0.391
 5710.00    1.05560   1.02898    0.394
 5711.00    1.05849   1.02731    0.390
 5712.00    1.06166   1.02524    0.386
 5713.00    1.05909   1.02299    0.385
 5714.00    1.05677   1.02097    0.383
 5715.00    1.06671   1.01973    0.381
 5716.00    1.07617   1.01967    0.379
 5717.00    1.07737   1.02094    0.384
 5718.00    1.07846   1.02341    0.388
 5719.00    1.07849   1.02672    0.384
 5720.00    1.07766   1.03034    0.381
 5721.00    1.07044   1.03384    0.379
 5722.00    1.06578   1.03690    0.378
 5723.00    1.07571   1.03942    0.378
 5724.00    1.08253   1.04144    0.379
 5725.00    1.07519   1.04308    0.380
 5726.00    1.06788   1.04443    0.381
 5727.00    1.06063   1.04552    0.383
 5728.00    1.05605   1.04628    0.385
 5729.00    1.05973   1.04661    0.384
 5730.00    1.06257   1.04648    0.384
 5731.00    1.06322   1.04595    0.388
 5732.00    1.06362   1.04513    0.389
 5733.00    1.06349   1.04415    0.384
 5734.00    1.06351   1.04319    0.382
 5735.00    1.06381   1.04240    0.384
 5736.00    1.07008   1.04185    0.387
 5737.00    1.08658   1.04164    0.392
 5738.00    1.09453   1.04178    0.395
 5739.00    1.08964   1.04223    0.392
 5740.00    1.08050   1.04280    0.000
 5741.00    1.06576   1.04327    0.000
 5742.00    1.06064   1.04345    0.000
 5743.00    1.06669   1.04328    0.000
 5744.00    1.07381   1.04280    0.000
 5745.00    1.08204   1.04217    0.000
 5746.00    1.08358   1.04160    0.000
 5747.00    1.07908   1.04126    0.000
 5748.00    1.07482   1.04118    0.000
 5749.00    1.07076   1.04126    0.000
 5750.00    1.07054   1.04132    0.000
 5751.00    1.07301   1.04123    0.000
 5752.00    1.07355   1.04091    0.000
 5753.00    1.07291   1.04034    0.000
 5754.00    1.07371   1.03953    0.000
 5755.00    1.07528   1.03850    0.000
 5756.00    1.07424   1.03727    0.000
 5757.00    1.07197   1.03591    0.000
 5758.00    1.06319   1.03465    0.000
 5759.00    1.05180   1.03377    0.000
 5760.00    1.05274   1.03359    0.000
 5761.00    1.05790   1.03417    0.000
 5762.00    1.06481   1.03529    0.000
 5763.00    1.07222   1.03642    0.000
 5764.00    1.06953   1.03704    0.000
 5765.00    1.06445   1.03687    0.000
 5766.00    1.07230   1.03607    0.000
 5767.00    1.08264   1.03513    0.000
 5768.00    1.07575   1.03463    0.000
 5769.00    1.06630   1.03501    0.000
 5770.00    1.07189   1.03634    0.000
 5771.00    1.07911   1.03831    0.000
 5772.00    1.07747   1.04040    0.000
 5773.00    1.07519   1.04211    0.000
 5774.00    1.07213   1.04308    0.000
 5775.00    1.06904   1.04325    0.000
 5776.00    1.07771   1.04275    0.000
 5777.00    1.08598   1.04183    0.000
 5778.00    1.07830   1.04081    0.000
 5779.00    1.07100   1.03990    0.000
 5780.00    1.06975   1.03918    0.000
 5781.00    1.06823   1.03854    0.000
 5782.00    1.06405   1.03771    0.000
 5783.00    1.05975   1.03632    0.000
 5784.00    1.05465   1.03417    0.000
 5785.00    1.05108   1.03127    0.000
 5786.00    1.05603   1.02786    0.000
 5787.00    1.06051   1.02443    0.000
 5788.00    1.06283   1.02156    0.000
 5789.00    1.06385   1.01974    0.000
 5790.00    1.06006   1.01920    0.000
 5791.00    1.05519   1.01992   -2.000
 5792.00    1.04698   1.02163   -2.000
 5793.00    1.03724   1.02389   -2.000
 5794.00    1.02354   1.02628   -2.000
 5795.00    1.01682   1.02847   -2.000
 5796.00    1.02571   1.03028   -2.000
 5797.00    1.03328   1.03174   -2.000
 5798.00    1.03829   1.03291   -2.000
 5799.00    1.04007   1.03374   -2.000
 5800.00    1.03639   1.03414   -2.000
 5801.00    1.03558   1.03391   -2.000
 5802.00    1.03902   1.03273   -2.000
 5803.00    1.04657   1.03051   -2.000
 5804.00    1.05946   1.02753   -2.000
 5805.00    1.07043   1.02436   -2.000
 5806.00    1.07919   1.02164   -2.000
 5807.00    1.08215   1.02001   -2.000
 5808.00    1.07924   1.01984   -2.000
 5809.00    1.07875   1.02108   -2.000
 5810.00    1.08041   1.02329   -2.000
 5811.00    1.08155   1.02583    0.000
 5812.00    1.08228   1.02799    0.000
 5813.00    1.07453   1.02915    0.000
 5814.00    1.06093   1.02910    0.000
 5815.00    1.06312   1.02797    0.000
 5816.00    1.07486   1.02625    0.000
 5817.00    1.08253   1.02450    0.000
 5818.00    1.08805   1.02335    0.000
 5819.00    1.08923   1.02328    0.000
 5820.00    1.08843   1.02442    0.000
 5821.00    1.08313   1.02658    0.000
 5822.00    1.07604   1.02940    0.000
 5823.00    1.07007   1.03249    0.000
 5824.00    1.06448   1.03547    0.000
 5825.00    1.06528   1.03811    0.000
 5826.00    1.06787   1.04030    0.000
 5827.00    1.07014   1.04209    0.000
 5828.00    1.07233   1.04357    0.000
 5829.00    1.07473   1.04488    0.000
 5830.00    1.07717   1.04604    0.000
 5831.00    1.08323   1.04704    0.000
 5832.00    1.08981   1.04773    0.000
 5833.00    1.08886   1.04795    0.000
 5834.00    1.08712   1.04764    0.000
 5835.00    1.07358   1.04684    0.000
 5836.00    1.05924   1.04570    0.000
 5837.00    1.05860   1.04439    0.000
 5838.00    1.05841   1.04311    0.000
 5839.00    1.06368   1.04196    0.000
 5840.00    1.06904   1.04100    0.000
 5841.00    1.07728   1.04029    0.000
 5842.00    1.08504   1.03989    0.000
 5843.00    1.08538   1.03982    0.000
 5844.00    1.08577   1.04007    0.000
 5845.00    1.08662   1.04059    0.000
 5846.00    1.08564   1.04123    0.000
 5847.00    1.07184   1.04180    0.000
 5848.00    1.05894   1.04207    0.000
 5849.00    1.05084   1.04186    0.000
 5850.00    1.04504   1.04114    0.000
 5851.00    1.04922   1.03997    0.000
 5852.00    1.05403   1.03855    0.000
 5853.00    1.06104   1.03705    0.000
 5854.00    1.06289   1.03555    0.000
 5855.00    1.04927   1.03406    0.000
 5856.00    1.04108   1.03252    0.000
 5857.00    1.04671   1.03087    0.000
 5858.00    1.04834   1.02906    0.000
 5859.00    1.04120   1.02711    0.000
 5860.00    1.03914   1.02515    0.000
 5861.00    1.04675   1.02339    0.000
 5862.00    1.05569   1.02201    0.000
 5863.00    1.06684   1.02120    0.000
 5864.00    1.07363   1.02106    0.000
 5865.00    1.07408   1.02161    0.000
 5866.00    1.07475   1.02278    0.000
 5867.00    1.07568   1.02433    0.000
 5868.00    1.07585   1.02598    0.000
 5869.00    1.07517   1.02747    0.000
 5870.00    1.07235   1.02872    0.000
 5871.00    1.06740   1.02968    0.000
 5872.00    1.06489   1.03040    0.000
 5873.00    1.06452   1.03089    0.000
 5874.00    1.06519   1.03095    0.000
 5875.00    1.06666   1.03009    0.000
 5876.00    1.06337   1.02730    0.000
 5877.00    1.05686   1.02171    0.000
 5878.00    1.06162   1.01313    0.000
 5879.00    1.07310   1.00242    0.000
 5880.00    1.07178   0.99142    0.000
 5881.00    1.06381   0.98238    0.000
 5882.00    1.05859   0.97747    0.000
 5883.00    1.05460   0.97781    0.000
 5884.00    1.05513   0.98302    0.000
 5885.00    1.05741   0.99143    0.000
 5886.00    1.05659   1.00075    0.000
 5887.00    1.05473   1.00904    0.000
 5888.00    1.04719   1.01505    0.000
 5889.00    1.03808   1.01818    0.000
 5890.00    1.02844   1.01832    0.000
 5891.00    1.01868   1.01544    0.000
 5892.00    1.02187   1.00990    0.000
 5893.00    1.02742   1.00228    0.000
 5894.00    1.02950   0.99352    0.000
 5895.00    1.03108   0.98496    0.000
 5896.00    1.03354   0.97795    0.000
 5897.00    1.03609   0.97329    0.000
 5898.00    1.04417   0.97114    0.000
 5899.00    1.05260   0.97111    0.000
 5900.00    1.04931   0.97253    0.000
 5901.00    1.04568   0.97490    0.356
 5902.00    1.04384   0.97817    0.352
 5903.00    1.04207   0.98252    0.349
 5904.00    1.04230   0.98808    0.352
 5905.00    1.04284   0.99468    0.354
 5906.00    1.04778   1.00176    0.354
 5907.00    1.05147   1.00848    0.353
 5908.00    1.04345   1.01415    0.352
 5909.00    1.03643   1.01836    0.352
 5910.00    1.03623   1.02113    0.357
 5911.00    1.03698   1.02283    0.361
 5912.00    1.04271   1.02392    0.358
 5913.00    1.04825   1.02472    0.356
 5914.00    1.05300   1.02533    0.358
 5915.00    1.05326   1.02573    0.358
 5916.00    1.03778   1.02577    0.358
 5917.00    1.02755   1.02533    0.357
 5918.00    1.03279   1.02444    0.358
 5919.00    1.03776   1.02323    0.359
 5920.00    1.04204   1.02199    0.356
 5921.00    1.04366   1.02108    0.355
 5922.00    1.03955   1.02077    0.353
 5923.00    1.03650   1.02113    0.352
 5924.00    1.03545   1.02204    0.350
 5925.00    1.03662   1.02328    0.349
 5926.00    1.04142   1.02456    0.349
 5927.00    1.04515   1.02566    0.349
 5928.00    1.04734   1.02647    0.349
 5929.00    1.04537   1.02695    0.349
 5930.00    1.03814   1.02710    0.350
 5931.00    1.03834   1.02692    0.349
 5932.00    1.04681   1.02638    0.347
 5933.00    1.05185   1.02556    0.347
 5934.00    1.05353   1.02457    0.348
 5935.00    1.05286   1.02357    0.347
 5936.00    1.05018   1.02272    0.345
 5937.00    1.04823   1.02218    0.346
 5938.00    1.04685   1.02201    0.349
 5939.00    1.04599   1.02219    0.350
 5940.00    1.04549   1.02265    0.349
 5941.00    1.04583   1.02329    0.348
 5942.00    1.04666   1.02397    0.347
 5943.00    1.05089   1.02455    0.349
 5944.00    1.05685   1.02491    0.352
 5945.00    1.06279   1.02501    0.353
 5946.00    1.06873   1.02490    0.353
 5947.00    1.07029   1.02466    0.354
 5948.00    1.07020   1.02438    0.356
 5949.00    1.06538   1.02420    0.358
 5950.00    1.05904   1.02413    0.361
 5951.00    1.05323   1.02408    0.361
 5952.00    1.04756   1.02394    0.360
 5953.00    1.05251   1.02359    0.357
 5954.00    1.05981   1.02296    0.354
 5955.00    1.05886   1.02213    0.353
 5956.00    1.05647   1.02131    0.352
 5957.00    1.05342   1.02063    0.350
 5958.00    1.05029   1.02015    0.349
 5959.00    1.04356   1.01988    0.348
 5960.00    1.03649   1.01978    0.347
 5961.00    1.03846   1.01982    0.344
 5962.00    1.04097   1.02000    0.342
 5963.00    1.04734   1.02041    0.341
 5964.00    1.05378   1.02117    0.340
 5965.00    1.05707   1.02226    0.340
 5966.00    1.06010   1.02352    0.341
 5967.00    1.05643   1.02481    0.342
 5968.00    1.05334   1.02600    0.344
 5969.00    1.05800   1.02691    0.343
 5970.00    1.06234   1.02746    0.342
 5971.00    1.06378   1.02771    0.342
 5972.00    1.06477   1.02785    0.342
 5973.00    1.06290   1.02805    0.344
 5974.00    1.06055   1.02839    0.344
 5975.00    1.05577   1.02882    0.343
 5976.00    1.05180   1.02918    0.343
 5977.00    1.05120   1.02925    0.344
 5978.00    1.05026   1.02880    0.345
 5979.00    1.04811   1.02772    0.349
 5980.00    1.04634   1.02607    0.351
 5981.00    1.04567   1.02409    0.350
 5982.00    1.04528   1.02210    0.349
 5983.00    1.04563   1.02042    0.352
 5984.00    1.04638   1.01923    0.353
 5985.00    1.04801   1.01852    0.351
 5986.00    1.04953   1.01811    0.349
 5987.00    1.05083   1.01779    0.347
 5988.00    1.05318   1.01734    0.345
 5989.00    1.05724   1.01668    0.345
 5990.00    1.05785   1.01596    0.344
 5991.00    1.05360   1.01542    0.344
 5992.00    1.04987   1.01528    0.342
 5993.00    1.04679   1.01565    0.339
 5994.00    1.04596   1.01651    0.336
 5995.00    1.04762   1.01771    0.336
 5996.00    1.05216   1.01895    0.335
 5997.00    1.05949   1.02000    0.335
 5998.00    1.05787   1.02080    0.335
 5999.00    1.04859   1.02134    0.336
 6000.00    1.04094   1.02154    0.336
 6001.00    1.03451   1.02140    0.336
 6002.00    1.03161   1.02097    0.334
 6003.00    1.03105   1.02032    0.332
 6004.00    1.02787   1.01948    0.332
 6005.00    1.02317   1.01861    0.333
 6006.00    1.02044   1.01787    0.335
 6007.00    1.01870   1.01730    0.338
 6008.00    1.02216   1.01680    0.339
 6009.00    1.02788   1.01620    0.339
 6010.00    1.03816   1.01538    0.345
 6011.00    1.05014   1.01439    0.353
 6012.00    1.04725   1.01341    0.354
 6013.00    1.03963   1.01265    0.352
 6014.00    1.03325   1.01226    0.353
 6015.00    1.02720   1.01216    0.356
 6016.00    1.03076   1.01232    0.355
 6017.00    1.03640   1.01265    0.352
 6018.00    1.04115   1.01298    0.353
 6019.00    1.04575   1.01319    0.354
 6020.00    1.04272   1.01307    0.350
 6021.00    1.03870   1.01256    0.345
 6022.00    1.03277   1.01187    0.344
 6023.00    1.02668   1.01122    0.342
 6024.00    1.02309   1.01068    0.340
 6025.00    1.01964   1.01018    0.338
 6026.00    1.02872   1.00975    0.339
 6027.00    1.03808   1.00960    0.340
 6028.00    1.04962   1.00981    0.338
 6029.00    1.06059   1.01039    0.336
 6030.00    1.05823   1.01138    0.336
 6031.00    1.05573   1.01277    0.336
 6032.00    1.05144   1.01435    0.333
 6033.00    1.04693   1.01594    0.332
 6034.00    1.04048   1.01749    0.332
 6035.00    1.03472   1.01895    0.333
 6036.00    1.03339   1.02021    0.334
 6037.00    1.03112   1.02128    0.334
 6038.00    1.02416   1.02218    0.332
 6039.00    1.01800   1.02285    0.331
 6040.00    1.01510   1.02325    0.334
 6041.00    1.01350   1.02343    0.337
 6042.00    1.01625   1.02340    0.339
 6043.00    1.01941   1.02315    0.342
 6044.00    1.02372   1.02274    0.343
 6045.00    1.02733   1.02231    0.344
 6046.00    1.02921   1.02194    0.345
 6047.00    1.03133   1.02168    0.346
 6048.00    1.03397   1.02163    0.347
 6049.00    1.03971   1.02183    0.347
 6050.00    1.05109   1.02229    0.344
 6051.00    1.05762   1.02293    0.341
 6052.00    1.05644   1.02363    0.339
 6053.00    1.05152   1.02422    0.337
 6054.00    1.04138   1.02454    0.337
 6055.00    1.03922   1.02452    0.336
 6056.00    1.04686   1.02417    0.335
 6057.00    1.05172   1.02345    0.335
 6058.00    1.05357   1.02240    0.334
 6059.00    1.05096   1.02115    0.334
 6060.00    1.04410   1.01986    0.333
 6061.00    1.03884   1.01871    0.334
 6062.00    1.03491   1.01791    0.334
 6063.00    1.03308   1.01758    0.336
 6064.00    1.03281   1.01765    0.337
 6065.00    1.03443   1.01787    0.336
 6066.00    1.03728   1.01801    0.333
 6067.00    1.03963   1.01781    0.334
 6068.00    1.04169   1.01718    0.337
 6069.00    1.04293   1.01623    0.338
 6070.00    1.04377   1.01526    0.338
 6071.00    1.03812   1.01463    0.340
 6072.00    1.02970   1.01466    0.343
 6073.00    1.02895   1.01546    0.343
 6074.00    1.03101   1.01695    0.342
 6075.00    1.03673   1.01892    0.343
 6076.00    1.04360   1.02091    0.344
 6077.00    1.04266   1.02239    0.344
 6078.00    1.03968   1.02312    0.344
 6079.00    1.03730   1.02317    0.341
 6080.00    1.03504   1.02266    0.338
 6081.00    1.03825   1.02166    0.337
 6082.00    1.04237   1.02024    0.336
 6083.00    1.04394   1.01852    0.337
 6084.00    1.04518   1.01666    0.338
 6085.00    1.04273   1.01486    0.335
 6086.00    1.03996   1.01325    0.331
 6087.00    1.03527   1.01194    0.332
 6088.00    1.03048   1.01108    0.333
 6089.00    1.02796   1.01065    0.329
 6090.00    1.02562   1.01040    0.325
 6091.00    1.03363   1.01028    0.327
 6092.00    1.04136   1.01036    0.330
 6093.00    1.04324   1.01052    0.331
 6094.00    1.04465   1.01057    0.331
 6095.00    1.04031   1.01051    0.335
 6096.00    1.03596   1.01044    0.337
 6097.00    1.03154   1.01041    0.338
 6098.00    1.02869   1.01046    0.338
 6099.00    1.03559   1.01075    0.339
 6100.00    1.04274   1.01143    0.340
 6101.00    1.05112   1.01234    0.344
 6102.00    1.05711   1.01315    0.347
 6103.00    1.05364   1.01357    0.346
 6104.00    1.05032   1.01327    0.345
 6105.00    1.04750   1.01211    0.345
 6106.00    1.04590   1.01027    0.344
 6107.00    1.04768   1.00816    0.342
 6108.00    1.04941   1.00611    0.341
 6109.00    1.05104   1.00444    0.341
 6110.00    1.05040   1.00351    0.341
 6111.00    1.04512   1.00366    0.340
 6112.00    1.04039   1.00507    0.337
 6113.00    1.03664   1.00731    0.332
 6114.00    1.03405   1.00934    0.329
 6115.00    1.03326   1.01070    0.329
 6116.00    1.03340   1.01154    0.329
 6117.00    1.03482   1.01206    0.330
 6118.00    1.03641   1.01233    0.331
 6119.00    1.03820   1.01224    0.331
 6120.00    1.03771   1.01181    0.332
 6121.00    1.03478   1.01123    0.333
 6122.00    1.03204   1.01041    0.332
 6123.00    1.02947   1.00910    0.330
 6124.00    1.02798   1.00725    0.329
 6125.00    1.02737   1.00516    0.330
 6126.00    1.02742   1.00319    0.330
 6127.00    1.02794   1.00151    0.330
 6128.00    1.03039   1.00022    0.331
 6129.00    1.03407   0.99959    0.332
 6130.00    1.03119   0.99979    0.332
 6131.00    1.02463   1.00084    0.331
 6132.00    1.02009   1.00249    0.333
 6133.00    1.01653   1.00410    0.337
 6134.00    1.01313   1.00524    0.339
 6135.00    1.00980   1.00603    0.341
 6136.00    1.01330   1.00658    0.342
 6137.00    1.01927   1.00669    0.343
 6138.00    1.02410   1.00611    0.343
 6139.00    1.02859   1.00457    0.344
 6140.00    1.02939   1.00202    0.343
 6141.00    1.02924   0.99875    0.343
 6142.00    1.03209   0.99524    0.342
 6143.00    1.03556   0.99210    0.342
 6144.00    1.03445   0.99003    0.338
 6145.00    1.03259   0.98964    0.333
 6146.00    1.03364   0.99122    0.329
 6147.00    1.03505   0.99425    0.325
 6148.00    1.02794   0.99750    0.325
 6149.00    1.02013   1.00011    0.326
 6150.00    1.01451   1.00216    0.324
 6151.00    1.00901   1.00396    0.322
 6152.00    1.01070   1.00526    0.323
 6153.00    1.01247   1.00568    0.325
 6154.00    1.01210   1.00536    0.327
 6155.00    1.01190   1.00467    0.329
 6156.00    1.01518   1.00395    0.336
 6157.00    1.01819   1.00344    0.343
 6158.00    1.01813   1.00321    0.345
 6159.00    1.01874   1.00313    0.346
 6160.00    1.02465   1.00295    0.346
 6161.00    1.02956   1.00239    0.346
 6162.00    1.02844   1.00117    0.348
 6163.00    1.02627   0.99923    0.349
 6164.00    1.01909   0.99671    0.346
 6165.00    1.01430   0.99362    0.344
 6166.00    1.01873   0.99007    0.345
 6167.00    1.02428   0.98638    0.345
 6168.00    1.03345   0.98298    0.344
 6169.00    1.03909   0.98033    0.344
 6170.00    1.03509   0.97902    0.343
 6171.00    1.03102   0.97934    0.341
 6172.00    1.02677   0.98072    0.337
 6173.00    1.02411   0.98219    0.335
 6174.00    1.02468   0.98316    0.337
 6175.00    1.02067   0.98373    0.337
 6176.00    1.00858   0.98413    0.333
 6177.00    0.99728   0.98460    0.329
 6178.00    0.98721   0.98579    0.324
 6179.00    0.97848   0.98803    0.322
 6180.00    0.97157   0.99065    0.324
 6181.00    0.97100   0.99290    0.324
 6182.00    0.97797   0.99479    0.323
 6183.00    0.98536   0.99651    0.325
 6184.00    0.99319   0.99799    0.329
 6185.00    0.99726   0.99931    0.331
 6186.00    0.99785   1.00061    0.331
 6187.00    0.99878   1.00167    0.334
 6188.00    0.99999   1.00232    0.340
 6189.00    0.99678   1.00263    0.341
 6190.00    0.99040   1.00253    0.338
 6191.00    0.98730   1.00177    0.338
 6192.00    0.98627   1.00031    0.340
 6193.00    0.98956   0.99829    0.344
 6194.00    0.99523   0.99595    0.351
 6195.00    0.98061   0.99367    0.363
 6196.00    0.95625   0.99187   -2.000
 6197.00    0.92000   0.99079   -2.000
 6198.00    0.87883   0.99047   -2.000
 6199.00    0.87461   0.99094   -2.000
 6200.00    0.88349   0.99253   -2.000
 6201.00    0.94239   0.99495   -2.000
 6202.00    1.01625   0.99711   -2.000
 6203.00    1.07542   0.99846   -2.000
 6204.00    1.13095   0.99916   -2.000
 6205.00    1.13108   0.99938   -2.000
 6206.00    1.12005   0.99921   -2.000
 6207.00    1.08494   0.99901   -2.000
 6208.00    1.04603   0.99933    0.340
 6209.00    1.03229   1.00041    0.339
 6210.00    1.02150   1.00179    0.338
 6211.00    1.02007   1.00287    0.331
 6212.00    1.01938   1.00352    0.325
 6213.00    1.01694   1.00375    0.329
 6214.00    1.01443   1.00348    0.335
 6215.00    1.00739   1.00252    0.338
 6216.00    1.00020   1.00085    0.340
 6217.00    0.98837   0.99853    0.341
 6218.00    0.97726   0.99574    0.342
 6219.00    0.97916   0.99275    0.340
 6220.00    0.98207   0.98979    0.338
 6221.00    0.99622   0.98712    0.340
 6222.00    1.00876   0.98518    0.341
 6223.00    1.00883   0.98426    0.341
 6224.00    1.00889   0.98420    0.340
 6225.00    1.00891   0.98463    0.337
 6226.00    1.00867   0.98515    0.336
 6227.00    1.00721   0.98562    0.341
 6228.00    1.00559   0.98636    0.346
 6229.00    1.00339   0.98746    0.347
 6230.00    1.00288   0.98853    0.346
 6231.00    1.00776   0.98902    0.336
 6232.00    1.01020   0.98871    0.330
 6233.00    1.00610   0.98771    0.330
 6234.00    1.00359   0.98608    0.329
 6235.00    1.00473   0.98393    0.324
 6236.00    1.00516   0.98161    0.321
 6237.00    1.00421   0.97950    0.322
 6238.00    1.00321   0.97815    0.324
 6239.00    1.00215   0.97818    0.329
 6240.00    1.00005   0.97950    0.332
 6241.00    0.99637   0.98134    0.333
 6242.00    0.99755   0.98309    0.334
 6243.00    1.00525   0.98413    0.335
 6244.00    1.01112   0.98406    0.337
 6245.00    1.01486   0.98307    0.342
 6246.00    1.01529   0.98163    0.343
 6247.00    1.01230   0.98011    0.340
 6248.00    1.01038   0.97881    0.339
 6249.00    1.00944   0.97792    0.341
 6250.00    1.00729   0.97728    0.342
 6251.00    1.00415   0.97698    0.342
 6252.00    0.99979   0.97739    0.342
 6253.00    0.99456   0.97835    0.340
 6254.00    0.99434   0.97948    0.340
 6255.00    0.99725   0.98067    0.341
 6256.00    1.00101   0.98147    0.339
 6257.00    1.00522   0.98132    0.337
 6258.00    1.00260   0.98014    0.340
 6259.00    0.99674   0.97812    0.345
 6260.00    0.98315   0.97580    0.362
 6261.00    0.96641   0.97390    0.388
 6262.00    0.97016   0.97272    0.398
 6263.00    0.98102   0.97219    0.403
 6264.00    1.00712   0.97236    0.391
 6265.00    1.03768   0.97333    0.376
 6266.00    1.05634   0.97518    0.360
 6267.00    1.07211   0.97780    0.345
 6268.00    1.06262   0.98071    0.337
 6269.00    1.04818   0.98333    0.330
 6270.00    1.03410   0.98548    0.330
 6271.00    1.02008   0.98693    0.330
 6272.00    1.02519   0.98758    0.334
 6273.00    1.03246   0.98787    0.338
 6274.00    1.02693   0.98826    0.339
 6275.00    1.02044   0.98866    0.340
 6276.00    1.02000   0.98890    0.340
 6277.00    1.01980   0.98916    0.340
 6278.00    1.01465   0.98962    0.337
 6279.00    1.00964   0.99025    0.333
 6280.00    1.01169   0.99084    0.000
 6281.00    1.01352   0.99108    0.000
 6282.00    1.01151   0.99091    0.000
 6283.00    1.00938   0.99040    0.000
 6284.00    1.00610   0.98963    0.000
 6285.00    1.00387   0.98870    0.000
 6286.00    1.00943   0.98776    0.000
 6287.00    1.01463   0.98704    0.000
 6288.00    1.01780   0.98686    0.000
 6289.00    1.01974   0.98742    0.000
 6290.00    1.01607   0.98854    0.000
 6291.00    1.01235   0.98989    0.000
 6292.00    1.00847   0.99115    0.000
 6293.00    1.00279   0.99217    0.000
 6294.00    0.99152   0.99301    0.000
 6295.00    0.98392   0.99355    0.000
 6296.00    0.98598   0.99359    0.000
 6297.00    0.98859   0.99299    0.000
 6298.00    0.99244   0.99189    0.000
 6299.00    0.99571   0.99062    0.000
 6300.00    0.99782   0.98934    0.000
 6301.00    0.99998   0.98804    0.000
 6302.00    1.00220   0.98660    0.000
 6303.00    1.00424   0.98489    0.000
 6304.00    1.00603   0.98310    0.000
 6305.00    1.00633   0.98164    0.000
 6306.00    1.00467   0.98062    0.000
 6307.00    1.00397   0.97990    0.000
 6308.00    1.00438   0.97940    0.000
 6309.00    1.00563   0.97941    0.000
 6310.00    1.00776   0.98020    0.000
 6311.00    1.00911   0.98148    0.000
 6312.00    1.00976   0.98268    0.000
 6313.00    1.00656   0.98356    0.000
 6314.00    1.00029   0.98419    0.000
 6315.00    0.99947   0.98431    0.000
 6316.00    1.00245   0.98365    0.000
 6317.00    1.00982   0.98232    0.000
 6318.00    1.01988   0.98067    0.000
 6319.00    1.02192   0.97902    0.000
 6320.00    1.01967   0.97752    0.000
 6321.00    1.01812   0.97603    0.318
 6322.00    1.01688   0.97466    0.322
 6323.00    1.01620   0.97386    0.325
 6324.00    1.01574   0.97371    0.329
 6325.00    1.01493   0.97401    0.331
 6326.00    1.01401   0.97512    0.333
 6327.00    1.00872   0.97719    0.334
 6328.00    1.00217   0.97966    0.334
 6329.00    0.99763   0.98207    0.330
 6330.00    0.99356   0.98440    0.326
 6331.00    0.99370   0.98663    0.325
 6332.00    0.99465   0.98842    0.324
 6333.00    0.99174   0.98960    0.326
 6334.00    0.98827   0.99023    0.327
 6335.00    0.98364   0.99050    0.326
 6336.00    0.97888   0.99042    0.324
 6337.00    0.98266   0.98977    0.324
 6338.00    0.98706   0.98869    0.324
 6339.00    0.99490   0.98741    0.324
 6340.00    1.00286   0.98585    0.324
 6341.00    1.00367   0.98388    0.323
 6342.00    1.00450   0.98171    0.322
 6343.00    1.00705   0.98006    0.323
 6344.00    1.00922   0.97947    0.324
 6345.00    1.00527   0.97963    0.325
 6346.00    1.00139   0.97999    0.326
 6347.00    0.99818   0.98038    0.327
 6348.00    0.99604   0.98060    0.327
 6349.00    1.00153   0.98031    0.327
 6350.00    1.00695   0.97960    0.327
 6351.00    1.01203   0.97893    0.330
 6352.00    1.01580   0.97874    0.332
 6353.00    1.01379   0.97900    0.329
 6354.00    1.01133   0.97974    0.328
 6355.00    1.00722   0.98104    0.333
 6356.00    1.00179   0.98260    0.337
 6357.00    0.99239   0.98384    0.337
 6358.00    0.98674   0.98451    0.337
 6359.00    0.99084   0.98453    0.337
 6360.00    0.99583   0.98374    0.338
 6361.00    1.00280   0.98219    0.342
 6362.00    1.00617   0.98024    0.343
 6363.00    1.00259   0.97827    0.337
 6364.00    1.00006   0.97616    0.333
 6365.00    0.99930   0.97378    0.332
 6366.00    0.99992   0.97161    0.331
 6367.00    1.00259   0.97010    0.327
 6368.00    1.00229   0.96922    0.324
 6369.00    0.99814   0.96900    0.322
 6370.00    0.99771   0.96971    0.321
 6371.00    1.00153   0.97127    0.321
 6372.00    1.00414   0.97331    0.322
 6373.00    1.00554   0.97549    0.324
 6374.00    1.00294   0.97761    0.323
 6375.00    0.99678   0.97951    0.318
 6376.00    0.99315   0.98097    0.319
 6377.00    0.99150   0.98203    0.324
 6378.00    0.99179   0.98316    0.328
 6379.00    0.99342   0.98457    0.331
 6380.00    0.99611   0.98597    0.330
 6381.00    0.99944   0.98692    0.327
 6382.00    1.00424   0.98733    0.329
 6383.00    1.00981   0.98742    0.335
 6384.00    1.00767   0.98713    0.335
 6385.00    1.00199   0.98641    0.333
 6386.00    0.99828   0.98557    0.331
 6387.00    0.99534   0.98490    0.329
 6388.00    0.99397   0.98456    0.328
 6389.00    0.99311   0.98463    0.327
 6390.00    0.98845   0.98495    0.326
 6391.00    0.98272   0.98534    0.325
 6392.00    0.97306   0.98595    0.325
 6393.00    0.96249   0.98666    0.326
 6394.00    0.95859   0.98700    0.325
 6395.00    0.95594   0.98677    0.325
 6396.00    0.96880   0.98607    0.328
 6397.00    0.98390   0.98497    0.331
 6398.00    0.99602   0.98347    0.334
 6399.00    1.00785   0.98164    0.337
 6400.00    1.00974   0.97988    0.333
 6401.00    1.01097   0.97890    0.330
 6402.00    1.00895   0.97879    0.332
 6403.00    1.00683   0.97884    0.335
 6404.00    1.01082   0.97860    0.338
 6405.00    1.01486   0.97790    0.340
 6406.00    1.02052   0.97681    0.341
 6407.00    1.02524   0.97596    0.341
 6408.00    1.01571   0.97603    0.341
 6409.00    1.00603   0.97652    0.341
 6410.00    0.99484   0.97669    0.342
 6411.00    0.98487   0.97648    0.341
 6412.00    0.98337   0.97593    0.334
 6413.00    0.98328   0.97511    0.327
 6414.00    0.99072   0.97426    0.324
 6415.00    0.99692   0.97377    0.322
 6416.00    0.99772   0.97391    0.324
 6417.00    0.99741   0.97428    0.327
 6418.00    0.99318   0.97462    0.327
 6419.00    0.99108   0.97535    0.327
 6420.00    0.99536   0.97643    0.324
 6421.00    0.99898   0.97729    0.322
 6422.00    1.00087   0.97774    0.322
 6423.00    1.00242   0.97789    0.323
 6424.00    1.00319   0.97785    0.325
 6425.00    1.00289   0.97765    0.328
 6426.00    1.00053   0.97733    0.331
 6427.00    0.99989   0.97724    0.335
 6428.00    1.00209   0.97802    0.341
 6429.00    1.00721   0.97984    0.344
 6430.00    1.01658   0.98206    0.342
 6431.00    1.01907   0.98387    0.341
 6432.00    1.01277   0.98509    0.340
 6433.00    1.00845   0.98584    0.340
 6434.00    1.00637   0.98593    0.342
 6435.00    1.00271   0.98511    0.343
 6436.00    0.99750   0.98341    0.343
 6437.00    0.98930   0.98138    0.340
 6438.00    0.97849   0.97992    0.335
 6439.00    0.97280   0.97942    0.333
 6440.00    0.97109   0.97953    0.334
 6441.00    0.97502   0.97986    0.333
 6442.00    0.98278   0.98022    0.332
 6443.00    0.98743   0.98039    0.330
 6444.00    0.99023   0.98022    0.328
 6445.00    0.98710   0.97986    0.326
 6446.00    0.98088   0.98008    0.324
 6447.00    0.97416   0.98134    0.325
 6448.00    0.96722   0.98312    0.327
 6449.00    0.95348   0.98470    0.329
 6450.00    0.93712   0.98579    0.330
 6451.00    0.91775   0.98627    0.326
 6452.00    0.89740   0.98606    0.319
 6453.00    0.87492   0.98493    0.319
 6454.00    0.85185   0.98271    0.319
 6455.00    0.82642   0.97953    0.316
 6456.00    0.80046   0.97610    0.313
 6457.00    0.77479   0.97369    0.311
 6458.00    0.74917   0.97283    0.309
 6459.00    0.75440   0.97295    0.310
 6460.00    0.76392   0.97343    0.311
 6461.00    0.79958   0.97399    0.315
 6462.00    0.83786   0.97468    0.319
 6463.00    0.86317   0.97583    0.321
 6464.00    0.88765   0.97729    0.324
 6465.00    0.90639   0.97859    0.321
 6466.00    0.92495   0.97925    0.318
 6467.00    0.93826   0.97900    0.321
 6468.00    0.95127   0.97791    0.323
 6469.00    0.95578   0.97669    0.322
 6470.00    0.95977   0.97631    0.321
 6471.00    0.95630   0.97678    0.322
 6472.00    0.95387   0.97746    0.324
 6473.00    0.96108   0.97820    0.325
 6474.00    0.96884   0.97902    0.326
 6475.00    0.98021   0.97978    0.328
 6476.00    0.99059   0.98027    0.329
 6477.00    0.99571   0.98031    0.331
 6478.00    0.99919   0.98020    0.332
 6479.00    0.99580   0.98036    0.336
 6480.00    0.99162   0.98070    0.338
 6481.00    0.98469   0.98088    0.340
 6482.00    0.97730   0.98095    0.341
 6483.00    0.96858   0.98103    0.338
 6484.00    0.96297   0.98090    0.336
 6485.00    0.96515   0.98040    0.335
 6486.00    0.96659   0.97949    0.334
 6487.00    0.96643   0.97817    0.333
 6488.00    0.96698   0.97671    0.332
 6489.00    0.96883   0.97566    0.331
 6490.00    0.96975   0.97540    0.331
 6491.00    0.96915   0.97571    0.333
 6492.00    0.96903   0.97615    0.332
 6493.00    0.96960   0.97642    0.328
 6494.00    0.96926   0.97628    0.326
 6495.00    0.96776   0.97524    0.326
 6496.00    0.96910   0.97286    0.326
 6497.00    0.97359   0.96912    0.328
 6498.00    0.97804   0.96436    0.331
 6499.00    0.98243   0.95887    0.333
 6500.00    0.98461   0.95292    0.333
 6501.00    0.98487   0.94758    0.331
 6502.00    0.98408   0.94411    0.331
 6503.00    0.98250   0.94297    0.334
 6504.00    0.98043   0.94398    0.336
 6505.00    0.97802   0.94658    0.338
 6506.00    0.97847   0.95043    0.339
 6507.00    0.98059   0.95526    0.340
 6508.00    0.98176   0.96027    0.340
 6509.00    0.98246   0.96475    0.339
 6510.00    0.98670   0.96840    0.341
 6511.00    0.99251   0.97119    0.343
 6512.00    0.99305   0.97324    0.343
 6513.00    0.99159   0.97458    0.341
 6514.00    0.99507   0.97528    0.336
 6515.00    1.00013   0.97562    0.331
 6516.00    1.00241   0.97588    0.332
 6517.00    1.00394   0.97598    0.335
 6518.00    0.99618   0.97576    0.333
 6519.00    0.98637   0.97518    0.329
 6520.00    0.98621   0.97424    0.328
 6521.00    0.98776   0.97288    0.327
 6522.00    0.99205   0.97132    0.329
 6523.00    0.99671   0.96992    0.332
 6524.00    0.99737   0.96883    0.332
 6525.00    0.99765   0.96817    0.331
 6526.00    0.99889   0.96814    0.333
 6527.00    1.00019   0.96846    0.336
 6528.00    1.00314   0.96869    0.000
 6529.00    1.00605   0.96860    0.000
 6530.00    0.99576   0.96817    0.000
 6531.00    0.98606   0.96741    0.000
 6532.00    0.99123   0.96614    0.000
 6533.00    0.99606   0.96463    0.000
 6534.00    0.99633   0.96354    0.000
 6535.00    0.99562   0.96315    0.000
 6536.00    0.98627   0.96327    0.000
 6537.00    0.97766   0.96351    0.000
 6538.00    0.97386   0.96381    0.000
 6539.00    0.97158   0.96436    0.000
 6540.00    0.97706   0.96524    0.000
 6541.00    0.98255   0.96630    0.000
 6542.00    0.98801   0.96717    0.000
 6543.00    0.99322   0.96765    0.000
 6544.00    0.99751   0.96795    0.000
 6545.00    1.00111   0.96822    0.000
 6546.00    1.00269   0.96814    0.000
 6547.00    1.00123   0.96726    0.000
 6548.00    0.99230   0.96559    0.000
 6549.00    0.98389   0.96344    0.000
 6550.00    0.97658   0.96098    0.000
 6551.00    0.97104   0.95808    0.000
 6552.00    0.96874   0.95483    0.000
 6553.00    0.97024   0.95190    0.000
 6554.00    0.97784   0.94954    0.000
 6555.00    0.98263   0.94720    0.000
 6556.00    0.98344   0.94426    0.000
 6557.00    0.98338   0.94042    0.000
 6558.00    0.98225   0.93550    0.000
 6559.00    0.97797   0.92902    0.000
 6560.00    0.97024   0.92018    0.000
 6561.00    0.97000   0.90853    0.000
 6562.00    0.97700   0.89390    0.000
 6563.00    0.97920   0.87598    0.000
 6564.00    0.97731   0.85441    0.000
 6565.00    0.97751   0.83010    0.000
 6566.00    0.97928   0.80464    0.000
 6567.00    0.97892   0.77990    0.000
 6568.00    0.97714   0.75825    0.000
 6569.00    0.97712   0.74396    0.000
 6570.00    0.97810   0.74179    0.000
 6571.00    0.97736   0.75126    0.000
 6572.00    0.97575   0.76900    0.000
 6573.00    0.97944   0.79206    0.000
 6574.00    0.98543   0.81794    0.000
 6575.00    0.98360   0.84411    0.000
 6576.00    0.97885   0.86766    0.000
 6577.00    0.97560   0.88679    0.000
 6578.00    0.97284   0.90124    0.000
 6579.00    0.98171   0.91183    0.000
 6580.00    0.99367   0.91975    0.000
 6581.00    0.99829   0.92618    0.000
 6582.00    1.00132   0.93181    0.000
 6583.00    0.99991   0.93673    0.000
 6584.00    0.99774   0.94096    0.000
 6585.00    0.99390   0.94457    0.000
 6586.00    0.98984   0.94758    0.000
 6587.00    0.98705   0.94995    0.000
 6588.00    0.98437   0.95188    0.000
 6589.00    0.98101   0.95366    0.000
 6590.00    0.97760   0.95517    0.000
 6591.00    0.98355   0.95653    0.000
 6592.00    0.98959   0.95764    0.000
 6593.00    0.98506   0.95872    0.000
 6594.00    0.98054   0.95967    0.000
 6595.00    0.97635   0.96009    0.000
 6596.00    0.97280   0.95992    0.000
 6597.00    0.97730   0.95902    0.000
 6598.00    0.98215   0.95734    0.000
 6599.00    0.99004   0.95543    0.000
 6600.00    0.99533   0.95437    0.000
 6601.00    0.98405   0.95445    0.000
 6602.00    0.97508   0.95506    0.000
 6603.00    0.97757   0.95592    0.000
 6604.00    0.98056   0.95729    0.000
 6605.00    0.98552   0.95937    0.000
 6606.00    0.98712   0.96171    0.000
 6607.00    0.97742   0.96353    0.000
 6608.00    0.97229   0.96456    0.000
 6609.00    0.98010   0.96488    0.360
 6610.00    0.98498   0.96459    0.360
 6611.00    0.98277   0.96387    0.357
 6612.00    0.98048   0.96289    0.355
 6613.00    0.97805   0.96175    0.354
 6614.00    0.97583   0.96057    0.351
 6615.00    0.97398   0.95970    0.347
 6616.00    0.97148   0.95976    0.343
 6617.00    0.96794   0.96075    0.342
 6618.00    0.97160   0.96198    0.342
 6619.00    0.98530   0.96310    0.345
 6620.00    0.99566   0.96441    0.348
 6621.00    1.00194   0.96613    0.352
 6622.00    0.99936   0.96775    0.353
 6623.00    0.98722   0.96879    0.352
 6624.00    0.98024   0.96945    0.353
 6625.00    0.97818   0.97005    0.354
 6626.00    0.97769   0.97050    0.358
 6627.00    0.97851   0.97050    0.363
 6628.00    0.97963   0.97001    0.365
 6629.00    0.98098   0.96911    0.363
 6630.00    0.98102   0.96794    0.363
 6631.00    0.98020   0.96679    0.364
 6632.00    0.97906   0.96592    0.366
 6633.00    0.97772   0.96514    0.369
 6634.00    0.97319   0.96427    0.364
 6635.00    0.96709   0.96339    0.355
 6636.00    0.96927   0.96257    0.352
 6637.00    0.97501   0.96170    0.350
 6638.00    0.97682   0.96057    0.352
 6639.00    0.97719   0.95928    0.355
 6640.00    0.97180   0.95836    0.354
 6641.00    0.96462   0.95824    0.352
 6642.00    0.96610   0.95878    0.352
 6643.00    0.96981   0.95962    0.354
 6644.00    0.96959   0.96047    0.354
 6645.00    0.96855   0.96130    0.355
 6646.00    0.97167   0.96216    0.360
 6647.00    0.97549   0.96284    0.366
 6648.00    0.97347   0.96286    0.365
 6649.00    0.97073   0.96227    0.364
 6650.00    0.96502   0.96182    0.368
 6651.00    0.95905   0.96195    0.372
 6652.00    0.97011   0.96227    0.373
 6653.00    0.98204   0.96246    0.373
 6654.00    0.97488   0.96280    0.374
 6655.00    0.96739   0.96356    0.375
 6656.00    0.96047   0.96439    0.373
 6657.00    0.95455   0.96490    0.370
 6658.00    0.96961   0.96515    0.368
 6659.00    0.98280   0.96532    0.366
 6660.00    0.97345   0.96543    0.367
 6661.00    0.96470   0.96540    0.368
 6662.00    0.96090   0.96519    0.363
 6663.00    0.95824   0.96483    0.359
 6664.00    0.96254   0.96432    0.358
 6665.00    0.96339   0.96354    0.358
 6666.00    0.94746   0.96246    0.358
 6667.00    0.93628   0.96109    0.359
 6668.00    0.94382   0.95944    0.363
 6669.00    0.95144   0.95771    0.367
 6670.00    0.95930   0.95643    0.368
 6671.00    0.96593   0.95574    0.369
 6672.00    0.96909   0.95542    0.370
 6673.00    0.96627   0.95547    0.373
 6674.00    0.94922   0.95614    0.378
 6675.00    0.93900   0.95743    0.383
 6676.00    0.94281   0.95882    0.384
 6677.00    0.94780   0.95979    0.385
 6678.00    0.95491   0.96019    0.384
 6679.00    0.96033   0.95995    0.385
 6680.00    0.96313   0.95898    0.388
 6681.00    0.96576   0.95710    0.386
 6682.00    0.96818   0.95402    0.378
 6683.00    0.97233   0.94998    0.372
 6684.00    0.97858   0.94613    0.370
 6685.00    0.97683   0.94352    0.370
 6686.00    0.96657   0.94208    0.371
 6687.00    0.96267   0.94131    0.370
 6688.00    0.96474   0.94152    0.368
 6689.00    0.96787   0.94321    0.368
 6690.00    0.97188   0.94595    0.371
 6691.00    0.96787   0.94887    0.373
 6692.00    0.95802   0.95155    0.375
 6693.00    0.95112   0.95403    0.377
 6694.00    0.94612   0.95637    0.380
 6695.00    0.94315   0.95845    0.381
 6696.00    0.94132   0.96010    0.000
 6697.00    0.95123   0.96117    0.000
 6698.00    0.96685   0.96173    0.000
 6699.00    0.97379   0.96189    0.000
 6700.00    0.97707   0.96165    0.000
 6701.00    0.96873   0.96094    0.000
 6702.00    0.95622   0.95998    0.000
 6703.00    0.94569   0.95919    0.000
 6704.00    0.93576   0.95873    0.000
 6705.00    0.94370   0.95852    0.000
 6706.00    0.95615   0.95855    0.000
 6707.00    0.94614   0.95880    0.000
 6708.00    0.93151   0.95910    0.000
 6709.00    0.93874   0.95921    0.000
 6710.00    0.94950   0.95920    0.000
 6711.00    0.95910   0.95918    0.000
 6712.00    0.96855   0.95910    0.000
 6713.00    0.95775   0.95888    0.000
 6714.00    0.94526   0.95861    0.000
 6715.00    0.94752   0.95840    0.000
 6716.00    0.95048   0.95809    0.000
 6717.00    0.94455   0.95752    0.000
 6718.00    0.93879   0.95658    0.000
 6719.00    0.94953   0.95533    0.000
 6720.00    0.95927   0.95390    0.000
 6721.00    0.94953   0.95237    0.000
 6722.00    0.94164   0.95082    0.000
 6723.00    0.95500   0.94953    0.000
 6724.00    0.96630   0.94909    0.000
 6725.00    0.96126   0.94952    0.000
 6726.00    0.95794   0.95030    0.000
 6727.00    0.96496   0.95123    0.000
 6728.00    0.96801   0.95258    0.000
 6729.00    0.95221   0.95429    0.000
 6730.00    0.94401   0.95557    0.000
 6731.00    0.96518   0.95603    0.000
 6732.00    0.97631   0.95611    0.000
 6733.00    0.95512   0.95629    0.000
 6734.00    0.94295   0.95645    0.000
 6735.00    0.95536   0.95637    0.000
 6736.00    0.96398   0.95628    0.000
 6737.00    0.96376   0.95643    0.000
 6738.00    0.95922   0.95674    0.000
 6739.00    0.94597   0.95702    0.000
 6740.00    0.93581   0.95724    0.000
 6741.00    0.93107   0.95740    0.000
 6742.00    0.92578   0.95735    0.000
 6743.00    0.91963   0.95693    0.000
 6744.00    0.92808   0.95620    0.000
 6745.00    0.95626   0.95537    0.000
 6746.00    0.95900   0.95448    0.000
 6747.00    0.93145   0.95334    0.000
 6748.00    0.92082   0.95189    0.000
 6749.00    0.92795   0.95058    0.000
 6750.00    0.93016   0.94980    0.000
 6751.00    0.92780   0.94934    0.000
 6752.00    0.92708   0.94901    0.000
 6753.00    0.92770   0.94875    0.435
 6754.00    0.90821   0.94885    0.436
 6755.00    0.87428   0.94922    0.429
 6756.00    0.88220   0.94969    0.427
 6757.00    0.91650   0.95022    0.428
 6758.00    0.95294   0.95061    0.437
 6759.00    0.99056   0.95118    0.452
 6760.00    1.00399   0.95207    0.460
 6761.00    1.00583   0.95319    0.466
 6762.00    1.06677   0.95433    0.482
 6763.00    1.15216   0.95549    0.504
 6764.00    1.15473   0.95686    0.508
 6765.00    1.12800   0.95810    0.506
 6766.00    1.14521   0.95898    0.504
 6767.00    1.17555   0.95948    0.503
 6768.00    1.18095   0.95970    0.503
 6769.00    1.18018   0.95962    0.504
 6770.00    1.11514   0.95916    0.486
 6771.00    1.03720   0.95824    0.466
 6772.00    1.01057   0.95700    0.460
 6773.00    0.99200   0.95582    0.456
 6774.00    0.98100   0.95495    0.445
 6775.00    0.97088   0.95429    0.434
 6776.00    0.97176   0.95369    0.435
 6777.00    0.97352   0.95341    0.437
 6778.00    0.98467   0.95390    0.443
 6779.00    0.99623   0.95503    0.450
 6780.00    0.99355   0.95625    0.452
 6781.00    0.99110   0.95741    0.453
 6782.00    1.00577   0.95862    0.452
 6783.00    1.02062   0.95975    0.451
 6784.00    1.03843   0.96052    0.453
 6785.00    1.05431   0.96073    0.455
 6786.00    1.04896   0.96033    0.458
 6787.00    1.04312   0.95931    0.462
 6788.00    1.03350   0.95785    0.466
 6789.00    1.02051   0.95615    0.468
 6790.00    0.98794   0.95448    0.466
 6791.00    0.96561   0.95308    0.464
 6792.00    0.99066   0.95217    0.464
 6793.00    1.01092   0.95181    0.465
 6794.00    1.01308   0.95199    0.465
 6795.00    1.01236   0.95257    0.465
 6796.00    1.00256   0.95335    0.462
 6797.00    0.99713   0.95412    0.459
 6798.00    1.00345   0.95458    0.457
 6799.00    1.00566   0.95460    0.453
 6800.00    0.99845   0.95445    0.448
 6801.00    0.99350   0.95434    0.444
 6802.00    0.99305   0.95423    0.444
 6803.00    0.98633   0.95414    0.441
 6804.00    0.96876   0.95423    0.435
 6805.00    0.95550   0.95455    0.432
 6806.00    0.94879   0.95503    0.434
 6807.00    0.95165   0.95553    0.437
 6808.00    0.96726   0.95588    0.440
 6809.00    0.97539   0.95601    0.443
 6810.00    0.97471   0.95608    0.445
 6811.00    0.96820   0.95607    0.447
 6812.00    0.95563   0.95584    0.451
 6813.00    0.95692   0.95551    0.459
 6814.00    0.97086   0.95517    0.472
 6815.00    0.98123   0.95480    0.477
 6816.00    0.98873   0.95444    0.473
 6817.00    0.98762   0.95420    0.466
 6818.00    0.98041   0.95408    0.458
 6819.00    0.97657   0.95384    0.453
 6820.00    0.97483   0.95360    0.452
 6821.00    0.98552   0.95370    0.450
 6822.00    1.00297   0.95411    0.450
 6823.00    0.99376   0.95446    0.443
 6824.00    0.97199   0.95467    0.434
 6825.00    0.95939   0.95496    0.432
 6826.00    0.95052   0.95554    0.433
 6827.00    0.94687   0.95622    0.437
 6828.00    0.94502   0.95674    0.442
 6829.00    0.95445   0.95707    0.444
 6830.00    0.96717   0.95735    0.445
 6831.00    0.97905   0.95765    0.452
 6832.00    0.99072   0.95766    0.459
 6833.00    0.99817   0.95719    0.457
 6834.00    1.00480   0.95656    0.454
 6835.00    1.00117   0.95612    0.461
 6836.00    0.99598   0.95584    0.470
 6837.00    0.97323   0.95549    0.470
 6838.00    0.94850   0.95523    0.469
 6839.00    0.95331   0.95533    0.471
 6840.00    0.96032   0.95557    0.474
 6841.00    0.96445   0.95540    0.466
 6842.00    0.96846   0.95465    0.458
 6843.00    0.96745   0.95352    0.451
 6844.00    0.96601   0.95207    0.444
 6845.00    0.94899   0.95026    0.435
 6846.00    0.93369   0.94817    0.427
 6847.00    0.94747   0.94623    0.429
 6848.00    0.95909   0.94491    0.431
 6849.00    0.94824   0.94442    0.433
 6850.00    0.94112   0.94471    0.436
 6851.00    0.96168   0.94563    0.443
 6852.00    0.97865   0.94711    0.448
 6853.00    0.97520   0.94899    0.444
 6854.00    0.97147   0.95087    0.442
 6855.00    0.96650   0.95234    0.446
 6856.00    0.96204   0.95323    0.450
 6857.00    0.95953   0.95372    0.455
 6858.00    0.95439   0.95382    0.459
 6859.00    0.94112   0.95323    0.460
 6860.00    0.93070   0.95202    0.460
 6861.00    0.92779   0.95076    0.455
 6862.00    0.92899   0.94965    0.452
 6863.00    0.93947   0.94847    0.452
 6864.00    0.94262   0.94739    0.452
 6865.00    0.93141   0.94676    0.450
 6866.00    0.92072   0.94647    0.448
 6867.00    0.91092   0.94646    0.444
 6868.00    0.91179   0.94690    0.442
 6869.00    0.92860   0.94763    0.442
 6870.00    0.94349   0.94819    0.441
 6871.00    0.95586   0.94853    0.439
 6872.00    0.95640   0.94884    0.437
 6873.00    0.94324   0.94903    0.435
 6874.00    0.93680   0.94898    0.432
 6875.00    0.93722   0.94874    0.428
 6876.00    0.94098   0.94834    0.429
 6877.00    0.94774   0.94784    0.434
 6878.00    0.95193   0.94768    0.439
 6879.00    0.95409   0.94790    0.444
 6880.00    0.95640   0.94809    0.450
 6881.00    0.95883   0.94815    0.457
 6882.00    0.96470   0.94845    0.461
 6883.00    0.97268   0.94898    0.463
 6884.00    0.96098   0.94927    0.464
 6885.00    0.93875   0.94928    0.464
 6886.00    0.92842   0.94906    0.461
 6887.00    0.92362   0.94853    0.457
 6888.00    0.92241   0.94776    0.450
 6889.00    0.92265   0.94702    0.442
 6890.00    0.91779   0.94622    0.439
 6891.00    0.91119   0.94521    0.438
 6892.00    0.90785   0.94441    0.437
 6893.00    0.90544   0.94400    0.436
 6894.00    0.91897   0.94358    0.441
 6895.00    0.93627   0.94297    0.447
 6896.00    0.94332   0.94250    0.443
 6897.00    0.94841   0.94243    0.438
 6898.00    0.94771   0.94265    0.445
 6899.00    0.94615   0.94310    0.455
 6900.00    0.94840   0.94381    0.458
 6901.00    0.95106   0.94489    0.460
 6902.00    0.95117   0.94637    0.463
 6903.00    0.95110   0.94793    0.466
 6904.00    0.94402   0.94928    0.465
 6905.00    0.93669   0.95048    0.465
 6906.00    0.92956   0.95178    0.461
 6907.00    0.92307   0.95298    0.458
 6908.00    0.93872   0.95381    0.459
 6909.00    0.95302   0.95434    0.460
 6910.00    0.94572   0.95484    0.458
 6911.00    0.93883   0.95533    0.456
 6912.00    0.93610   0.95572    0.449
 6913.00    0.93209   0.95594    0.444
 6914.00    0.91886   0.95605    0.446
 6915.00    0.90788   0.95601    0.447
 6916.00    0.90935   0.95579    0.447
 6917.00    0.91202   0.95534    0.446
 6918.00    0.92004   0.95459    0.444
 6919.00    0.92590   0.95353    0.443
 6920.00    0.92391   0.95251    0.443
 6921.00    0.92313   0.95174    0.445
 6922.00    0.92601   0.95111    0.449
 6923.00    0.92672   0.95081    0.454
 6924.00    0.92184   0.95114    0.463
 6925.00    0.91683   0.95184    0.468
 6926.00    0.91156   0.95256    0.463
 6927.00    0.91309   0.95324    0.463
 6928.00    0.92775   0.95379    0.472
 6929.00    0.94099   0.95379    0.476
 6930.00    0.95184   0.95328    0.471
 6931.00    0.95369   0.95264    0.469
 6932.00    0.94229   0.95208    0.468
 6933.00    0.93685   0.95144    0.467
 6934.00    0.93915   0.95090    0.465
 6935.00    0.93600   0.95080    0.463
 6936.00    0.92665   0.95113    0.460
 6937.00    0.92201   0.95141    0.455
 6938.00    0.92211   0.95143    0.449
 6939.00    0.92329   0.95157    0.449
 6940.00    0.92541   0.95191    0.456
 6941.00    0.92481   0.95212    0.455
 6942.00    0.92208   0.95215    0.447
 6943.00    0.91273   0.95248    0.446
 6944.00    0.89884   0.95312    0.449
 6945.00    0.89321   0.95360    0.453
 6946.00    0.89256   0.95375    0.458
 6947.00    0.91703   0.95369    0.465
 6948.00    0.95471   0.95341    0.475
 6949.00    0.96041   0.95275    0.478
 6950.00    0.95153   0.95174    0.478
 6951.00    0.94160   0.95077    0.477
 6952.00    0.93126   0.95004    0.475
 6953.00    0.93134   0.94944    0.474
 6954.00    0.93491   0.94908    0.473
 6955.00    0.92291   0.94911    0.467
 6956.00    0.90655   0.94924    0.460
 6957.00    0.91787   0.94930    0.458
 6958.00    0.93559   0.94938    0.458
 6959.00    0.93808   0.94932    0.456
 6960.00    0.93774   0.94920    0.454
 6961.00    0.91452   0.94943    0.451
 6962.00    0.88803   0.95003    0.447
 6963.00    0.89712   0.95070    0.452
 6964.00    0.90991   0.95147    0.457
 6965.00    0.91225   0.95242    0.459
 6966.00    0.91389   0.95337    0.461
 6967.00    0.92976   0.95408    0.465
 6968.00    0.94609   0.95458    0.469
 6969.00    0.92208   0.95502    0.472
 6970.00    0.89928   0.95532    0.475
 6971.00    0.91357   0.95541    0.478
 6972.00    0.92628   0.95555    0.482
 6973.00    0.91546   0.95582    0.484
 6974.00    0.90380   0.95595    0.485
 6975.00    0.88412   0.95579    0.479
 6976.00    0.86817   0.95564    0.473
 6977.00    0.87822   0.95556    0.467
 6978.00    0.88740   0.95518    0.462
 6979.00    0.89186   0.95400    0.458
 6980.00    0.89925   0.95220    0.455
 6981.00    0.91923   0.95033    0.459
 6982.00    0.93436   0.94824    0.462
 6983.00    0.93228   0.94548    0.460
 6984.00    0.92915   0.94282    0.459
 6985.00    0.92285   0.94138    0.461
 6986.00    0.92143   0.94091    0.464
 6987.00    0.93238   0.94098    0.466
 6988.00    0.93614   0.94218    0.468
 6989.00    0.92418   0.94471    0.473
 6990.00    0.91114   0.94743    0.476
 6991.00    0.89608   0.94971    0.475
 6992.00    0.89480   0.95172    0.479
 6993.00    0.91634   0.95325    0.491
 6994.00    0.92276   0.95400    0.493
 6995.00    0.90723   0.95435    0.481
 6996.00    0.90394   0.95468    0.476
 6997.00    0.91627   0.95485    0.477
 6998.00    0.91112   0.95477    0.478
 6999.00    0.88631   0.95475    0.477
 7000.00    0.87390   0.95488    0.470
 7001.00    0.87379   0.95490    0.460
 7002.00    0.88562   0.95456    0.463
 7003.00    0.90792   0.95388    0.480
 7004.00    0.90930   0.95289    0.501
 7005.00    0.89457   0.95181    0.527
 7006.00    0.60574   0.95081    0.361
 7007.00    0.13118   0.94984    0.232
 7008.00    0.16082   0.94868    0.301
 7009.00    0.48985   0.94767    1.182
 7010.00    0.60174   0.94729   -1.000
 7011.00    0.60119   0.94730   -1.000
 7012.00    0.60271   0.94722   -1.000
 7013.00    0.60516   0.94722   -1.000
 7014.00    0.60470   0.94765   -1.000
 7015.00    0.60312   0.94830   -1.000
 7016.00    0.60063   0.94873   -1.000
 7017.00    0.59785   0.94895   -1.000
 7018.00    0.59765   0.94907   -1.000
 7019.00    0.59817   0.94879   -1.000
 7020.00    0.59801   0.94777   -1.000
 7021.00    0.59769   0.94637   -1.000
 7022.00    0.60123   0.94542   -1.000
 7023.00    0.60546   0.94497   -1.000
 7024.00    0.60424   0.94449   -1.000
 7025.00    0.60227   0.94415   -1.000
 7026.00    0.60636   0.94480   -1.000
 7027.00    0.61105   0.94602   -1.000
 7028.00    0.61090   0.94667   -1.000
 7029.00    0.61044   0.94676   -1.000
 7030.00    0.60924   0.94696   -1.000
 7031.00    0.60802   0.94716   -1.000
 7032.00    0.60619   0.94706   -1.000
 7033.00    0.60433   0.94713   -1.000
 7034.00    0.60154   0.94784   -1.000
 7035.00    0.59921   0.94889   -1.000
 7036.00    0.60325   0.94982   -1.000
 7037.00    0.60696   0.95064   -1.000
 7038.00    0.60769   0.95141   -1.000
 7039.00    0.60850   0.95191   -1.000
 7040.00    0.60988   0.95214   -1.000
 7041.00    0.61144   0.95229   -1.000
 7042.00    0.61403   0.95225   -1.000
 7043.00    0.61728   0.95197   -1.000
 7044.00    0.62336   0.95216   -1.000
 7045.00    0.62745   0.95313   -1.000
 7046.00    0.62466   0.95417   -1.000
 7047.00    0.62171   0.95515   -1.000
 7048.00    0.61830   0.95678   -1.000
 7049.00    0.61643   0.95881   -1.000
 7050.00    0.61842   0.96037   -2.000
 7051.00    0.62153   0.96146   -2.000
 7052.00    0.62708   0.96237   -2.000
 7053.00    0.63139   0.96287   -2.000
 7054.00    0.63341   0.96291   -2.000
 7055.00    0.63591   0.96278   -2.000
 7056.00    0.63920   0.96232   -2.000
 7057.00    0.64325   0.96116   -2.000
 7058.00    0.64839   0.95947   -2.000
 7059.00    0.65481   0.95765   -2.000
 7060.00    0.66285   0.95572   -2.000
 7061.00    0.66900   0.95368   -2.000
 7062.00    0.67308   0.95196   -2.000
 7063.00    0.67925   0.95080   -2.000
 7064.00    0.68747   0.94990   -2.000
 7065.00    0.68082   0.94917   -2.000
 7066.00    0.66137   0.94870   -2.000
 7067.00    0.64839   0.94827   -2.000
 7068.00    0.64035   0.94766   -2.000
 7069.00    0.64265   0.94713   -2.000
 7070.00    0.65187   0.94679   -2.000
 7071.00    0.66531   0.94624   -2.000
 7072.00    0.68122   0.94541   -2.000
 7073.00    0.68832   0.94460   -2.000
 7074.00    0.69093   0.94403   -2.000
 7075.00    0.68770   0.94369   -2.000
 7076.00    0.68189   0.94364   -2.000
 7077.00    0.67739   0.94408   -2.000
 7078.00    0.67339   0.94531   -2.000
 7079.00    0.67386   0.94706   -2.000
 7080.00    0.67578   0.94867   -2.000
 7081.00    0.67732   0.95002   -2.000
 7082.00    0.67877   0.95136   -2.000
 7083.00    0.67286   0.95245   -2.000
 7084.00    0.66533   0.95296   -2.000
 7085.00    0.65261   0.95305   -2.000
 7086.00    0.63898   0.95285   -2.000
 7087.00    0.64305   0.95208   -2.000
 7088.00    0.64949   0.95054   -2.000
 7089.00    0.65049   0.94840   -2.000
 7090.00    0.65097   0.94602   -2.000
 7091.00    0.63868   0.94344   -2.000
 7092.00    0.62564   0.94063   -2.000
 7093.00    0.62484   0.93804   -2.000
 7094.00    0.62435   0.93615   -2.000
 7095.00    0.62419   0.93483   -2.000
 7096.00    0.62373   0.93379   -2.000
 7097.00    0.61552   0.93310   -2.000
 7098.00    0.60746   0.93273   -2.000
 7099.00    0.60151   0.93264   -2.000
 7100.00    0.59503   0.93286   -2.000
 7101.00    0.58386   0.93327   -2.000
 7102.00    0.57489   0.93383   -2.000
 7103.00    0.58032   0.93474   -2.000
 7104.00    0.58520   0.93592   -2.000
 7105.00    0.58733   0.93709   -2.000
 7106.00    0.58763   0.93823   -2.000
 7107.00    0.58035   0.93937   -2.000
 7108.00    0.57468   0.94041   -2.000
 7109.00    0.57452   0.94119   -2.000
 7110.00    0.57540   0.94168   -2.000
 7111.00    0.57925   0.94179   -2.000
 7112.00    0.58190   0.94167   -2.000
 7113.00    0.58161   0.94151   -2.000
 7114.00    0.58194   0.94105   -2.000
 7115.00    0.58357   0.94007   -2.000
 7116.00    0.58764   0.93896   -2.000
 7117.00    0.59619   0.93821   -2.000
 7118.00    0.60335   0.93760   -2.000
 7119.00    0.60827   0.93692   -2.000
 7120.00    0.61635   0.93650   -2.000
 7121.00    0.62888   0.93666   -2.000
 7122.00    0.63597   0.93702   -2.000
 7123.00    0.63631   0.93724   -2.000
 7124.00    0.63391   0.93742   -2.000
 7125.00    0.62850   0.93760   -2.000
 7126.00    0.62349   0.93753   -2.000
 7127.00    0.61886   0.93721   -2.000
 7128.00    0.62233   0.93698   -2.000
 7129.00    0.63267   0.93684   -2.000
 7130.00    0.63360   0.93645   -2.000
 7131.00    0.62747   0.93601   -2.000
 7132.00    0.61999   0.93588   -2.000
 7133.00    0.61161   0.93570   -2.000
 7134.00    0.60229   0.93501   -2.000
 7135.00    0.59242   0.93413   -2.000
 7136.00    0.59276   0.93365   -2.000
 7137.00    0.59822   0.93345   -2.000
 7138.00    0.61119   0.93326   -2.000
 7139.00    0.62742   0.93341   -2.000
 7140.00    0.62844   0.93433   -2.000
 7141.00    0.62379   0.93581   -2.000
 7142.00    0.61295   0.93743   -2.000
 7143.00    0.60015   0.93885   -2.000
 7144.00    0.59528   0.94000   -2.000
 7145.00    0.59249   0.94110   -2.000
 7146.00    0.58975   0.94194   -2.000
 7147.00    0.58701   0.94205   -2.000
 7148.00    0.58908   0.94175   -2.000
 7149.00    0.59198   0.94154   -2.000
 7150.00    0.58852   0.94115   -2.000
 7151.00    0.58423   0.94026   -2.000
 7152.00    0.58641   0.93903   -2.000
 7153.00    0.58917   0.93783   -2.000
 7154.00    0.59103   0.93698   -2.000
 7155.00    0.59284   0.93626   -2.000
 7156.00    0.59249   0.93560   -2.000
 7157.00    0.59204   0.93577   -2.000
 7158.00    0.58581   0.93696   -2.000
 7159.00    0.58078   0.93823   -2.000
 7160.00    0.60285   0.93940   -2.000
 7161.00    0.62392   0.94104   -2.000
 7162.00    0.63226   0.94264   -2.000
 7163.00    0.64057   0.94341   -2.000
 7164.00    0.64866   0.94369   -2.000
 7165.00    0.65332   0.94400   -2.000
 7166.00    0.63631   0.94389   -2.000
 7167.00    0.62327   0.94308   -2.000
 7168.00    0.62993   0.94184   -2.000
 7169.00    0.63433   0.94049   -2.000
 7170.00    0.62964   0.93933   -2.000
 7171.00    0.62215   0.93849   -2.000
 7172.00    0.60533   0.93784   -2.000
 7173.00    0.59191   0.93771   -2.000
 7174.00    0.58812   0.93866   -2.000
 7175.00    0.59040   0.94046   -2.000
 7176.00    0.60736   0.94245   -2.000
 7177.00    0.61858   0.94435   -2.000
 7178.00    0.61789   0.94614   -2.000
 7179.00    0.61541   0.94765   -2.000
 7180.00    0.60972   0.94853   -2.000
 7181.00    0.59956   0.94871   -2.000
 7182.00    0.58234   0.94843   -2.000
 7183.00    0.57086   0.94772   -2.000
 7184.00    0.56737   0.94645   -2.000
 7185.00    0.56420   0.94497   -2.000
 7186.00    0.56144   0.94380   -2.000
 7187.00    0.56556   0.94274   -2.000
 7188.00    0.57709   0.94151   -2.000
 7189.00    0.58103   0.94041   -2.000
 7190.00    0.57773   0.93988   -2.000
 7191.00    0.57460   0.93959   -2.000
 7192.00    0.57160   0.93892   -2.000
 7193.00    0.56909   0.93800   -2.000
 7194.00    0.56694   0.93716   -2.000
 7195.00    0.56757   0.93637   -2.000
 7196.00    0.57000   0.93567   -2.000
 7197.00    0.56672   0.93526   -2.000
 7198.00    0.56021   0.93530   -2.000
 7199.00    0.56843   0.93592   -2.000
 7200.00    0.58395   0.93683   -2.000
 7201.00    0.59455   0.93762   -2.000
 7202.00    0.60307   0.93860   -2.000
 7203.00    0.59739   0.94003   -2.000
 7204.00    0.58652   0.94118   -2.000
 7205.00    0.56842   0.94174   -2.000
 7206.00    0.54808   0.94231   -2.000
 7207.00    0.54169   0.94303   -2.000
 7208.00    0.53889   0.94341   -2.000
 7209.00    0.53639   0.94333   -2.000
 7210.00    0.53394   0.94288   -2.000
 7211.00    0.53739   0.94221   -2.000
 7212.00    0.54181   0.94154   -2.000
 7213.00    0.54731   0.94080   -2.000
 7214.00    0.55294   0.93978   -2.000
 7215.00    0.55209   0.93888   -2.000
 7216.00    0.55069   0.93882   -2.000
 7217.00    0.54957   0.93936   -2.000
 7218.00    0.54846   0.93999   -2.000
