###################################################################
## OUTPUT of StarlightChains_v04.for    [Cid@UFSC - 01/Apr/2007] ##
###################################################################

## Some input info
KUG0210-078._36_31.txt                   [arq_obs]
Base.CB07.vall.4m                        [arq_base]
Masks.EmLines.NEW.gm                     [arq_masks]
StCv04.C11.config                        [arq_config]
   66                                    [N_base]
    0                                    [N_YAV_components = # of components with extra extinction!]
    0                                    [i_FitPowerLaw (1/0 = Yes/No)]
-9.99                                    [alpha_PowerLaw]
CCM                                      [red_law_option]
 1.458241                                [q_norm = A(l_norm)/A(V)]

## (Re)Sampling Parameters
 3741.00                                 [l_ini (A)]
 7218.00                                 [l_fin (A)]
    1.00                                 [dl    (A)]     (OBS: dl_cushion =    50.00 A)

## Normalization info
 4020.00                                 [l_norm (A) - for base]
 4010.00                                 [llow_norm (A) - window for f_obs]
 4060.00                                 [lupp_norm (A) - window for f_obs]
2.252228E-17                             [fobs_norm (in input units)]

## S/N
 3691.00                                 [llow_SN (A) - window for S/N]
 7268.00                                 [lupp_SN (A) - window for S/N]
   3.651                                 [S/N in S/N window]
   2.337                                 [S/N in norm. window]
   0.046                                 [S/N_err in S/N window]
   0.029                                 [S/N_err in norm. window]
  1.0000                                 [fscale_chi2]

## etc...
    -2007595                             [idum_orig]
  2426                                   [NOl_eff]
  2352                                   [Nl_eff]
    74    NSIGMA                         [Ntot_cliped & clip_method]
  5357520                                [Nglobal_steps]
   7                                     [N_chains]
  15                                     [NEX0s_base = N_base in EX0s-fits]
 0   0   1       74   2.0   8.303E+03    [Clip-Bug, RC-Crash & Burn-In warning-flags, n_censored_weights, wei_nsig_threshold & wei_limit]
    49     49.311     48.574      0.736  [idt_all, wdt_TotTime, wdt_UsrTime & wdt_SysTime (sec)]

## Synthesis Results - Best model ##

 6.01857E-05                             [chi2/Nl_eff]
    13.00363                             [adev (%)]

   122.18819                             [sum-of-x (%)]
 2.00029E-17                             [Flux_tot (units of input spectrum!)]
 2.32658E-12                             [Mini_tot (???)]
 1.16516E-12                             [Mcor_tot (???)]

 -55.25                                  [v0_min  (km/s)]
 202.00                                  [vd_min  (km/s)]
-0.2375                                  [AV_min  (mag)]
 0.0000                                  [YAV_min (mag)]

# j     x_j(%)      Mini_j(%)     Mcor_j(%)     age_j(yr)     Z_j      (L/M)_j    YAV?  Mstars   component_j        a/Fe...       SSP_chi2r SSP_adev(%)   SSP_AV   SSP_x(%)
  1      0.0000     0.0000E+00    0.0000E+00    1.000000E+06  0.00400  1.094E-02    0   1.0000   age020_m42            0.0000     1.0761E-04    19.2457   3.9867   102.4167
  2      0.0000     0.0000E+00    0.0000E+00    3.160000E+06  0.00400  4.007E-02    0   0.9999   age045_m42            0.0000     1.0502E-04    19.3887   3.2668   108.8471
  3      0.0000     0.0000E+00    0.0000E+00    5.010000E+06  0.00400  2.539E-02    0   0.9488   age055_m42            0.0000     1.0744E-04    19.4722   3.5898   106.1679
  4      0.0000     0.0000E+00    0.0000E+00    6.610000E+06  0.00400  2.620E-02    0   0.9220   age061_m42            0.0000     1.0757E-04    19.6805   3.1994   108.6999
  5      0.0000     0.0000E+00    0.0000E+00    1.000000E+07  0.00400  1.322E-02    0   0.8862   age070_m42            0.0000     1.2218E-04    21.3706   2.9238   110.1637
  6      0.0000     0.0000E+00    0.0000E+00    1.445000E+07  0.00400  7.883E-03    0   0.8571   age078_m42            0.0000     1.2162E-04    21.1820   3.2477   107.6512
  7      0.0000     0.0000E+00    0.0000E+00    2.512000E+07  0.00400  5.251E-03    0   0.8174   age090_m42            0.0000     1.2483E-04    21.6923   2.7968   110.5573
  8      0.0000     0.0000E+00    0.0000E+00    4.000000E+07  0.00400  3.649E-03    0   0.7851   age104_m42            0.0000     1.2127E-04    21.3979   2.5670   111.6375
  9      0.0000     0.0000E+00    0.0000E+00    5.500000E+07  0.00400  3.098E-03    0   0.7629   age110_m42            0.0000     1.1547E-04    20.7443   2.7169   111.9733
 10      0.0000     0.0000E+00    0.0000E+00    1.015200E+08  0.00400  2.228E-03    0   0.7207   age116_m42            0.0000     1.1233E-04    20.3650   2.7384   112.2203
 11      0.0000     0.0000E+00    0.0000E+00    2.861200E+08  0.00400  1.093E-03    0   0.6648   age125_m42            0.0000     1.1855E-04    21.0978   2.1610   115.3128
 12      0.0000     0.0000E+00    0.0000E+00    5.088000E+08  0.00400  6.597E-04    0   0.6365   age130_m42            0.0000     1.0991E-04    20.1309   2.1464   116.8344
 13      0.0000     0.0000E+00    0.0000E+00    1.434000E+09  0.00400  2.132E-04    0   0.5798   age139_m42            0.0000     9.4066E-05    18.6476   1.1656   120.0670
 14      0.0000     0.0000E+00    0.0000E+00    4.250000E+09  0.00400  5.895E-05    0   0.5377   age158_m42            0.0000     7.6560E-05    16.4383   0.7066   116.9460
 15      0.0000     0.0000E+00    0.0000E+00    7.500000E+09  0.00400  3.510E-05    0   0.5212   age171_m42            0.0000     7.1953E-05    15.6942   0.5070   116.8339
 16      0.0000     0.0000E+00    0.0000E+00    1.300000E+10  0.00400  2.005E-05    0   0.5034   age193_m42            0.0000     6.8766E-05    15.1013   0.3309   116.8072
 17     33.4226     1.5421E+01    1.5295E+01    1.800000E+10  0.00400  1.525E-05    0   0.4967   age213_m42            0.0000     6.9557E-05    15.2293   0.3090   116.2097
 18      0.0000     0.0000E+00    0.0000E+00    1.000000E+06  0.00800  1.238E-02    0   1.0000   age020_m52            0.0000     1.0779E-04    19.2383   3.9828   102.6236
 19      0.0000     0.0000E+00    0.0000E+00    3.160000E+06  0.00800  3.074E-02    0   0.9966   age045_m52            0.0000     1.0738E-04    19.1899   3.9105   103.3832
 20      0.0000     0.0000E+00    0.0000E+00    5.010000E+06  0.00800  2.668E-02    0   0.9443   age055_m52            0.0000     1.0837E-04    19.4887   3.6730   105.2215
 21      0.0000     0.0000E+00    0.0000E+00    6.610000E+06  0.00800  2.136E-02    0   0.9177   age061_m52            0.0000     1.1183E-04    20.4412   2.4154   112.1656
 22      0.0000     0.0000E+00    0.0000E+00    1.000000E+07  0.00800  1.215E-02    0   0.8827   age070_m52            0.0000     1.2852E-04    21.9120   3.1018   109.7707
 23      0.0000     0.0000E+00    0.0000E+00    1.445000E+07  0.00800  8.717E-03    0   0.8552   age078_m52            0.0000     1.2185E-04    21.2242   3.2154   109.0167
 24      0.0000     0.0000E+00    0.0000E+00    2.512000E+07  0.00800  5.592E-03    0   0.8162   age090_m52            0.0000     1.2663E-04    21.8111   2.8580   111.8422
 25      0.0000     0.0000E+00    0.0000E+00    4.000000E+07  0.00800  3.896E-03    0   0.7841   age104_m52            0.0000     1.2287E-04    21.4776   2.7680   112.8400
 26      0.0000     0.0000E+00    0.0000E+00    1.015200E+08  0.00800  2.148E-03    0   0.7226   age116_m52            0.0000     1.1479E-04    20.6585   2.7050   112.9324
 27      0.0000     0.0000E+00    0.0000E+00    2.861200E+08  0.00800  9.925E-04    0   0.6683   age125_m52            0.0000     1.1018E-04    20.0935   2.2121   117.8281
 28      0.0000     0.0000E+00    0.0000E+00    9.047900E+08  0.00800  3.141E-04    0   0.6138   age135_m52            0.0000     9.1634E-05    17.9675   1.3827   124.7249
 29      0.0000     0.0000E+00    0.0000E+00    1.434000E+09  0.00800  1.719E-04    0   0.5853   age139_m52            0.0000     8.4984E-05    17.4375   0.7989   122.4549
 30      0.0000     0.0000E+00    0.0000E+00    2.500000E+09  0.00800  7.872E-05    0   0.5600   age150_m52            0.0000     7.1474E-05    15.5961   0.5208   120.3738
 31      2.6274     4.2637E-01    4.6195E-01    4.250000E+09  0.00800  4.336E-05    0   0.5426   age158_m52            0.0000     7.0490E-05    15.3889   0.5033   119.4233
 32      0.0000     0.0000E+00    0.0000E+00    6.250000E+09  0.00800  3.159E-05    0   0.5319   age166_m52            0.0000     6.6127E-05    14.5828   0.2892   120.1670
 33      1.9611     1.0139E+00    1.0270E+00    1.300000E+10  0.00800  1.361E-05    0   0.5073   age193_m52            0.0000     6.2427E-05    13.6610  -0.1923   120.2855
 34      0.0000     0.0000E+00    0.0000E+00    1.800000E+10  0.00800  9.886E-06    0   0.4990   age213_m52            0.0000     6.0904E-05    13.0458  -0.3126   120.4511
 35      0.0000     0.0000E+00    0.0000E+00    1.000000E+06  0.02000  1.544E-02    0   1.0000   age020_m62            0.0000     1.0822E-04    19.2498   3.9799   102.8310
 36      0.0000     0.0000E+00    0.0000E+00    3.160000E+06  0.02000  3.762E-02    0   0.9858   age045_m62            0.0000     1.0835E-04    19.2096   3.9187   103.7458
 37      0.0000     0.0000E+00    0.0000E+00    5.010000E+06  0.02000  3.296E-02    0   0.9342   age055_m62            0.0000     1.0605E-04    19.2980   3.5514   107.3977
 38      0.0000     0.0000E+00    0.0000E+00    8.710000E+06  0.02000  1.154E-02    0   0.8861   age067_m62            0.0000     1.6787E-04    25.3937   2.5529   111.6057
 39      0.0000     0.0000E+00    0.0000E+00    1.445000E+07  0.02000  7.663E-03    0   0.8472   age078_m62            0.0000     1.3837E-04    22.8899   2.7398   112.1474
 40      0.0000     0.0000E+00    0.0000E+00    2.512000E+07  0.02000  4.532E-03    0   0.8099   age090_m62            0.0000     1.4258E-04    23.2718   2.7347   111.4972
 41      0.0000     0.0000E+00    0.0000E+00    5.500000E+07  0.02000  2.733E-03    0   0.7595   age110_m62            0.0000     1.2270E-04    21.4573   2.7525   111.9670
 42      0.0000     0.0000E+00    0.0000E+00    1.609000E+08  0.02000  1.369E-03    0   0.6985   age120_m62            0.0000     1.1534E-04    20.6481   2.5890   115.2843
 43      0.0000     0.0000E+00    0.0000E+00    2.861200E+08  0.02000  9.013E-04    0   0.6714   age125_m62            0.0000     1.1020E-04    20.0325   2.3332   119.0197
 44      0.0000     0.0000E+00    0.0000E+00    5.088000E+08  0.02000  5.028E-04    0   0.6449   age130_m62            0.0000     9.5821E-05    18.3271   1.9321   123.8123
 45      0.0000     0.0000E+00    0.0000E+00    9.047900E+08  0.02000  2.428E-04    0   0.6179   age135_m62            0.0000     8.1378E-05    16.8102   1.3251   124.3872
 46      0.0000     0.0000E+00    0.0000E+00    1.434000E+09  0.02000  1.263E-04    0   0.5908   age139_m62            0.0000     7.4280E-05    15.9424   0.8768   123.0237
 47      0.0000     0.0000E+00    0.0000E+00    2.500000E+09  0.02000  5.985E-05    0   0.5673   age150_m62            0.0000     6.6523E-05    14.6342   0.4954   122.4792
 48     16.7564     3.6045E+00    3.9355E+00    4.250000E+09  0.02000  3.271E-05    0   0.5468   age158_m62            0.0000     6.1288E-05    13.5493   0.1744   122.5420
 49      0.0000     0.0000E+00    0.0000E+00    1.000000E+10  0.02000  1.360E-05    0   0.5167   age181_m62            0.0000     6.0698E-05    12.7209  -0.1947   123.2806
 50     29.6294     2.9265E+01    2.9294E+01    1.800000E+10  0.02000  7.124E-06    0   0.5013   age213_m62            0.0000     6.2310E-05    12.2748  -0.4207   123.2340
 51      0.0000     0.0000E+00    0.0000E+00    1.000000E+06  0.05000  2.592E-02    0   0.9998   age020_m72            0.0000     1.0944E-04    19.3160   3.9726   102.8217
 52      0.0000     0.0000E+00    0.0000E+00    3.160000E+06  0.05000  4.845E-02    0   0.9577   age045_m72            0.0000     1.0667E-04    19.1304   3.8086   104.7931
 53      0.0000     0.0000E+00    0.0000E+00    5.010000E+06  0.05000  3.072E-02    0   0.9147   age055_m72            0.0000     1.3106E-04    21.8681   3.3126   108.6807
 54      0.0000     0.0000E+00    0.0000E+00    6.610000E+06  0.05000  1.455E-02    0   0.8877   age061_m72            0.0000     2.0577E-04    28.3286   2.5588   112.3958
 55      0.0000     0.0000E+00    0.0000E+00    1.000000E+07  0.05000  9.074E-03    0   0.8524   age070_m72            0.0000     1.4173E-04    22.4946   3.4678   108.6805
 56      0.0000     0.0000E+00    0.0000E+00    2.512000E+07  0.05000  4.250E-03    0   0.7902   age090_m72            0.0000     1.3616E-04    22.3798   3.1935   109.9673
 57      0.0000     0.0000E+00    0.0000E+00    4.000000E+07  0.05000  3.087E-03    0   0.7618   age104_m72            0.0000     1.3920E-04    22.7473   2.9704   111.4201
 58      0.0000     0.0000E+00    0.0000E+00    1.015200E+08  0.05000  1.700E-03    0   0.7096   age116_m72            0.0000     1.2243E-04    21.3333   2.7310   114.4791
 59      0.0000     0.0000E+00    0.0000E+00    2.861200E+08  0.05000  7.384E-04    0   0.6633   age125_m72            0.0000     1.0302E-04    19.1953   2.1893   121.4531
 60      0.0000     0.0000E+00    0.0000E+00    5.088000E+08  0.05000  3.819E-04    0   0.6372   age130_m72            0.0000     8.5876E-05    17.2669   1.6777   125.0056
 61      0.0000     0.0000E+00    0.0000E+00    9.047900E+08  0.05000  1.676E-04    0   0.6110   age135_m72            0.0000     6.8473E-05    14.8755   0.9606   124.5408
 62      0.0000     0.0000E+00    0.0000E+00    1.434000E+09  0.05000  8.837E-05    0   0.5874   age139_m72            0.0000     6.6400E-05    14.4917   0.4892   124.5494
 63      0.0000     0.0000E+00    0.0000E+00    2.500000E+09  0.05000  4.233E-05    0   0.5598   age150_m72            0.0000     6.0573E-05    13.2078   0.1645   124.1563
 64      0.0000     0.0000E+00    0.0000E+00    6.250000E+09  0.05000  1.435E-05    0   0.5249   age166_m72            0.0000     6.0585E-05    12.5593  -0.2983   123.1891
 65     17.8703     1.9306E+01    1.9414E+01    1.300000E+10  0.05000  6.513E-06    0   0.5036   age193_m72            0.0000     6.3882E-05    12.1551  -0.5963   125.3846
 66     19.9210     3.0963E+01    3.0573E+01    1.800000E+10  0.05000  4.527E-06    0   0.4945   age213_m72            0.0000     6.6834E-05    12.0573  -0.7690   125.7519


## Synthesis Results - Average & Chains ##

# j      x_j: min, <> & last-chain-values for 1 ...  7 chains
  1      0.0000      0.1887      0.0411      0.1146      0.0000      0.0208      0.0622      0.0455      0.1955
  2      0.0000      0.1996      0.0474      0.0000      0.1454      0.0531      0.0312      0.2814      0.0496
  3      0.0000      0.2712      0.0817      0.1155      0.1379      0.0000      0.1387      0.0979      0.0408
  4      0.0000      0.2608      0.1241      0.1576      0.1114      0.0787      0.0778      0.0000      0.1785
  5      0.0000      0.2898      0.0393      0.0878      0.0000      0.0469      0.1731      0.4848      0.1650
  6      0.0000      0.2628      0.0000      0.0488      0.4128      0.1439      0.0000      0.0300      0.0805
  7      0.0000      0.2181      0.2169      0.3884      0.1046      0.0294      0.2173      0.1150      0.1867
  8      0.0000      0.3244      0.0592      0.0000      0.1727      0.0000      0.0817      0.0506      0.1700
  9      0.0000      0.2504      0.0000      0.0000      0.1365      0.1397      0.1318      0.2315      0.1033
 10      0.0000      0.2490      0.2560      0.1608      0.0361      0.0000      0.0468      0.0604      0.0000
 11      0.0000      0.2344      0.0627      0.3256      0.0295      0.0000      0.0274      0.0180      0.0000
 12      0.0000      0.1656      0.0287      0.0367      0.0000      0.0199      0.0253      0.0000      0.0217
 13      0.0000      0.2511      0.0000      0.1895      0.0000      0.0863      0.0033      0.0000      0.0836
 14      0.0000      0.1718      0.0392      0.1326      0.1191      0.0371      0.0770      0.0000      0.1419
 15      0.0000      0.2556      0.0319      0.1403      0.0477      0.0065      0.1245      0.2800      0.0000
 16      0.0000      0.2404      0.2678      0.0016      0.0000      0.0941      0.2627      0.0696      0.0885
 17     33.4226      0.3560      0.0343      0.1068      0.0790      0.4436      0.1440      0.2358      0.0001
 18      0.0000      0.2403      0.0590      0.0529      0.0211      0.0089      0.0502      0.0926      0.1069
 19      0.0000      0.2108      0.2284      0.1203      0.0000      0.0441      0.1999      0.0678      0.0580
 20      0.0000      0.2783      0.0842      0.1388      0.2292      0.1252      0.0398      0.0000      0.0180
 21      0.0000      0.2612      0.0113      0.0000      0.0916      0.0000      0.0000      0.0000      0.0271
 22      0.0000      0.1849      0.0944      0.0172      0.0338      0.0338      0.0423      0.1021      0.1144
 23      0.0000      0.2460      0.0321      0.0000      0.0937      0.0530      0.0000      0.0000      0.0000
 24      0.0000      0.2745      0.0899      0.0805      0.1247      0.1000      0.0603      0.1257      0.1080
 25      0.0000      0.2793      0.1084      0.1249      0.0962      0.0060      0.0334      0.4280      0.0000
 26      0.0000      0.2129      0.0330      0.0000      0.0000      0.0638      0.0333      0.0589      0.0000
 27      0.0000      0.2472      0.0960      0.0152      0.0000      0.0000      0.0000      0.0768      0.1326
 28      0.0000      0.2063      0.0767      0.0568      0.0233      0.0000      0.0000      0.0000      0.0951
 29      0.0000      0.1659      0.0000      0.0320      0.0000      0.0541      0.0922      0.0475      0.0494
 30      0.0000      0.3671      0.1948      0.1430      0.3427      0.1246      0.0000      0.3847      0.2722
 31      2.6274      0.2169      0.0000      0.0000      0.1306      0.1531      0.0000      0.0924      0.0240
 32      0.0000      0.2282      0.0746      0.1006      0.1462      0.1369      0.0000      0.0000      0.1766
 33      1.9611      0.2240      0.1373      0.0532      0.1924      0.2426      0.0000      0.0846      0.0620
 34      0.0000     18.8852     21.1148     20.7763     20.6398     16.3094     21.6248     20.4681     20.4876
 35      0.0000      0.2525      0.0982      0.0000      0.3856      0.3004      0.1482      0.2388      0.0000
 36      0.0000      0.3494      0.0498      0.0830      0.0584      0.6420      0.0289      0.1725      0.2322
 37      0.0000      0.2631      0.2563      0.0716      0.0000      0.0031      0.0845      0.0916      0.0000
 38      0.0000      0.2009      0.1748      0.2071      0.1135      0.0376      0.0691      0.1681      0.0000
 39      0.0000      0.2052      0.0000      0.1041      0.0172      0.0120      0.0336      0.0188      0.0000
 40      0.0000      0.2062      0.0069      0.2863      0.0000      0.0976      0.0993      0.0781      0.2881
 41      0.0000      0.2222      0.0819      0.0146      0.1196      0.0723      0.0522      0.0000      0.0330
 42      0.0000      0.1601      0.0291      0.0000      0.0966      0.0000      0.0000      0.1187      0.0731
 43      0.0000      0.2693      0.0889      0.0619      0.0281      0.0455      0.1281      0.1415      0.0667
 44      0.0000      0.2816      0.2814      0.1340      0.0546      0.0000      0.0784      0.0159      0.0638
 45      0.0000      0.2014      0.0196      0.0414      0.0052      0.0294      0.0035      0.0159      0.0289
 46      0.0000      0.2492      0.0334      0.1716      0.0405      0.0000      0.1855      0.0000      0.0067
 47      0.0000      0.1967      0.0620      0.0000      0.0000      0.0370      0.0120      0.2839      0.2124
 48     16.7564      0.2597      0.0000      0.2284      0.1871      0.3524      0.0623      0.0000      0.0000
 49      0.0000      0.2380      0.2112      0.0637      0.3607      0.1118      0.2127      0.0186      0.1248
 50     29.6294     70.8185     78.6918     70.3319     82.8993     84.4145     78.5626     78.7391     79.3537
 51      0.0000      0.3289      0.0627      0.1782      0.0997      0.1501      0.1323      0.2603      0.0000
 52      0.0000      0.2243      0.0497      0.0242      0.0000      0.0475      0.0826      0.0000      0.1371
 53      0.0000      0.2000      0.0623      0.0591      0.0138      0.0649      0.1191      0.1498      0.1073
 54      0.0000      0.1993      0.0053      0.0909      0.0975      0.0905      0.0745      0.0053      0.2959
 55      0.0000      0.3236      0.0495      0.0000      0.1317      0.1680      0.1818      0.0365      0.4173
 56      0.0000      0.3371      0.2217      0.4550      0.2488      0.0285      0.1294      0.3242      0.0000
 57      0.0000      0.1712      0.1187      0.0548      0.1174      0.0168      0.0000      0.0000      0.0842
 58      0.0000      0.2138      0.0023      0.0439      0.0188      0.0301      0.0018      0.0000      0.0000
 59      0.0000      0.1980      0.0896      0.0000      0.0275      0.0793      0.0774      0.0318      0.0693
 60      0.0000      0.2845      0.1801      0.0948      0.0612      0.0000      0.0000      0.0922      0.1183
 61      0.0000      0.1954      0.1496      0.0207      0.0769      0.0501      0.1606      0.2333      0.0919
 62      0.0000      0.2857      0.0000      0.0000      0.0105      0.1446      0.0000      0.0000      0.1197
 63      0.0000      0.2216      0.0932      0.0774      0.0222      0.0000      0.1457      0.0503      0.0601
 64      0.0000      0.3065      0.3860      0.2437      0.1147      0.0945      0.0278      0.0000      0.1206
 65     17.8703      7.2871      6.7322     15.2665      3.1347      6.8943      7.5301      7.1437      6.9955
 66     19.9210      0.2913      0.0000      0.0519      0.0000      0.2326      0.0000      0.0000      0.0000

# j      m_j: min, <> & last-chain-values for 1 ...  7 chains
  1  0.0000E+00  2.6100E-04  5.2401E-05  1.4516E-04  0.0000E+00  2.5798E-05  7.8592E-05  5.8109E-05  2.4878E-04
  2  0.0000E+00  7.5360E-05  1.6499E-05  0.0000E+00  5.0673E-05  1.7971E-05  1.0754E-05  9.8164E-05  1.7228E-05
  3  0.0000E+00  1.5333E-04  4.2603E-05  5.9815E-05  7.1996E-05  0.0000E+00  7.1705E-05  5.1153E-05  2.1240E-05
  4  0.0000E+00  1.3886E-04  6.0955E-05  7.6884E-05  5.4760E-05  3.7566E-05  3.7862E-05  0.0000E+00  8.7448E-05
  5  0.0000E+00  2.9390E-04  3.6765E-05  8.1597E-05  0.0000E+00  4.2701E-05  1.6047E-04  4.5437E-04  1.5395E-04
  6  0.0000E+00  4.3226E-04  0.0000E+00  7.3620E-05  6.2703E-04  2.1227E-04  0.0000E+00  4.5635E-05  1.2183E-04
  7  0.0000E+00  5.1363E-04  4.7119E-04  8.3804E-04  2.2745E-04  6.2068E-05  4.6786E-04  2.5032E-04  4.0449E-04
  8  0.0000E+00  1.0558E-03  1.7778E-04  0.0000E+00  5.1912E-04  0.0000E+00  2.4313E-04  1.5207E-04  5.0918E-04
  9  0.0000E+00  9.3269E-04  0.0000E+00  0.0000E+00  4.6971E-04  4.6682E-04  4.4906E-04  7.9702E-04  3.5418E-04
 10  0.0000E+00  1.2183E-03  1.1557E-03  7.2082E-04  1.6304E-04  0.0000E+00  2.0954E-04  2.7330E-04  0.0000E+00
 11  0.0000E+00  2.1570E-03  5.3205E-04  2.7452E-03  2.5033E-04  0.0000E+00  2.3032E-04  1.5327E-04  0.0000E+00
 12  0.0000E+00  2.4166E-03  3.8605E-04  4.9060E-04  0.0000E+00  2.6032E-04  3.3748E-04  0.0000E+00  2.9120E-04
 13  0.0000E+00  1.0331E-02  0.0000E+00  7.1441E-03  0.0000E+00  3.1851E-03  1.2472E-04  0.0000E+00  3.1653E-03
 14  0.0000E+00  2.3708E-02  4.9941E-03  1.6761E-02  1.5172E-02  4.5949E-03  9.7117E-03  0.0000E+00  1.8013E-02
 15  0.0000E+00  5.7414E-02  6.6099E-03  2.8883E-02  9.8894E-03  1.3038E-03  2.5569E-02  5.8119E-02  0.0000E+00
 16  0.0000E+00  9.1288E-02  9.3839E-02  5.7116E-04  0.0000E+00  3.2064E-02  9.1234E-02  2.4421E-02  3.0942E-02
 17  1.5295E+01  1.7539E-01  1.5609E-02  4.8208E-02  3.5954E-02  1.9607E-01  6.4852E-02  1.0738E-01  6.3510E-05
 18  0.0000E+00  2.9360E-04  6.6481E-05  5.9197E-05  2.3854E-05  9.7160E-06  5.6105E-05  1.0452E-04  1.2017E-04
 19  0.0000E+00  1.0339E-04  1.0334E-04  5.4075E-05  0.0000E+00  1.9413E-05  8.9655E-05  3.0732E-05  2.6189E-05
 20  0.0000E+00  1.4902E-04  4.1575E-05  6.8094E-05  1.1332E-04  6.0140E-05  1.9477E-05  0.0000E+00  8.8510E-06
 21  0.0000E+00  1.6975E-04  6.7731E-06  0.0000E+00  5.5004E-05  0.0000E+00  0.0000E+00  0.0000E+00  1.6212E-05
 22  0.0000E+00  2.0325E-04  9.5719E-05  1.7367E-05  3.4293E-05  3.3357E-05  4.2523E-05  1.0371E-04  1.1565E-04
 23  0.0000E+00  3.6505E-04  4.3893E-05  0.0000E+00  1.2837E-04  7.0494E-05  0.0000E+00  0.0000E+00  0.0000E+00
 24  0.0000E+00  6.0613E-04  1.8315E-04  1.6294E-04  2.5430E-04  1.9808E-04  1.2166E-04  2.5653E-04  2.1939E-04
 25  0.0000E+00  8.5025E-04  3.0457E-04  3.4845E-04  2.7041E-04  1.6389E-05  9.2979E-05  1.2043E-03  0.0000E+00
 26  0.0000E+00  1.0837E-03  1.5478E-04  0.0000E+00  0.0000E+00  2.9134E-04  1.5480E-04  2.7710E-04  0.0000E+00
 27  0.0000E+00  2.5179E-03  9.0191E-04  1.4197E-04  0.0000E+00  0.0000E+00  0.0000E+00  7.2323E-04  1.2427E-03
 28  0.0000E+00  6.0998E-03  2.0914E-03  1.5382E-03  6.3620E-04  0.0000E+00  0.0000E+00  0.0000E+00  2.5876E-03
 29  0.0000E+00  8.5443E-03  0.0000E+00  1.5111E-03  0.0000E+00  2.4992E-03  4.3426E-03  2.2628E-03  2.3405E-03
 30  0.0000E+00  3.9506E-02  1.9335E-02  1.4104E-02  3.4061E-02  1.2027E-02  0.0000E+00  3.8264E-02  2.6953E-02
 31  4.6195E-01  4.1055E-02  0.0000E+00  0.0000E+00  2.2836E-02  2.6005E-02  0.0000E+00  1.6164E-02  4.1810E-03
 32  0.0000E+00  5.8118E-02  1.7529E-02  2.3473E-02  3.4388E-02  3.1284E-02  0.0000E+00  0.0000E+00  4.1395E-02
 33  1.0270E+00  1.2629E-01  7.1422E-02  2.7507E-02  1.0018E-01  1.2273E-01  0.0000E+00  4.4068E-02  3.2152E-02
 34  0.0000E+00  1.4420E+01  1.4872E+01  1.4536E+01  1.4554E+01  1.1171E+01  1.5096E+01  1.4444E+01  1.4393E+01
 35  0.0000E+00  2.4742E-04  8.8726E-05  0.0000E+00  3.4891E-04  2.6401E-04  1.3274E-04  2.1622E-04  0.0000E+00
 36  0.0000E+00  1.3850E-04  1.8219E-05  3.0154E-05  2.1383E-05  2.2831E-04  1.0476E-05  6.3202E-05  8.4698E-05
 37  0.0000E+00  1.1281E-04  1.0136E-04  2.8140E-05  0.0000E+00  1.1914E-06  3.3136E-05  3.6294E-05  0.0000E+00
 38  0.0000E+00  2.3334E-04  1.8730E-04  2.2044E-04  1.2175E-04  3.9134E-05  7.3374E-05  1.8041E-04  0.0000E+00
 39  0.0000E+00  3.4315E-04  0.0000E+00  1.5946E-04  2.6525E-05  1.7953E-05  5.1394E-05  2.9103E-05  0.0000E+00
 40  0.0000E+00  5.5751E-04  1.7238E-05  7.0923E-04  0.0000E+00  2.3663E-04  2.4548E-04  1.9516E-04  7.1664E-04
 41  0.0000E+00  9.3398E-04  3.1746E-04  5.6230E-05  4.6433E-04  2.7270E-04  2.0055E-04  0.0000E+00  1.2778E-04
 42  0.0000E+00  1.2361E-03  2.0709E-04  0.0000E+00  6.8886E-04  0.0000E+00  0.0000E+00  8.4706E-04  5.1912E-04
 43  0.0000E+00  3.0347E-03  9.2373E-04  6.3879E-04  2.9211E-04  4.5979E-04  1.3194E-03  1.4739E-03  6.9155E-04
 44  0.0000E+00  5.4630E-03  5.0357E-03  2.3831E-03  9.7812E-04  0.0000E+00  1.3915E-03  2.8442E-04  1.1386E-03
 45  0.0000E+00  7.7541E-03  6.9710E-04  1.4619E-03  1.8569E-04  1.0145E-03  1.2307E-04  5.6735E-04  1.0229E-03
 46  0.0000E+00  1.7635E-02  2.1776E-03  1.1129E-02  2.6481E-03  0.0000E+00  1.2000E-02  0.0000E+00  4.3401E-04
 47  0.0000E+00  2.8205E-02  8.2032E-03  0.0000E+00  0.0000E+00  4.7585E-03  1.5702E-03  3.7622E-02  2.8022E-02
 48  3.9355E+00  6.5666E-02  0.0000E+00  5.2914E-02  4.3701E-02  7.9951E-02  1.4392E-02  0.0000E+00  0.0000E+00
 49  0.0000E+00  1.3679E-01  1.1196E-01  3.3532E-02  1.9147E-01  5.7645E-02  1.1177E-01  9.8822E-03  6.5968E-02
 50  2.9294E+01  7.5386E+01  7.7270E+01  6.8601E+01  8.1492E+01  8.0607E+01  7.6459E+01  7.7462E+01  7.7720E+01
 51  0.0000E+00  1.9191E-04  3.3723E-05  9.5291E-05  5.3726E-05  7.8580E-05  7.0602E-05  1.4039E-04  0.0000E+00
 52  0.0000E+00  6.7080E-05  1.3721E-05  6.6196E-06  0.0000E+00  1.2738E-05  2.2594E-05  0.0000E+00  3.7708E-05
 53  0.0000E+00  9.0099E-05  2.5884E-05  2.4397E-05  5.7283E-06  2.6212E-05  4.9044E-05  6.2349E-05  4.4471E-05
 54  0.0000E+00  1.8392E-04  4.5380E-06  7.6865E-05  8.3096E-05  7.4907E-05  6.2873E-05  4.4880E-06  2.5125E-04
 55  0.0000E+00  4.5989E-04  6.4899E-05  0.0000E+00  1.7279E-04  2.1420E-04  2.3617E-04  4.7881E-05  5.4556E-04
 56  0.0000E+00  9.4801E-04  5.7508E-04  1.1727E-03  6.4626E-04  7.1863E-05  3.3264E-04  8.4283E-04  0.0000E+00
 57  0.0000E+00  6.3916E-04  4.0866E-04  1.8750E-04  4.0479E-04  5.6259E-05  0.0000E+00  0.0000E+00  2.8933E-04
 58  0.0000E+00  1.3497E-03  1.3430E-05  2.5374E-04  1.0948E-04  1.7077E-04  1.0111E-05  0.0000E+00  0.0000E+00
 59  0.0000E+00  2.6908E-03  1.1233E-03  0.0000E+00  3.4461E-04  9.6667E-04  9.6143E-04  3.9948E-04  8.6706E-04
 60  0.0000E+00  7.1799E-03  4.1925E-03  2.1916E-03  1.4266E-03  0.0000E+00  0.0000E+00  2.1499E-03  2.7475E-03
 61  0.0000E+00  1.0776E-02  7.6128E-03  1.0484E-03  3.9178E-03  2.4768E-03  8.0965E-03  1.1888E-02  4.6634E-03
 62  0.0000E+00  2.8733E-02  0.0000E+00  0.0000E+00  9.7728E-04  1.3045E-02  0.0000E+00  0.0000E+00  1.1075E-02
 63  0.0000E+00  4.4336E-02  1.7199E-02  1.4187E-02  4.0924E-03  0.0000E+00  2.6642E-02  9.3040E-03  1.1059E-02
 64  0.0000E+00  1.6960E-01  1.9701E-01  1.2356E-01  5.8625E-02  4.6914E-02  1.4042E-02  0.0000E+00  6.1394E-02
 65  1.9414E+01  8.5237E+00  7.2639E+00  1.6362E+01  3.3861E+00  7.2340E+00  8.0527E+00  7.7223E+00  7.5286E+00
 66  3.0573E+01  4.8141E-01  0.0000E+00  7.8619E-02  0.0000E+00  3.4476E-01  0.0000E+00  0.0000E+00  0.0000E+00

# AV, chi2 & Mass for <> & i_chain = 1 ...  7 solutions
AV      -0.2375     -0.1650     -0.1497     -0.1588     -0.1470     -0.1770     -0.1628     -0.1456     -0.1532
chi2 6.0186E-05  7.3479E-05  6.8265E-05  6.8283E-05  6.7841E-05  6.7292E-05  6.7986E-05  6.7657E-05  6.7877E-05
Mass 1.1652E-12  1.1928E-12  1.3200E-12  1.3128E-12  1.3234E-12  1.3084E-12  1.3087E-12  1.3247E-12  1.3172E-12
 -55.25                                  [v0_min (km/s) before EX0s...]
 202.00                                  [vd_min (km/s) before EX0s...]


## Synthetic spectrum (Best Model) ##l_obs f_obs f_syn wei
 3478    [Nl_obs]
 3741.00    0.60711   0.56231    0.000
 3742.00    0.65526   0.54414    0.000
 3743.00    0.65312   0.51505    0.000
 3744.00    0.54829   0.48246    0.000
 3745.00    0.38365   0.45331   -1.000
 3746.00    0.24185   0.43330   -1.000
 3747.00    0.11166   0.42707   -1.000
 3748.00    0.13437   0.43783   -1.000
 3749.00    0.22431   0.46631   -1.000
 3750.00    0.39374   0.50928   -1.000
 3751.00    0.59319   0.55939   -1.000
 3752.00    0.74188   0.60653   -1.000
 3753.00    0.87432   0.64069   -1.000
 3754.00    0.92526   0.65535   -1.000
 3755.00    0.95437   0.64989   -1.000
 3756.00    0.80507   0.63001   -1.000
 3757.00    0.61660   0.60533   -1.000
 3758.00    0.44751   0.58504   -1.000
 3759.00    0.28180   0.57411   -1.000
 3760.00    0.20638   0.57224   -1.000
 3761.00    0.14294   0.57578   -1.000
 3762.00    0.31789   0.58082   -1.000
 3763.00    0.51524   0.58540   -1.000
 3764.00    0.59196   0.58995   -1.000
 3765.00    0.66171   0.59638   -1.000
 3766.00    0.65982   0.60682   -1.000
 3767.00    0.65633   0.62248   -1.000
 3768.00    0.66704   0.64311   -1.000
 3769.00    0.67239   0.66698   -1.000
 3770.00    0.54785   0.69144   -1.000
 3771.00    0.44290   0.71372   -1.000
 3772.00    0.59480   0.73180   -1.000
 3773.00    0.74510   0.74508   -1.000
 3774.00    0.88133   0.75464   -1.000
 3775.00    0.98625   0.76273   -1.000
 3776.00    0.88807   0.77167   -1.000
 3777.00    0.79862   0.78271   -1.000
 3778.00    0.75338   0.79541   -1.000
 3779.00    0.70507   0.80767   -1.000
 3780.00    0.64421   0.81631   -1.000
 3781.00    0.60490   0.81784   -1.000
 3782.00    0.63867   0.80927   -1.000
 3783.00    0.65588   0.78919   -1.000
 3784.00    0.62571   0.75876   -1.000
 3785.00    0.56990   0.72208   -1.000
 3786.00    0.45148   0.68529   -1.000
 3787.00    0.36334   0.65436   -1.000
 3788.00    0.33899   0.63275   -1.000
 3789.00    0.35709   0.62009   -1.000
 3790.00    0.45292   0.61285   -1.000
 3791.00    0.48281   0.60630   -1.000
 3792.00    0.40713   0.59692   -1.000
 3793.00    0.36131   0.58378   -1.000
 3794.00    0.35740   0.56862   -1.000
 3795.00    0.35320   0.55505   -1.000
 3796.00    0.34861   0.54747   -1.000
 3797.00    0.32776   0.54989   -1.000
 3798.00    0.28917   0.56460   -1.000
 3799.00    0.32735   0.59093   -1.000
 3800.00    0.43931   0.62485   -1.000
 3801.00    0.47598   0.65997   -1.000
 3802.00    0.44885   0.68976   -1.000
 3803.00    0.41741   0.70997   -1.000
 3804.00    0.38277   0.72004   -1.000
 3805.00    0.46638   0.72281   -1.000
 3806.00    0.62750   0.72243   -1.000
 3807.00    0.72144   0.72171    0.234
 3808.00    0.77684   0.72032    0.091
 3809.00    0.86824   0.71517    0.077
 3810.00    0.97764   0.70258    0.080
 3811.00    0.76244   0.68094    0.080
 3812.00    0.40687   0.65211    0.079
 3813.00    0.38464   0.62062    0.080
 3814.00    0.48603   0.59135    0.080
 3815.00    0.43354   0.56723    0.081
 3816.00    0.33266   0.54838    0.081
 3817.00    0.08662   0.53315    0.080
 3818.00   -0.19750   0.51985    0.000
 3819.00    0.07645   0.50772    0.078
 3820.00    0.46997   0.49660    0.079
 3821.00    0.66988   0.48602    0.079
 3822.00    0.83694   0.47505    0.078
 3823.00    0.38895   0.46323    0.078
 3824.00   -0.13796   0.45139    0.000
 3825.00    0.33676   0.44133    0.079
 3826.00    0.90138   0.43459    0.080
 3827.00    0.65207   0.43115    0.078
 3828.00    0.35901   0.42933    0.076
 3829.00    0.43257   0.42686    0.077
 3830.00    0.51070   0.42245    0.077
 3831.00    0.35415   0.41662    0.077
 3832.00    0.19560   0.41119    0.076
 3833.00   -0.00761   0.40792    0.000
 3834.00   -0.16035   0.40749    0.000
 3835.00    0.31452   0.40950    0.072
 3836.00    0.75598   0.41362    0.072
 3837.00    0.91511   0.42084    0.074
 3838.00    1.02557   0.43336    0.076
 3839.00    0.82988   0.45332    0.075
 3840.00    0.68717   0.48103    0.075
 3841.00    0.80589   0.51411    0.077
 3842.00    0.90125   0.54817    0.078
 3843.00    0.90307   0.57839    0.078
 3844.00    0.85357   0.60128    0.078
 3845.00    0.63341   0.61548    0.077
 3846.00    0.54002   0.62168    0.077
 3847.00    0.80257   0.62200    0.000
 3848.00    1.00394   0.61916    0.000
 3849.00    1.05834   0.61544    0.000
 3850.00    0.86973   0.61176    0.000
 3851.00    0.17717   0.60743    0.000
 3852.00   -0.20847   0.60073    0.000
 3853.00   -0.04049   0.59010    0.000
 3854.00    0.12767   0.57521    0.000
 3855.00    0.29613   0.55743    0.000
 3856.00    0.55148   0.53975    0.000
 3857.00    0.92712   0.52622    0.000
 3858.00    0.91858   0.52077    0.000
 3859.00    0.44194   0.52574    0.000
 3860.00    0.19831   0.54046    0.000
 3861.00    0.20498   0.56124    0.000
 3862.00    0.32814   0.58261    0.000
 3863.00    0.56167   0.59956    0.000
 3864.00    0.64096   0.60915    0.000
 3865.00    0.59139   0.61081    0.000
 3866.00    0.53838   0.60561    0.000
 3867.00    0.48282   0.59545    0.000
 3868.00    0.40109   0.58289    0.000
 3869.00    0.30247   0.57112    0.000
 3870.00    0.43485   0.56353    0.000
 3871.00    0.69779   0.56253    0.000
 3872.00    0.77852   0.56805    0.000
 3873.00    0.76962   0.57712    0.000
 3874.00    0.58774   0.58524    0.000
 3875.00    0.33232   0.58872    0.000
 3876.00    0.40084   0.58670    0.000
 3877.00    0.58736   0.58119    0.000
 3878.00    0.66930   0.57558    0.000
 3879.00    0.71901   0.57248    0.000
 3880.00    0.66621   0.57261    0.000
 3881.00    0.58708   0.57450    0.069
 3882.00    0.49647   0.57562    0.069
 3883.00    0.40345   0.57406    0.069
 3884.00    0.36105   0.57001    0.069
 3885.00    0.32700   0.56645    0.070
 3886.00    0.50518   0.56801    0.073
 3887.00    0.70964   0.57883    0.076
 3888.00    1.04210   0.60032    0.076
 3889.00    1.38552   0.63012    0.076
 3890.00    0.93625   0.66297    0.074
 3891.00    0.44747   0.69281    0.072
 3892.00    0.36634   0.71522    0.072
 3893.00    0.29366   0.72880    0.073
 3894.00    0.33574   0.73492    0.071
 3895.00    0.38817   0.73627    0.071
 3896.00    0.65233   0.73541    0.072
 3897.00    0.88136   0.73401    0.072
 3898.00    0.69497   0.73269    0.069
 3899.00    0.53614   0.73115    0.065
 3900.00    0.60185   0.72868    0.063
 3901.00    0.65167   0.72497    0.062
 3902.00    0.60437   0.72077    0.060
 3903.00    0.55194   0.71824    0.059
 3904.00    0.47480   0.72047    0.057
 3905.00    0.43327   0.73015    0.057
 3906.00    0.53126   0.74802    0.058
 3907.00    0.57735   0.77226    0.059
 3908.00    0.45429   0.79908    0.060
 3909.00    0.40526   0.82413    0.061
 3910.00    0.56038   0.84370    0.061
 3911.00    0.77739   0.85548    0.061
 3912.00    1.14059   0.85859    0.063
 3913.00    1.35794   0.85308    0.065
 3914.00    1.27762   0.83962    0.066
 3915.00    1.20233   0.81924    0.067
 3916.00    1.13597   0.79337    0.067
 3917.00    1.10498   0.76402    0.068
 3918.00    1.12895   0.73394    0.068
 3919.00    1.02703   0.70611    0.068
 3920.00    0.75335   0.68278    0.068
 3921.00    0.52489   0.66421    0.068
 3922.00    0.35077   0.64815    0.068
 3923.00    0.48456   0.63041    0.069
 3924.00    0.94446   0.60653    0.071
 3925.00    1.04725   0.57354    0.071
 3926.00    0.81643   0.53110    0.071
 3927.00    0.62592   0.48159    0.070
 3928.00    0.46860   0.42919    0.069
 3929.00    0.39115   0.37878    0.069
 3930.00    0.37159   0.33513    0.069
 3931.00    0.21324   0.30243    0.069
 3932.00   -0.03344   0.28398    0.000
 3933.00   -0.06148   0.28195    0.000
 3934.00    0.03216   0.29683    0.069
 3935.00    0.19578   0.32696    0.069
 3936.00    0.39327   0.36847    0.069
 3937.00    0.49552   0.41590    0.068
 3938.00    0.55796   0.46330    0.068
 3939.00    0.38126   0.50611    0.067
 3940.00    0.11902   0.54250    0.066
 3941.00    0.48169   0.57344    0.067
 3942.00    1.03326   0.60159    0.067
 3943.00    1.12101   0.62996    0.067
 3944.00    1.09227   0.66042    0.067
 3945.00    0.83070   0.69291    0.066
 3946.00    0.52164   0.72567    0.066
 3947.00    0.57538   0.75644    0.067
 3948.00    0.68721   0.78362    0.068
 3949.00    0.78406   0.80641    0.067
 3950.00    0.87913   0.82410    0.067
 3951.00    0.83000   0.83624    0.066
 3952.00    0.76912   0.84287    0.064
 3953.00    0.70247   0.84410    0.064
 3954.00    0.63555   0.83971    0.064
 3955.00    0.62971   0.82898    0.065
 3956.00    0.62310   0.81081    0.066
 3957.00    0.53587   0.78420    0.065
 3958.00    0.45192   0.74859    0.064
 3959.00    0.42999   0.70442    0.065
 3960.00    0.42469   0.65355    0.000
 3961.00    0.60672   0.59877    0.000
 3962.00    0.76157   0.54291    0.000
 3963.00    0.70286   0.48822    0.000
 3964.00    0.64154   0.43679    0.000
 3965.00    0.56475   0.39145    0.000
 3966.00    0.48492   0.35609    0.000
 3967.00    0.39082   0.33510    0.000
 3968.00    0.36032   0.33203    0.000
 3969.00    0.57357   0.34843    0.000
 3970.00    0.75919   0.38322    0.000
 3971.00    0.85651   0.43299    0.000
 3972.00    0.94246   0.49307    0.000
 3973.00    0.99759   0.55881    0.000
 3974.00    0.95155   0.62617    0.000
 3975.00    0.67057   0.69187    0.000
 3976.00    0.48008   0.75298    0.000
 3977.00    0.47134   0.80686    0.000
 3978.00    0.62835   0.85145    0.000
 3979.00    1.07529   0.88596    0.000
 3980.00    1.37473   0.91115    0.000
 3981.00    1.44837   0.92930    0.070
 3982.00    1.42974   0.94361    0.069
 3983.00    1.28703   0.95720    0.069
 3984.00    1.14926   0.97176    0.069
 3985.00    1.01736   0.98707    0.068
 3986.00    0.92832   1.00218    0.067
 3987.00    0.88403   1.01616    0.066
 3988.00    0.89216   1.02826    0.064
 3989.00    0.94859   1.03806    0.063
 3990.00    0.98194   1.04519    0.062
 3991.00    0.99655   1.04918    0.062
 3992.00    0.98258   1.04947    0.061
 3993.00    0.94819   1.04634    0.061
 3994.00    0.95306   1.04187    0.061
 3995.00    0.98254   1.03950    0.062
 3996.00    1.00482   1.04218    0.062
 3997.00    1.02316   1.05128    0.062
 3998.00    0.99160   1.06591    0.062
 3999.00    0.93628   1.08204    0.061
 4000.00    1.06685   1.09357    0.062
 4001.00    1.27382   1.09581    0.062
 4002.00    1.48822   1.08855    0.062
 4003.00    1.70522   1.07559    0.062
 4004.00    1.54064   1.06279    0.062
 4005.00    1.26300   1.05603    0.063
 4006.00    0.95540   1.05880    0.063
 4007.00    0.64043   1.07093    0.063
 4008.00    0.58618   1.08921    0.062
 4009.00    0.58378   1.10951    0.062
 4010.00    0.68616   1.12848    0.063
 4011.00    0.80483   1.14450    0.063
 4012.00    1.18611   1.15692    0.065
 4013.00    1.59758   1.16563    0.066
 4014.00    1.41604   1.17172    0.066
 4015.00    1.18865   1.17636    0.067
 4016.00    0.92573   1.17965    0.065
 4017.00    0.66131   1.18165    0.064
 4018.00    0.99783   1.18247    0.065
 4019.00    1.32683   1.18178    0.066
 4020.00    1.08618   1.17918    0.065
 4021.00    0.86908   1.17566    0.064
 4022.00    1.06739   1.17314    0.064
 4023.00    1.26114   1.17283    0.065
 4024.00    1.40586   1.17440    0.065
 4025.00    1.50320   1.17457    0.065
 4026.00    1.24085   1.16796    0.064
 4027.00    0.99894   1.15089    0.063
 4028.00    0.87495   1.12301    0.063
 4029.00    0.76371   1.08750    0.062
 4030.00    0.71090   1.05188    0.062
 4031.00    0.64156   1.02557    0.061
 4032.00    0.51022   1.01643    0.060
 4033.00    0.45277   1.02765    0.059
 4034.00    0.62696   1.05643    0.060
 4035.00    0.82472   1.09505    0.060
 4036.00    1.08523   1.13371    0.060
 4037.00    1.27920   1.16392    0.060
 4038.00    1.32124   1.18019    0.060
 4039.00    1.30243   1.17926    0.060
 4040.00    1.16333   1.15993    0.060
 4041.00    1.05509   1.12461    0.059
 4042.00    1.00000   1.08076    0.059
 4043.00    0.96771   1.03961    0.059
 4044.00    0.96982   1.01162    0.059
 4045.00    1.02718   1.00355    0.059
 4046.00    1.15779   1.01707    0.060
 4047.00    1.31966   1.04759    0.061
 4048.00    1.51801   1.08550    0.062
 4049.00    1.58848   1.12041    0.062
 4050.00    1.52726   1.14429    0.061
 4051.00    1.33024   1.15353    0.061
 4052.00    1.00991   1.14929    0.060
 4053.00    0.80837   1.13532    0.060
 4054.00    0.70191   1.11653    0.059
 4055.00    0.75005   1.09836    0.059
 4056.00    0.90705   1.08459    0.059
 4057.00    0.94266   1.07525    0.059
 4058.00    0.90327   1.06683    0.060
 4059.00    0.93155   1.05507    0.060
 4060.00    0.99632   1.03918    0.060
 4061.00    0.95876   1.02264    0.060
 4062.00    0.87324   1.00983    0.061
 4063.00    0.83961   1.00438    0.061
 4064.00    0.82695   1.00925    0.062
 4065.00    0.97087   1.02452    0.062
 4066.00    1.16879   1.04531    0.062
 4067.00    1.19875   1.06396    0.062
 4068.00    1.17994   1.07574    0.061
 4069.00    1.30598   1.08107    0.062
 4070.00    1.46681   1.08201    0.062
 4071.00    1.35765   1.07930    0.062
 4072.00    1.19616   1.07305    0.062
 4073.00    0.96519   1.06379    0.061
 4074.00    0.72375   1.05394    0.060
 4075.00    0.68307   1.04792    0.060
 4076.00    0.66460   1.05033    0.059
 4077.00    0.99501   1.06380    0.060
 4078.00    1.35096   1.08719    0.061
 4079.00    1.13992   1.11560    0.061
 4080.00    0.90718   1.14343    0.060
 4081.00    0.88129   1.16699    0.059
 4082.00    0.86522   1.18563    0.058
 4083.00    1.17548   1.20186    0.059
 4084.00    1.46319   1.21914    0.059
 4085.00    1.37935   1.23880    0.059
 4086.00    1.30162   1.25916    0.058
 4087.00    1.28670   1.27677    0.057
 4088.00    1.25892   1.28801    0.057
 4089.00    1.13683   1.29055    0.056
 4090.00    1.02837   1.28419    0.056
 4091.00    0.99642   1.26901    0.056
 4092.00    0.98588   1.24525    0.000
 4093.00    1.07115   1.21530    0.000
 4094.00    1.13215   1.18222    0.000
 4095.00    1.10402   1.14789    0.000
 4096.00    1.02068   1.11308    0.000
 4097.00    0.76757   1.07834    0.000
 4098.00    0.63897   1.04616    0.000
 4099.00    0.83578   1.02161    0.000
 4100.00    1.02971   1.00906    0.000
 4101.00    1.21720   1.01045    0.000
 4102.00    1.27053   1.02588    0.000
 4103.00    1.06281   1.05232    0.000
 4104.00    0.97969   1.08356    0.000
 4105.00    1.10800   1.11304    0.000
 4106.00    1.22038   1.13580    0.000
 4107.00    1.30908   1.14993    0.000
 4108.00    1.24985   1.15692    0.000
 4109.00    0.99730   1.16053    0.000
 4110.00    0.89211   1.16470    0.000
 4111.00    0.95653   1.17135    0.000
 4112.00    1.06980   1.18026    0.000
 4113.00    1.23266   1.18965    0.057
 4114.00    1.30304   1.19614    0.057
 4115.00    1.29062   1.19669    0.058
 4116.00    1.28107   1.19185    0.058
 4117.00    1.27380   1.18456    0.057
 4118.00    1.22906   1.17681    0.082
 4119.00    1.15832   1.17045    0.298
 4120.00    1.14337   1.16762   -1.000
 4121.00    1.16238   1.16933   -1.000
 4122.00    1.25327   1.17391   -1.000
 4123.00    1.38235   1.17777   -1.000
 4124.00    1.46661   1.17803   -1.000
 4125.00    1.53019   1.17317   -1.000
 4126.00    1.50347   1.16270    0.164
 4127.00    1.44090   1.14678    0.069
 4128.00    1.23984   1.12622    0.059
 4129.00    0.99191   1.10364    0.058
 4130.00    1.03047   1.08423    0.058
 4131.00    1.15054   1.07279    0.057
 4132.00    1.28187   1.07288    0.057
 4133.00    1.41585   1.08479    0.057
 4134.00    1.35899   1.10464    0.058
 4135.00    1.26611   1.12806    0.058
 4136.00    1.16920   1.14955    0.057
 4137.00    1.07171   1.16298    0.057
 4138.00    1.25575   1.16357    0.057
 4139.00    1.46972   1.14870    0.057
 4140.00    1.19523   1.12164    0.056
 4141.00    0.88696   1.09209    0.055
 4142.00    0.98237   1.06957    0.055
 4143.00    1.09170   1.05812    0.056
 4144.00    1.21254   1.05777    0.056
 4145.00    1.32202   1.06571    0.056
 4146.00    1.05526   1.07663    0.055
 4147.00    0.81342   1.08607    0.055
 4148.00    0.95700   1.09175    0.055
 4149.00    1.08911   1.09255    0.055
 4150.00    1.10819   1.08923    0.055
 4151.00    1.12048   1.08373    0.055
 4152.00    1.08456   1.07900    0.055
 4153.00    1.08226   1.07733    0.055
 4154.00    1.26350   1.08067    0.054
 4155.00    1.38454   1.09083    0.053
 4156.00    1.24243   1.10740    0.053
 4157.00    1.13479   1.12795    0.052
 4158.00    1.15112   1.14997    0.053
 4159.00    1.17785   1.17155    0.054
 4160.00    1.23593   1.18941    0.054
 4161.00    1.24292   1.19987    0.054
 4162.00    1.11868   1.20213    0.053
 4163.00    1.05552   1.19691    0.053
 4164.00    1.12728   1.18555    0.052
 4165.00    1.20244   1.17150    0.053
 4166.00    1.28412   1.15787    0.053
 4167.00    1.31035   1.14439    0.053
 4168.00    1.24392   1.12881    0.052
 4169.00    1.09911   1.10958    0.052
 4170.00    0.83948   1.08874    0.051
 4171.00    0.80640   1.07021    0.051
 4172.00    1.06509   1.05644    0.054
 4173.00    1.16894   1.04844    0.055
 4174.00    1.09706   1.04624    0.055
 4175.00    1.07162   1.04965    0.054
 4176.00    1.09268   1.05824    0.054
 4177.00    1.11100   1.06977    0.054
 4178.00    1.12692   1.08115    0.054
 4179.00    1.12343   1.09135    0.054
 4180.00    1.10485   1.10131    0.055
 4181.00    1.06028   1.11156    0.054
 4182.00    0.99793   1.12123    0.053
 4183.00    0.97309   1.12746    0.053
 4184.00    0.97072   1.12843    0.054
 4185.00    0.91371   1.12735    0.054
 4186.00    0.82812   1.12811    0.054
 4187.00    0.96724   1.13111    0.054
 4188.00    1.20828   1.13555    0.054
 4189.00    1.26535   1.14212    0.054
 4190.00    1.25063   1.15031    0.054
 4191.00    1.16282   1.15546    0.054
 4192.00    1.05074   1.15252    0.053
 4193.00    1.14658   1.14036    0.054
 4194.00    1.30039   1.12104    0.055
 4195.00    1.19982   1.09745    0.055
 4196.00    1.04091   1.07403    0.054
 4197.00    1.11926   1.05548    0.054
 4198.00    1.24123   1.04359    0.055
 4199.00    1.07392   1.03932    0.054
 4200.00    0.86572   1.04469    0.052
 4201.00    0.91634   1.05961    0.052
 4202.00    0.99335   1.08169    0.051
 4203.00    0.93164   1.10851    0.052
 4204.00    0.86090   1.13738    0.052
 4205.00    0.99340   1.16499    0.052
 4206.00    1.13189   1.18759    0.052
 4207.00    1.10880   1.20267    0.052
 4208.00    1.08551   1.21072    0.052
 4209.00    1.05650   1.21292    0.051
 4210.00    1.02911   1.20910    0.051
 4211.00    1.02509   1.19949    0.051
 4212.00    1.03246   1.18658    0.052
 4213.00    1.14745   1.17651    0.052
 4214.00    1.25115   1.17634    0.052
 4215.00    1.27723   1.18745    0.051
 4216.00    1.29748   1.20572    0.050
 4217.00    1.28672   1.22533    0.050
 4218.00    1.29053   1.23933    0.050
 4219.00    1.35658   1.23945    0.049
 4220.00    1.37702   1.21964    0.048
 4221.00    1.23684   1.17922    0.048
 4222.00    1.14659   1.12224    0.048
 4223.00    1.20423   1.05726    0.049
 4224.00    1.22539   0.99887    0.049
 4225.00    1.15446   0.96354    0.049
 4226.00    1.08905   0.95927    0.048
 4227.00    1.03564   0.98230    0.048
 4228.00    0.99696   1.02341    0.047
 4229.00    0.98607   1.07058    0.048
 4230.00    0.95214   1.11199    0.047
 4231.00    0.88029   1.14167    0.047
 4232.00    0.90012   1.15852    0.046
 4233.00    1.05227   1.16351    0.045
 4234.00    1.07513   1.16193    0.044
 4235.00    0.93381   1.16103    0.045
 4236.00    0.84401   1.16488    0.045
 4237.00    0.81185   1.17556    0.046
 4238.00    0.86359   1.19423    0.046
 4239.00    0.99812   1.21891    0.045
 4240.00    1.06267   1.24544    0.046
 4241.00    1.06632   1.27128    0.046
 4242.00    1.05199   1.29297    0.047
 4243.00    1.02389   1.30408    0.048
 4244.00    0.94986   1.30044    0.048
 4245.00    0.84487   1.28324    0.048
 4246.00    0.89978   1.25633    0.048
 4247.00    1.04909   1.22387    0.048
 4248.00    1.09168   1.19202    0.049
 4249.00    1.07931   1.16784    0.050
 4250.00    0.93999   1.15265    0.050
 4251.00    0.74402   1.14318    0.049
 4252.00    0.84051   1.13921    0.050
 4253.00    1.04912   1.14318    0.051
 4254.00    1.15496   1.15369    0.050
 4255.00    1.22730   1.16393    0.049
 4256.00    1.21001   1.16835    0.049
 4257.00    1.16827   1.16786    0.049
 4258.00    1.10825   1.16816    0.050
 4259.00    1.04413   1.17665    0.050
 4260.00    1.15948   1.19696    0.051
 4261.00    1.30692   1.22559    0.052
 4262.00    1.30860   1.25629    0.053
 4263.00    1.29033   1.28308    0.053
 4264.00    1.16368   1.29875    0.051
 4265.00    1.02645   1.29670    0.048
 4266.00    1.13353   1.27543    0.049
 4267.00    1.25556   1.23676    0.051
 4268.00    1.15561   1.18449    0.049
 4269.00    1.05030   1.12819    0.048
 4270.00    1.06802   1.08134    0.049
 4271.00    1.08270   1.05183    0.049
 4272.00    1.01714   1.04121    0.049
 4273.00    0.95730   1.05161    0.048
 4274.00    0.97611   1.08189    0.048
 4275.00    1.00217   1.12336    0.049
 4276.00    1.09422   1.16484    0.049
 4277.00    1.17710   1.19739    0.049
 4278.00    1.19892   1.21788    0.049
 4279.00    1.21460   1.22854    0.049
 4280.00    1.19848   1.23162    0.049
 4281.00    1.18180   1.22832    0.048
 4282.00    1.16275   1.21894   -2.000
 4283.00    1.15611   1.20381   -2.000
 4284.00    1.19225   1.18573   -2.000
 4285.00    1.24686   1.16609   -2.000
 4286.00    1.35513   1.14330   -2.000
 4287.00    1.38264   1.11857   -2.000
 4288.00    1.20984   1.09896   -2.000
 4289.00    1.06589   1.09066   -2.000
 4290.00    0.98362   1.09303   -2.000
 4291.00    0.96309   1.10006   -2.000
 4292.00    1.05719   1.10541   -2.000
 4293.00    1.14887   1.10599   -2.000
 4294.00    1.23663   1.09807   -2.000
 4295.00    1.26019   1.07783   -2.000
 4296.00    1.19241   1.04526   -2.000
 4297.00    1.09644   1.00488   -2.000
 4298.00    0.96519   0.96550    0.046
 4299.00    0.92360   0.93356    0.046
 4300.00    0.98089   0.90959    0.047
 4301.00    1.02097   0.89292    0.047
 4302.00    1.04429   0.88211    0.046
 4303.00    0.95062   0.87334    0.045
 4304.00    0.75658   0.86400    0.044
 4305.00    0.62759   0.85439    0.044
 4306.00    0.54776   0.84844    0.044
 4307.00    0.65542   0.85289    0.045
 4308.00    0.88759   0.87246    0.045
 4309.00    1.02338   0.90878    0.046
 4310.00    1.10311   0.96158    0.046
 4311.00    1.11612   1.02888    0.045
 4312.00    1.09530   1.10715    0.044
 4313.00    1.11354   1.19350    0.043
 4314.00    1.14893   1.28139    0.043
 4315.00    1.12564   1.35801    0.043
 4316.00    1.08025   1.41383    0.043
 4317.00    1.15324   1.44557    0.044
 4318.00    1.26407   1.45178    0.045
 4319.00    1.23042   1.43335    0.045
 4320.00    1.15816   1.39440    0.045
 4321.00    1.13091   1.33966    0.044
 4322.00    1.11352   1.27916    0.044
 4323.00    1.08954   1.22840    0.044
 4324.00    1.06442   1.20244    0.045
 4325.00    1.01705   1.20875    0.045
 4326.00    0.96674   1.24163    0.045
 4327.00    1.03772   1.28830    0.046
 4328.00    1.12004   1.33840    0.046
 4329.00    1.15191   1.38689    0.045
 4330.00    1.18090   1.42867    0.000
 4331.00    1.15700   1.45707    0.000
 4332.00    1.13335   1.46850    0.000
 4333.00    1.27928   1.46133    0.000
 4334.00    1.41623   1.43302    0.000
 4335.00    1.33779   1.38570    0.000
 4336.00    1.26896   1.33031    0.000
 4337.00    1.32529   1.27740    0.000
 4338.00    1.37579   1.23496    0.000
 4339.00    1.37538   1.21360    0.000
 4340.00    1.34854   1.21723    0.000
 4341.00    1.15094   1.23892    0.000
 4342.00    0.99965   1.27313    0.000
 4343.00    1.08204   1.31606    0.000
 4344.00    1.17770   1.35813    0.000
 4345.00    1.32759   1.39207    0.000
 4346.00    1.43184   1.41695    0.000
 4347.00    1.38173   1.42949    0.000
 4348.00    1.29508   1.42362    0.000
 4349.00    1.10412   1.40147    0.000
 4350.00    0.99876   1.37684    0.000
 4351.00    1.10208   1.36166    0.046
 4352.00    1.21676   1.35704    0.047
 4353.00    1.35535   1.36092    0.047
 4354.00    1.42514   1.37365    0.058
 4355.00    1.36917   1.39221    0.151
 4356.00    1.26937   1.41069   -1.000
 4357.00    1.09954   1.42796   -1.000
 4358.00    1.06002   1.44737   -1.000
 4359.00    1.20321   1.46890   -1.000
 4360.00    1.33628   1.48858   -1.000
 4361.00    1.45688   1.50471   -1.000
 4362.00    1.47100   1.51872    0.188
 4363.00    1.36931   1.52820    0.061
 4364.00    1.34093   1.52734    0.046
 4365.00    1.38287   1.51526    0.046
 4366.00    1.44836   1.49726    0.046
 4367.00    1.53378   1.47778    0.047
 4368.00    1.43622   1.45712    0.046
 4369.00    1.20236   1.43603    0.044
 4370.00    1.12075   1.41505    0.044
 4371.00    1.13875   1.39307    0.045
 4372.00    1.09162   1.37172    0.045
 4373.00    1.00717   1.35632    0.046
 4374.00    1.05586   1.35097    0.046
 4375.00    1.17096   1.35362    0.046
 4376.00    1.12991   1.35593    0.045
 4377.00    1.02147   1.34992    0.045
 4378.00    1.10935   1.33224    0.045
 4379.00    1.26987   1.30221    0.046
 4380.00    1.28240   1.25828    0.046
 4381.00    1.24852   1.20527    0.046
 4382.00    1.22006   1.16050    0.045
 4383.00    1.19300   1.13941    0.045
 4384.00    1.17916   1.14282    0.044
 4385.00    1.16813   1.16145    0.044
 4386.00    1.17098   1.18806    0.044
 4387.00    1.17618   1.21914    0.043
 4388.00    1.17467   1.25141    0.043
 4389.00    1.17231   1.28302    0.043
 4390.00    1.15847   1.31213    0.043
 4391.00    1.14362   1.33608    0.043
 4392.00    1.13659   1.35479    0.043
 4393.00    1.12998   1.37286    0.043
 4394.00    1.20025   1.39478    0.043
 4395.00    1.27248   1.41671    0.043
 4396.00    1.38205   1.42956    0.043
 4397.00    1.48388   1.42896    0.043
 4398.00    1.41545   1.41621    0.043
 4399.00    1.34523   1.39770    0.043
 4400.00    1.25299   1.37700    0.043
 4401.00    1.17036   1.34746    0.043
 4402.00    1.16861   1.30851    0.044
 4403.00    1.16463   1.27654    0.044
 4404.00    1.14676   1.26439    0.043
 4405.00    1.15301   1.26820    0.043
 4406.00    1.27783   1.28314    0.043
 4407.00    1.37868   1.31127    0.044
 4408.00    1.38384   1.35033    0.043
 4409.00    1.39692   1.39105    0.042
 4410.00    1.43625   1.42496    0.042
 4411.00    1.43506   1.44527    0.042
 4412.00    1.32032   1.44800    0.042
 4413.00    1.25510   1.44092    0.042
 4414.00    1.30854   1.43750    0.042
 4415.00    1.32254   1.44117    0.042
 4416.00    1.25491   1.45053    0.042
 4417.00    1.23400   1.46443    0.041
 4418.00    1.29716   1.47758    0.041
 4419.00    1.35949   1.48468    0.041
 4420.00    1.42048   1.48529    0.041
 4421.00    1.43112   1.48289    0.041
 4422.00    1.37217   1.47992    0.042
 4423.00    1.34315   1.47526    0.042
 4424.00    1.35051   1.46951    0.041
 4425.00    1.34672   1.46578    0.041
 4426.00    1.33097   1.46568    0.041
 4427.00    1.29904   1.46533    0.041
 4428.00    1.25179   1.46023    0.041
 4429.00    1.25940   1.45426    0.041
 4430.00    1.31277   1.44962    0.041
 4431.00    1.37038   1.44192    0.042
 4432.00    1.43112   1.43084    0.042
 4433.00    1.42013   1.42259    0.042
 4434.00    1.36289   1.42519    0.041
 4435.00    1.35440   1.44074    0.041
 4436.00    1.37342   1.46236    0.042
 4437.00    1.40614   1.48217    0.042
 4438.00    1.44559   1.49492    0.042
 4439.00    1.47198   1.49943    0.042
 4440.00    1.49284   1.49940    0.042
 4441.00    1.43933   1.50021    0.042
 4442.00    1.35879   1.50662    0.042
 4443.00    1.39357   1.52026    0.042
 4444.00    1.46381   1.53644    0.042
 4445.00    1.53120   1.55074    0.041
 4446.00    1.59785   1.56414    0.041
 4447.00    1.54523   1.57337    0.041
 4448.00    1.46775   1.57232    0.041
 4449.00    1.36006   1.56174    0.041
 4450.00    1.24741   1.54262    0.041
 4451.00    1.24119   1.51379    0.041
 4452.00    1.24808   1.47745    0.042
 4453.00    1.20262   1.43924    0.042
 4454.00    1.15270   1.40683    0.041
 4455.00    1.18754   1.38292    0.041
 4456.00    1.22656   1.36469    0.040
 4457.00    1.31139   1.35204    0.041
 4458.00    1.39553   1.34743    0.041
 4459.00    1.39131   1.35025    0.041
 4460.00    1.38666   1.36150    0.040
 4461.00    1.37320   1.38306    0.000
 4462.00    1.35992   1.40859    0.000
 4463.00    1.34861   1.43140    0.000
 4464.00    1.33123   1.45154    0.000
 4465.00    1.26458   1.46989    0.000
 4466.00    1.21181   1.48590    0.000
 4467.00    1.24343   1.49931    0.000
 4468.00    1.28031   1.51310    0.000
 4469.00    1.34244   1.53109    0.000
 4470.00    1.38870   1.55454    0.000
 4471.00    1.37299   1.58192    0.000
 4472.00    1.36373   1.60841    0.000
 4473.00    1.37542   1.62967    0.000
 4474.00    1.37388   1.64621    0.000
 4475.00    1.33593   1.65772    0.000
 4476.00    1.31523   1.65950    0.000
 4477.00    1.33514   1.64841    0.000
 4478.00    1.35800   1.62817    0.000
 4479.00    1.38686   1.60761    0.000
 4480.00    1.43433   1.59488    0.000
 4481.00    1.51480   1.59394    0.000
 4482.00    1.54867   1.60219    0.041
 4483.00    1.51026   1.61427    0.041
 4484.00    1.49947   1.62644    0.041
 4485.00    1.52627   1.63402    0.040
 4486.00    1.54121   1.63247    0.040
 4487.00    1.54191   1.62217    0.040
 4488.00    1.50850   1.60815    0.041
 4489.00    1.43903   1.59589    0.041
 4490.00    1.34411   1.58639    0.041
 4491.00    1.22546   1.57640    0.040
 4492.00    1.25211   1.56497    0.040
 4493.00    1.39822   1.55785    0.041
 4494.00    1.46923   1.56012    0.042
 4495.00    1.48591   1.57196    0.042
 4496.00    1.41611   1.59104    0.041
 4497.00    1.29139   1.61414    0.041
 4498.00    1.23880   1.63855    0.040
 4499.00    1.22627   1.66301    0.040
 4500.00    1.33986   1.68998    0.040
 4501.00    1.51438   1.72070    0.040
 4502.00    1.54873   1.74896    0.040
 4503.00    1.52459   1.76885    0.041
 4504.00    1.53443   1.78002    0.041
 4505.00    1.55639   1.78463    0.040
 4506.00    1.62665   1.78532    0.041
 4507.00    1.71147   1.78238    0.041
 4508.00    1.64400   1.77494    0.041
 4509.00    1.53839   1.76280    0.040
 4510.00    1.52317   1.74609    0.040
 4511.00    1.52634   1.72725    0.040
 4512.00    1.50424   1.70992    0.040
 4513.00    1.47811   1.69684    0.040
 4514.00    1.53854   1.68865    0.041
 4515.00    1.60925   1.68257    0.041
 4516.00    1.48219   1.67844    0.041
 4517.00    1.33913   1.67973    0.040
 4518.00    1.36100   1.68462    0.041
 4519.00    1.39036   1.68662    0.041
 4520.00    1.37562   1.67864    0.041
 4521.00    1.36099   1.65968    0.040
 4522.00    1.37989   1.63468    0.040
 4523.00    1.39423   1.60400    0.040
 4524.00    1.32309   1.56670    0.040
 4525.00    1.25818   1.52719    0.040
 4526.00    1.26320   1.49168    0.040
 4527.00    1.27224   1.46559    0.040
 4528.00    1.31276   1.45071    0.040
 4529.00    1.34921   1.44572    0.039
 4530.00    1.36157   1.45065    0.040
 4531.00    1.37383   1.46165    0.041
 4532.00    1.38564   1.47445    0.040
 4533.00    1.38747   1.49042    0.040
 4534.00    1.35116   1.51426    0.039
 4535.00    1.30325   1.54689    0.039
 4536.00    1.21832   1.57895    0.039
 4537.00    1.19434   1.60186    0.039
 4538.00    1.33504   1.61634    0.040
 4539.00    1.43812   1.62682    0.041
 4540.00    1.45403   1.63598    0.040
 4541.00    1.47104   1.64084    0.040
 4542.00    1.49023   1.63676    0.040
 4543.00    1.46233   1.62703    0.039
 4544.00    1.35222   1.61925    0.039
 4545.00    1.34164   1.61455    0.039
 4546.00    1.48313   1.60884    0.040
 4547.00    1.48852   1.59973    0.040
 4548.00    1.31120   1.59209    0.039
 4549.00    1.23688   1.59057    0.039
 4550.00    1.28429   1.59158    0.000
 4551.00    1.35385   1.59240    0.000
 4552.00    1.44647   1.59559    0.000
 4553.00    1.53734   1.60480    0.000
 4554.00    1.62660   1.62283    0.000
 4555.00    1.61720   1.64777    0.000
 4556.00    1.52785   1.67341    0.000
 4557.00    1.47134   1.69509    0.000
 4558.00    1.43826   1.71070    0.000
 4559.00    1.46688   1.72063    0.000
 4560.00    1.53411   1.72493    0.000
 4561.00    1.54174   1.72078    0.000
 4562.00    1.51679   1.70979    0.000
 4563.00    1.52647   1.69936    0.000
 4564.00    1.55261   1.69558    0.000
 4565.00    1.56705   1.69981    0.000
 4566.00    1.57669   1.70739    0.000
 4567.00    1.55114   1.71356    0.000
 4568.00    1.51325   1.71742    0.000
 4569.00    1.46390   1.71827    0.000
 4570.00    1.41116   1.71941    0.000
 4571.00    1.50380   1.72460    0.000
 4572.00    1.63204   1.72852    0.000
 4573.00    1.57852   1.72612    0.000
 4574.00    1.48897   1.71993    0.000
 4575.00    1.47856   1.71240    0.000
 4576.00    1.48039   1.70157    0.000
 4577.00    1.48135   1.68401    0.000
 4578.00    1.48221   1.66193    0.000
 4579.00    1.42565   1.64320    0.000
 4580.00    1.36468   1.63288    0.000
 4581.00    1.43482   1.62907    0.000
 4582.00    1.51041   1.62885    0.000
 4583.00    1.50121   1.63258    0.000
 4584.00    1.49189   1.64121    0.000
 4585.00    1.50928   1.65512    0.000
 4586.00    1.52931   1.67166    0.000
 4587.00    1.59553   1.68517    0.000
 4588.00    1.65364   1.69135    0.000
 4589.00    1.62499   1.68938    0.000
 4590.00    1.59205   1.68191    0.000
 4591.00    1.52666   1.67234    0.000
 4592.00    1.46021   1.66141    0.000
 4593.00    1.38765   1.64917    0.000
 4594.00    1.32268   1.63874    0.000
 4595.00    1.29239   1.63304    0.000
 4596.00    1.26803   1.63213    0.000
 4597.00    1.26578   1.63432    0.000
 4598.00    1.28878   1.63598    0.000
 4599.00    1.39068   1.63746    0.000
 4600.00    1.47143   1.64229    0.000
 4601.00    1.49605   1.65038    0.000
 4602.00    1.52671   1.66051    0.000
 4603.00    1.57112   1.67233    0.000
 4604.00    1.57720   1.68789    0.000
 4605.00    1.50764   1.70923    0.000
 4606.00    1.47867   1.73420    0.000
 4607.00    1.51950   1.75783    0.000
 4608.00    1.55823   1.77513    0.000
 4609.00    1.59381   1.78494    0.000
 4610.00    1.62589   1.79002    0.000
 4611.00    1.65333   1.79230    0.000
 4612.00    1.70668   1.79297    0.000
 4613.00    1.79021   1.79360    0.000
 4614.00    1.80838   1.79430    0.000
 4615.00    1.75936   1.79633    0.000
 4616.00    1.71862   1.79951    0.000
 4617.00    1.68539   1.80136    0.000
 4618.00    1.62442   1.80300    0.000
 4619.00    1.54128   1.80581    0.000
 4620.00    1.56427   1.80726    0.000
 4621.00    1.66186   1.80605    0.000
 4622.00    1.67903   1.80373    0.000
 4623.00    1.64661   1.80069    0.000
 4624.00    1.59960   1.79708    0.000
 4625.00    1.54473   1.79410    0.000
 4626.00    1.55239   1.79143    0.000
 4627.00    1.58929   1.78694    0.000
 4628.00    1.55603   1.78164    0.000
 4629.00    1.49448   1.77853    0.000
 4630.00    1.54797   1.77424    0.000
 4631.00    1.64103   1.76340    0.000
 4632.00    1.57900   1.74827    0.000
 4633.00    1.47204   1.73378    0.000
 4634.00    1.48972   1.71985    0.000
 4635.00    1.53725   1.70400    0.000
 4636.00    1.51519   1.68765    0.000
 4637.00    1.47969   1.67458    0.000
 4638.00    1.47063   1.66557    0.000
 4639.00    1.46555   1.66010    0.000
 4640.00    1.48296   1.65596    0.000
 4641.00    1.50285   1.64891    0.000
 4642.00    1.54407   1.63813    0.000
 4643.00    1.58684   1.62532    0.000
 4644.00    1.54464   1.61156    0.000
 4645.00    1.49922   1.59938    0.000
 4646.00    1.42822   1.59385    0.000
 4647.00    1.35834   1.59751    0.000
 4648.00    1.33443   1.60817    0.000
 4649.00    1.31727   1.62227    0.000
 4650.00    1.41053   1.63841    0.000
 4651.00    1.50106   1.65531    0.000
 4652.00    1.56376   1.66946    0.000
 4653.00    1.60630   1.68024    0.000
 4654.00    1.50151   1.69137    0.000
 4655.00    1.42228   1.70566    0.000
 4656.00    1.48595   1.72321    0.000
 4657.00    1.54844   1.74069    0.000
 4658.00    1.60565   1.75341    0.000
 4659.00    1.65890   1.75682    0.000
 4660.00    1.69762   1.74756    0.000
 4661.00    1.70267   1.72651    0.000
 4662.00    1.60442   1.69815    0.000
 4663.00    1.52998   1.66641    0.000
 4664.00    1.51764   1.63201    0.000
 4665.00    1.51847   1.59830    0.000
 4666.00    1.54886   1.57515    0.000
 4667.00    1.54547   1.57005    0.000
 4668.00    1.47648   1.58010    0.000
 4669.00    1.42701   1.59773    0.000
 4670.00    1.41058   1.61869    0.000
 4671.00    1.39403   1.64083    0.000
 4672.00    1.37732   1.66126    0.000
 4673.00    1.39328   1.67752    0.000
 4674.00    1.45183   1.68880    0.000
 4675.00    1.49976   1.69312    0.000
 4676.00    1.53548   1.68926    0.000
 4677.00    1.56896   1.68099    0.000
 4678.00    1.60016   1.67282    0.000
 4679.00    1.58445   1.66619    0.000
 4680.00    1.52683   1.66165    0.000
 4681.00    1.50260   1.66114    0.000
 4682.00    1.50467   1.66502    0.000
 4683.00    1.51177   1.67042    0.000
 4684.00    1.52237   1.67516    0.000
 4685.00    1.52012   1.67838    0.000
 4686.00    1.51007   1.68012    0.000
 4687.00    1.51152   1.68130    0.000
 4688.00    1.51906   1.68224    0.000
 4689.00    1.53425   1.68302    0.000
 4690.00    1.55297   1.68512    0.000
 4691.00    1.55063   1.68963    0.000
 4692.00    1.53995   1.69468    0.000
 4693.00    1.52054   1.69845    0.000
 4694.00    1.49817   1.70003    0.000
 4695.00    1.52077   1.69634    0.000
 4696.00    1.55613   1.68423    0.000
 4697.00    1.58775   1.66706    0.000
 4698.00    1.61851   1.65219    0.000
 4699.00    1.59349   1.64011    0.000
 4700.00    1.55798   1.62717    0.000
 4701.00    1.54602   1.61502    0.000
 4702.00    1.53749   1.60988    0.000
 4703.00    1.45378   1.61230    0.000
 4704.00    1.36213   1.61591    0.000
 4705.00    1.41079   1.61794    0.000
 4706.00    1.46908   1.62088    0.000
 4707.00    1.45243   1.62688    0.000
 4708.00    1.43323   1.63491    0.000
 4709.00    1.44756   1.64519    0.000
 4710.00    1.46107   1.65754    0.000
 4711.00    1.44574   1.66911    0.000
 4712.00    1.43425   1.67925    0.000
 4713.00    1.48156   1.69218    0.000
 4714.00    1.52671   1.71174    0.000
 4715.00    1.55053   1.73424    0.000
 4716.00    1.58300   1.75438    0.000
 4717.00    1.67660   1.77301    0.000
 4718.00    1.75646   1.79234    0.000
 4719.00    1.76164   1.80870    0.000
 4720.00    1.75027   1.81575    0.000
 4721.00    1.66672   1.81303    0.000
 4722.00    1.60725   1.80532    0.000
 4723.00    1.63414   1.79359    0.000
 4724.00    1.66078   1.77427    0.000
 4725.00    1.68666   1.74631    0.000
 4726.00    1.71714   1.71600    0.000
 4727.00    1.75942   1.69166    0.000
 4728.00    1.77333   1.67561    0.000
 4729.00    1.72469   1.66636    0.000
 4730.00    1.66234   1.66330    0.000
 4731.00    1.57378   1.66795    0.000
 4732.00    1.54659   1.67993    0.000
 4733.00    1.62181   1.69501    0.000
 4734.00    1.63356   1.70775    0.000
 4735.00    1.55254   1.71689    0.000
 4736.00    1.55690   1.72760    0.000
 4737.00    1.67103   1.74112    0.000
 4738.00    1.69759   1.75099    0.000
 4739.00    1.62495   1.75517    0.000
 4740.00    1.63208   1.76126    0.000
 4741.00    1.71890   1.77251    0.000
 4742.00    1.72406   1.78220    0.000
 4743.00    1.65726   1.78743    0.000
 4744.00    1.65951   1.79358    0.000
 4745.00    1.71535   1.80259    0.000
 4746.00    1.73730   1.80873    0.000
 4747.00    1.73612   1.80898    0.000
 4748.00    1.72181   1.80615    0.000
 4749.00    1.69964   1.80195    0.000
 4750.00    1.70377   1.79354    0.000
 4751.00    1.72161   1.78094    0.000
 4752.00    1.70442   1.76837    0.000
 4753.00    1.67137   1.75813    0.000
 4754.00    1.66594   1.75028    0.000
 4755.00    1.67127   1.74340    0.000
 4756.00    1.70719   1.73719    0.000
 4757.00    1.75326   1.73183    0.000
 4758.00    1.75788   1.72640    0.000
 4759.00    1.75096   1.71694    0.000
 4760.00    1.71574   1.70136    0.000
 4761.00    1.67403   1.68445    0.035
 4762.00    1.65874   1.67094    0.035
 4763.00    1.64829   1.66041    0.034
 4764.00    1.65966   1.65246    0.035
 4765.00    1.67411   1.65117    0.035
 4766.00    1.71191   1.65949    0.035
 4767.00    1.75207   1.67481    0.035
 4768.00    1.69702   1.69347    0.035
 4769.00    1.63582   1.71179    0.035
 4770.00    1.68502   1.72788    0.035
 4771.00    1.73744   1.74462    0.035
 4772.00    1.73503   1.76349    0.035
 4773.00    1.73287   1.77977    0.035
 4774.00    1.73834   1.78900    0.035
 4775.00    1.74385   1.79487    0.035
 4776.00    1.74992   1.79994    0.035
 4777.00    1.75390   1.79932    0.034
 4778.00    1.73825   1.79123    0.034
 4779.00    1.72080   1.77997    0.034
 4780.00    1.69104   1.76687    0.033
 4781.00    1.67644   1.75034    0.033
 4782.00    1.74213   1.73439    0.034
 4783.00    1.78038   1.72375    0.034
 4784.00    1.70176   1.71552    0.034
 4785.00    1.64965   1.70810    0.033
 4786.00    1.69066   1.70715    0.033
 4787.00    1.71711   1.71396    0.034
 4788.00    1.70056   1.72439    0.034
 4789.00    1.70462   1.73808    0.034
 4790.00    1.76062   1.75673    0.034
 4791.00    1.81500   1.77757    0.034
 4792.00    1.86590   1.79685    0.034
 4793.00    1.88465   1.81263    0.034
 4794.00    1.84292   1.82165    0.035
 4795.00    1.81625   1.82330    0.035
 4796.00    1.81436   1.82088    0.034
 4797.00    1.79705   1.81568    0.034
 4798.00    1.75756   1.80846    0.034
 4799.00    1.76369   1.80274    0.034
 4800.00    1.82765   1.80132    0.034
 4801.00    1.87070   1.80107    0.035
 4802.00    1.89040   1.79755    0.034
 4803.00    1.91128   1.79137    0.035
 4804.00    1.93334   1.78583    0.035
 4805.00    1.91369   1.78106    0.035
 4806.00    1.85780   1.77459    0.034
 4807.00    1.83687   1.76933    0.034
 4808.00    1.84268   1.76973    0.034
 4809.00    1.82380   1.77501    0.034
 4810.00    1.78830   1.78138    0.033
 4811.00    1.79899   1.78939    0.033
 4812.00    1.83691   1.80035    0.033
 4813.00    1.83531   1.81246    0.034
 4814.00    1.81340   1.82380    0.034
 4815.00    1.83526   1.83422    0.035
 4816.00    1.87660   1.84238    0.035
 4817.00    1.84438   1.84592    0.035
 4818.00    1.78403   1.84413    0.034
 4819.00    1.82697   1.83823    0.034
 4820.00    1.90349   1.82902    0.035
 4821.00    1.82636   1.81504    0.034
 4822.00    1.70741   1.79852    0.033
 4823.00    1.71079   1.78680    0.033
 4824.00    1.74150   1.78193    0.034
 4825.00    1.75028   1.77737    0.034
 4826.00    1.75514   1.76965    0.034
 4827.00    1.76677   1.76453    0.034
 4828.00    1.77931   1.76526    0.034
 4829.00    1.81293   1.76593    0.034
 4830.00    1.84860   1.76204    0.033
 4831.00    1.77219   1.75937    0.033
 4832.00    1.68899   1.76348    0.033
 4833.00    1.77955   1.76860    0.033
 4834.00    1.87395   1.76815    0.033
 4835.00    1.82930   1.76591    0.033
 4836.00    1.78420   1.76564    0.032
 4837.00    1.72739   1.76187    0.032
 4838.00    1.67979   1.75328    0.033
 4839.00    1.75793   1.74770    0.033
 4840.00    1.82734   1.74826    0.034
 4841.00    1.81775   1.74895    0.033
 4842.00    1.80598   1.74841    0.033
 4843.00    1.77969   1.75284    0.033
 4844.00    1.75500   1.76199    0.033
 4845.00    1.73853   1.76769    0.032
 4846.00    1.73540   1.76643    0.032
 4847.00    1.78782   1.76335    0.033
 4848.00    1.81595   1.76193    0.000
 4849.00    1.76041   1.75694    0.000
 4850.00    1.71947   1.74395    0.000
 4851.00    1.72089   1.72792    0.000
 4852.00    1.70511   1.71148    0.000
 4853.00    1.64679   1.68809    0.000
 4854.00    1.62329   1.65641    0.000
 4855.00    1.67409   1.62439    0.000
 4856.00    1.69479   1.59400    0.000
 4857.00    1.65972   1.56132    0.000
 4858.00    1.61027   1.52794    0.000
 4859.00    1.53754   1.50054    0.000
 4860.00    1.48923   1.48684    0.000
 4861.00    1.47563   1.49053    0.000
 4862.00    1.49252   1.50475    0.000
 4863.00    1.54751   1.52275    0.000
 4864.00    1.60200   1.54679    0.000
 4865.00    1.65596   1.57322    0.000
 4866.00    1.69145   1.59162    0.000
 4867.00    1.70901   1.60160    0.000
 4868.00    1.71164   1.60822    0.000
 4869.00    1.70147   1.60770    0.000
 4870.00    1.68687   1.60259    0.000
 4871.00    1.66894   1.60645    0.000
 4872.00    1.71523   1.62076    0.000
 4873.00    1.80410   1.63574    0.000
 4874.00    1.86346   1.65226    0.000
 4875.00    1.90570   1.67482    0.032
 4876.00    1.83614   1.69695    0.032
 4877.00    1.71002   1.71396    0.032
 4878.00    1.69156   1.72752    0.032
 4879.00    1.72023   1.73199    0.032
 4880.00    1.73634   1.72491    0.032
 4881.00    1.74773   1.71569    0.032
 4882.00    1.74550   1.70725    0.032
 4883.00    1.73894   1.69137    0.032
 4884.00    1.74264   1.66939    0.032
 4885.00    1.74908   1.65156    0.032
 4886.00    1.70639   1.64125    0.032
 4887.00    1.65298   1.63660    0.032
 4888.00    1.67156   1.63709    0.031
 4889.00    1.70262   1.64420    0.031
 4890.00    1.71484   1.66302    0.032
 4891.00    1.72459   1.69684    0.032
 4892.00    1.78259   1.73707    0.032
 4893.00    1.84508   1.77394    0.032
 4894.00    1.88487   1.80599    0.032
 4895.00    1.92336   1.83346    0.032
 4896.00    1.93239   1.85266    0.032
 4897.00    1.94108   1.85910    0.033
 4898.00    1.98553   1.85337    0.033
 4899.00    2.02566   1.84426    0.033
 4900.00    1.96338   1.83833    0.033
 4901.00    1.90735   1.83113    0.033
 4902.00    1.93219   1.82077    0.032
 4903.00    1.94715   1.81473    0.032
 4904.00    1.87617   1.81379    0.032
 4905.00    1.81482   1.80938    0.033
 4906.00    1.81540   1.79951    0.033
 4907.00    1.81824   1.78954    0.033
 4908.00    1.83246   1.78060    0.033
 4909.00    1.84488   1.77243    0.032
 4910.00    1.84997   1.76816    0.033
 4911.00    1.85070   1.76689    0.033
 4912.00    1.83670   1.76345    0.033
 4913.00    1.82504   1.75593    0.032
 4914.00    1.82005   1.74418    0.032
 4915.00    1.80299   1.72479    0.032
 4916.00    1.75658   1.69719    0.033
 4917.00    1.72609   1.66638    0.033
 4918.00    1.72902   1.63824    0.032
 4919.00    1.73664   1.61866    0.032
 4920.00    1.75280   1.61450    0.032
 4921.00    1.74739   1.62628    0.032
 4922.00    1.70756   1.64635    0.032
 4923.00    1.68273   1.67269    0.032
 4924.00    1.67892   1.70872    0.032
 4925.00    1.72629   1.74856    0.032
 4926.00    1.83670   1.78139    0.032
 4927.00    1.87843   1.80555    0.032
 4928.00    1.84559   1.82234    0.032
 4929.00    1.86230   1.83013    0.032
 4930.00    1.92645   1.82935    0.032
 4931.00    1.92307   1.81829    0.033
 4932.00    1.86267   1.79621    0.032
 4933.00    1.83841   1.77278    0.032
 4934.00    1.84102   1.75579    0.033
 4935.00    1.80450   1.74062    0.032
 4936.00    1.74244   1.72547    0.032
 4937.00    1.80421   1.71846    0.032
 4938.00    1.93675   1.72661    0.032
 4939.00    1.97172   1.74600    0.033
 4940.00    1.95810   1.76698    0.000
 4941.00    1.91120   1.78815    0.000
 4942.00    1.84996   1.81473    0.000
 4943.00    1.92254   1.84120    0.000
 4944.00    2.04453   1.85858    0.000
 4945.00    2.03671   1.87110    0.000
 4946.00    1.98828   1.88471    0.000
 4947.00    1.97295   1.89300    0.000
 4948.00    1.96626   1.89227    0.000
 4949.00    2.00239   1.88819    0.000
 4950.00    2.04764   1.88113    0.000
 4951.00    2.00588   1.86269    0.000
 4952.00    1.94947   1.83235    0.000
 4953.00    1.91133   1.80232    0.000
 4954.00    1.87552   1.77756    0.000
 4955.00    1.86595   1.75014    0.000
 4956.00    1.85870   1.72288    0.000
 4957.00    1.83011   1.71422    0.000
 4958.00    1.80040   1.72478    0.000
 4959.00    1.78378   1.73478    0.000
 4960.00    1.76814   1.73977    0.000
 4961.00    1.81066   1.74968    0.000
 4962.00    1.85280   1.76141    0.000
 4963.00    1.88688   1.76215    0.000
 4964.00    1.91573   1.75418    0.000
 4965.00    1.88034   1.74895    0.000
 4966.00    1.84231   1.74865    0.000
 4967.00    1.78225   1.74965    0.000
 4968.00    1.73303   1.75398    0.000
 4969.00    1.75156   1.76389    0.000
 4970.00    1.77158   1.77673    0.000
 4971.00    1.79892   1.78852    0.000
 4972.00    1.83155   1.79633    0.000
 4973.00    1.88518   1.79781    0.000
 4974.00    1.92755   1.79207    0.000
 4975.00    1.93268   1.77963    0.000
 4976.00    1.91726   1.75894    0.000
 4977.00    1.84440   1.72928    0.000
 4978.00    1.79501   1.69838    0.000
 4979.00    1.80176   1.67159    0.000
 4980.00    1.81006   1.64523    0.000
 4981.00    1.82158   1.62191    0.000
 4982.00    1.81536   1.61260    0.000
 4983.00    1.77725   1.61690    0.000
 4984.00    1.75211   1.62631    0.000
 4985.00    1.74732   1.64100    0.000
 4986.00    1.75914   1.66278    0.000
 4987.00    1.79387   1.68531    0.000
 4988.00    1.84860   1.70198    0.000
 4989.00    1.92764   1.71357    0.000
 4990.00    1.92775   1.72397    0.000
 4991.00    1.84338   1.73256    0.000
 4992.00    1.82144   1.73470    0.000
 4993.00    1.85843   1.73243    0.000
 4994.00    1.89989   1.72987    0.000
 4995.00    1.94506   1.72354    0.000
 4996.00    1.93011   1.71133    0.000
 4997.00    1.87110   1.69574    0.000
 4998.00    1.83051   1.67738    0.000
 4999.00    1.80177   1.65791    0.000
 5000.00    1.77602   1.63884    0.000
 5001.00    1.75197   1.62047    0.000
 5002.00    1.75250   1.60683    0.000
 5003.00    1.76509   1.59937    0.000
 5004.00    1.76968   1.59291    0.000
 5005.00    1.77089   1.58852    0.000
 5006.00    1.78003   1.59170    0.000
 5007.00    1.79204   1.59655    0.000
 5008.00    1.78434   1.59482    0.000
 5009.00    1.77061   1.58909    0.000
 5010.00    1.77369   1.58393    0.000
 5011.00    1.78107   1.57599    0.000
 5012.00    1.73525   1.56420    0.000
 5013.00    1.67837   1.55444    0.000
 5014.00    1.60591   1.55295    0.000
 5015.00    1.53089   1.55695    0.000
 5016.00    1.53992   1.56048    0.000
 5017.00    1.55927   1.56604    0.000
 5018.00    1.59643   1.57858    0.000
 5019.00    1.63509   1.59270    0.000
 5020.00    1.66874   1.60206    0.000
 5021.00    1.70214   1.61052    0.000
 5022.00    1.69719   1.62200    0.000
 5023.00    1.69091   1.63456    0.000
 5024.00    1.63992   1.64666    0.000
 5025.00    1.59467   1.65858    0.000
 5026.00    1.66466   1.67001    0.000
 5027.00    1.73100   1.68483    0.000
 5028.00    1.75485   1.70364    0.000
 5029.00    1.78425   1.71794    0.032
 5030.00    1.85852   1.72468    0.032
 5031.00    1.91740   1.72849    0.031
 5032.00    1.88294   1.72915    0.031
 5033.00    1.85906   1.71811    0.031
 5034.00    1.88580   1.69355    0.031
 5035.00    1.89845   1.66471    0.031
 5036.00    1.85628   1.63830    0.031
 5037.00    1.79945   1.61410    0.031
 5038.00    1.69507   1.59374    0.031
 5039.00    1.61569   1.58163    0.031
 5040.00    1.60494   1.58283    0.031
 5041.00    1.61964   1.60087    0.031
 5042.00    1.69418   1.62629    0.032
 5043.00    1.75316   1.64819    0.032
 5044.00    1.78050   1.67025    0.032
 5045.00    1.78645   1.69189    0.031
 5046.00    1.75456   1.70157    0.031
 5047.00    1.76377   1.69866    0.031
 5048.00    1.83658   1.69546    0.031
 5049.00    1.83776   1.69606    0.031
 5050.00    1.74156   1.69689    0.031
 5051.00    1.75228   1.70070    0.031
 5052.00    1.89099   1.71350    0.032
 5053.00    1.92241   1.73260    0.032
 5054.00    1.84060   1.75128    0.032
 5055.00    1.80418   1.76790    0.032
 5056.00    1.81003   1.78407    0.031
 5057.00    1.85221   1.79716    0.031
 5058.00    1.92422   1.80226    0.032
 5059.00    1.92989   1.79865    0.032
 5060.00    1.88765   1.79018    0.031
 5061.00    1.89574   1.77897    0.031
 5062.00    1.93576   1.76151    0.031
 5063.00    1.89402   1.73689    0.031
 5064.00    1.80695   1.71581    0.031
 5065.00    1.75529   1.70526    0.031
 5066.00    1.72072   1.69472    0.031
 5067.00    1.74267   1.68193    0.031
 5068.00    1.78816   1.67973    0.031
 5069.00    1.79734   1.68605    0.030
 5070.00    1.79359   1.68525    0.030
 5071.00    1.78946   1.67933    0.030
 5072.00    1.78522   1.68060    0.031
 5073.00    1.77749   1.68073    0.031
 5074.00    1.76888   1.66703    0.031
 5075.00    1.77247   1.65013    0.030
 5076.00    1.77854   1.64029    0.030
 5077.00    1.77117   1.62707    0.030
 5078.00    1.76166   1.60574    0.030
 5079.00    1.73827   1.59315    0.030
 5080.00    1.71324   1.59548    0.030
 5081.00    1.71028   1.60055    0.030
 5082.00    1.70909   1.60684    0.029
 5083.00    1.72195   1.62337    0.029
 5084.00    1.73544   1.64747    0.029
 5085.00    1.75365   1.66880    0.029
 5086.00    1.77266   1.68674    0.029
 5087.00    1.82890   1.70578    0.029
 5088.00    1.88421   1.72412    0.029
 5089.00    1.92215   1.73609    0.028
 5090.00    1.95325   1.74157    0.028
 5091.00    1.90813   1.74434    0.029
 5092.00    1.86711   1.74305    0.029
 5093.00    1.85802   1.73299    0.029
 5094.00    1.85069   1.71601    0.029
 5095.00    1.85378   1.69976    0.029
 5096.00    1.85543   1.68535    0.029
 5097.00    1.85037   1.66972    0.029
 5098.00    1.84476   1.65674    0.029
 5099.00    1.83709   1.65326    0.029
 5100.00    1.82928   1.65493    0.029
 5101.00    1.82104   1.65459    0.029
 5102.00    1.80819   1.65249    0.029
 5103.00    1.78290   1.65129    0.029
 5104.00    1.74746   1.64953    0.029
 5105.00    1.68855   1.64362    0.029
 5106.00    1.67795   1.63686    0.029
 5107.00    1.76397   1.63624    0.029
 5108.00    1.80435   1.63967    0.029
 5109.00    1.76522   1.64441    0.030
 5110.00    1.75833   1.65665    0.030
 5111.00    1.80063   1.67452    0.030
 5112.00    1.81132   1.69142    0.030
 5113.00    1.77965   1.70905    0.030
 5114.00    1.78425   1.72537    0.031
 5115.00    1.83165   1.73503    0.031
 5116.00    1.89210   1.73900    0.031
 5117.00    1.96612   1.73647    0.031
 5118.00    1.92170   1.72397    0.031
 5119.00    1.76857   1.70372    0.031
 5120.00    1.73370   1.68103    0.031
 5121.00    1.79451   1.65686    0.030
 5122.00    1.78479   1.63031    0.030
 5123.00    1.72486   1.60792    0.030
 5124.00    1.69684   1.59471    0.030
 5125.00    1.68876   1.58668    0.030
 5126.00    1.65349   1.58362    0.030
 5127.00    1.60338   1.58862    0.030
 5128.00    1.65113   1.59803    0.031
 5129.00    1.74531   1.60942    0.031
 5130.00    1.73308   1.62473    0.031
 5131.00    1.67729   1.63877    0.030
 5132.00    1.71656   1.64713    0.030
 5133.00    1.78906   1.65320    0.030
 5134.00    1.80039   1.65612    0.031
 5135.00    1.79368   1.65172    0.031
 5136.00    1.77080   1.64394    0.031
 5137.00    1.74397   1.63388    0.031
 5138.00    1.76158   1.62024    0.031
 5139.00    1.78799   1.61273    0.031
 5140.00    1.78749   1.60810    0.031
 5141.00    1.78284   1.59659    0.031
 5142.00    1.76285   1.58988    0.031
 5143.00    1.74110   1.59186    0.031
 5144.00    1.76884   1.58929    0.031
 5145.00    1.80036   1.58364    0.030
 5146.00    1.78114   1.58242    0.030
 5147.00    1.75984   1.58320    0.031
 5148.00    1.70466   1.58383    0.030
 5149.00    1.65042   1.58449    0.030
 5150.00    1.64767   1.58760    0.030
 5151.00    1.64844   1.59590    0.030
 5152.00    1.71012   1.60787    0.030
 5153.00    1.77025   1.62184    0.029
 5154.00    1.81380   1.63853    0.030
 5155.00    1.84932   1.65691    0.030
 5156.00    1.82432   1.67333    0.030
 5157.00    1.80102   1.68177    0.030
 5158.00    1.78748   1.67987    0.030
 5159.00    1.77194   1.67016    0.030
 5160.00    1.74725   1.64776    0.030
 5161.00    1.72010   1.60818    0.030
 5162.00    1.68374   1.55979    0.030
 5163.00    1.64183   1.50657    0.029
 5164.00    1.58264   1.44743    0.029
 5165.00    1.52633   1.38993    0.029
 5166.00    1.47766   1.33977    0.029
 5167.00    1.42539   1.29882    0.029
 5168.00    1.36493   1.27318    0.029
 5169.00    1.32854   1.26607    0.028
 5170.00    1.33958   1.26901    0.029
 5171.00    1.36511   1.27881    0.029
 5172.00    1.41552   1.30567    0.028
 5173.00    1.45134   1.34750    0.028
 5174.00    1.46520   1.38608    0.028
 5175.00    1.48997   1.41569    0.028
 5176.00    1.52915   1.44261    0.029
 5177.00    1.57942   1.45957    0.029
 5178.00    1.64258   1.45552    0.029
 5179.00    1.63895   1.43903    0.029
 5180.00    1.56678   1.42384    0.028
 5181.00    1.51667   1.40917    0.028
 5182.00    1.48651   1.39517    0.028
 5183.00    1.47869   1.39662    0.028
 5184.00    1.48868   1.41923    0.028
 5185.00    1.54819   1.45038    0.028
 5186.00    1.64242   1.48141    0.029
 5187.00    1.67626   1.50996    0.029
 5188.00    1.67293   1.53790    0.029
 5189.00    1.67879   1.56168    0.029
 5190.00    1.68957   1.56928    0.000
 5191.00    1.70660   1.57005    0.000
 5192.00    1.72654   1.58116    0.000
 5193.00    1.74607   1.59326    0.000
 5194.00    1.76542   1.59920    0.000
 5195.00    1.81470   1.61279    0.000
 5196.00    1.87426   1.63190    0.000
 5197.00    1.86020   1.64249    0.000
 5198.00    1.82486   1.64768    0.000
 5199.00    1.81961   1.64869    0.000
 5200.00    1.82154   1.63663    0.000
 5201.00    1.83315   1.61507    0.000
 5202.00    1.84662   1.59239    0.000
 5203.00    1.83075   1.56389    0.000
 5204.00    1.81050   1.53252    0.000
 5205.00    1.72909   1.51428    0.000
 5206.00    1.64098   1.50824    0.000
 5207.00    1.67162   1.50630    0.000
 5208.00    1.71084   1.51854    0.000
 5209.00    1.71720   1.54560    0.000
 5210.00    1.72233   1.57443    0.000
 5211.00    1.76865   1.60382    0.030
 5212.00    1.81543   1.63448    0.030
 5213.00    1.87155   1.66106    0.030
 5214.00    1.92021   1.68051    0.031
 5215.00    1.84800   1.69594    0.030
 5216.00    1.78898   1.70927    0.030
 5217.00    1.86411   1.71880    0.030
 5218.00    1.92653   1.72182    0.030
 5219.00    1.89650   1.71756    0.030
 5220.00    1.87310   1.70863    0.030
 5221.00    1.88668   1.69279    0.030
 5222.00    1.88604   1.66865    0.030
 5223.00    1.82216   1.64486    0.030
 5224.00    1.77122   1.62724    0.030
 5225.00    1.76763   1.61209    0.030
 5226.00    1.75705   1.60499    0.030
 5227.00    1.72510   1.61486    0.029
 5228.00    1.71309   1.62964    0.029
 5229.00    1.75298   1.64358    0.029
 5230.00    1.78311   1.66539    0.029
 5231.00    1.79144   1.68638    0.029
 5232.00    1.82138   1.70189    0.029
 5233.00    1.89324   1.72115    0.029
 5234.00    1.96094   1.74069    0.029
 5235.00    2.02164   1.75771    0.029
 5236.00    2.03078   1.77600    0.029
 5237.00    1.96356   1.79242    0.029
 5238.00    1.91736   1.80300    0.029
 5239.00    1.89856   1.81003    0.029
 5240.00    1.92390   1.81536    0.029
 5241.00    1.99987   1.81324    0.029
 5242.00    2.02905   1.80205    0.029
 5243.00    2.01089   1.79048    0.029
 5244.00    1.98173   1.77870    0.029
 5245.00    1.94276   1.75758    0.029
 5246.00    1.92039   1.73362    0.029
 5247.00    1.91105   1.72063    0.029
 5248.00    1.89884   1.71153    0.029
 5249.00    1.88463   1.69952    0.029
 5250.00    1.90925   1.69684    0.029
 5251.00    1.95741   1.70538    0.029
 5252.00    1.95626   1.71625    0.029
 5253.00    1.92902   1.72730    0.029
 5254.00    1.92582   1.73895    0.029
 5255.00    1.93367   1.75202    0.030
 5256.00    1.98643   1.75949    0.030
 5257.00    2.05696   1.75399    0.030
 5258.00    2.05919   1.73811    0.030
 5259.00    2.03842   1.71340    0.031
 5260.00    2.00665   1.67795    0.031
 5261.00    1.97178   1.63244    0.031
 5262.00    1.90125   1.58588    0.031
 5263.00    1.82239   1.54694    0.031
 5264.00    1.74002   1.51010    0.031
 5265.00    1.65698   1.47646    0.031
 5266.00    1.62645   1.46412    0.031
 5267.00    1.60354   1.46593    0.031
 5268.00    1.67748   1.46458    0.031
 5269.00    1.76162   1.47824    0.032
 5270.00    1.69203   1.51468    0.031
 5271.00    1.61196   1.54913    0.031
 5272.00    1.72080   1.58168    0.031
 5273.00    1.83598   1.62518    0.032
 5274.00    1.88164   1.66459    0.032
 5275.00    1.92766   1.69443    0.032
 5276.00    1.98768   1.72352    0.031
 5277.00    2.04374   1.74546    0.031
 5278.00    2.03949   1.75720    0.031
 5279.00    2.03217   1.76410    0.031
 5280.00    1.99502   1.76935    0.030
 5281.00    1.97017   1.77628    0.030
 5282.00    2.03201   1.78464    0.030
 5283.00    2.06815   1.79585    0.030
 5284.00    1.96495   1.81520    0.030
 5285.00    1.90562   1.83789    0.029
 5286.00    2.03692   1.85689    0.030
 5287.00    2.13858   1.87293    0.030
 5288.00    2.13421   1.88540    0.030
 5289.00    2.14327   1.89034    0.030
 5290.00    2.19267   1.88627    0.030
 5291.00    2.22131   1.87422    0.030
 5292.00    2.19684   1.85477    0.030
 5293.00    2.15565   1.83043    0.030
 5294.00    2.07764   1.80542    0.030
 5295.00    2.02609   1.78201    0.029
 5296.00    2.02500   1.76071    0.029
 5297.00    2.02075   1.74731    0.029
 5298.00    2.01127   1.74902    0.029
 5299.00    2.01046   1.75909    0.030
 5300.00    2.02232   1.77240    0.030
 5301.00    2.02716   1.79514    0.030
 5302.00    2.02300   1.82337    0.030
 5303.00    2.04391   1.84858    0.030
 5304.00    2.09319   1.87178    0.030
 5305.00    2.14308   1.89228    0.030
 5306.00    2.19357   1.90631    0.030
 5307.00    2.19715   1.91635    0.030
 5308.00    2.15946   1.92334    0.030
 5309.00    2.14956   1.92434    0.030
 5310.00    2.16119   1.92186    0.030
 5311.00    2.19803   1.91746    0.030
 5312.00    2.25204   1.90912    0.031
 5313.00    2.26876   1.89984    0.031
 5314.00    2.26321   1.89089    0.032
 5315.00    2.27573   1.87888    0.032
 5316.00    2.29766   1.86643    0.031
 5317.00    2.25430   1.85549    0.031
 5318.00    2.18146   1.84153    0.030
 5319.00    2.13052   1.82311    0.030
 5320.00    2.08809   1.80171    0.030
 5321.00    2.05606   1.77910    0.030
 5322.00    2.02746   1.75271    0.030
 5323.00    2.02845   1.71975    0.030
 5324.00    2.03764   1.69094    0.030
 5325.00    1.95752   1.67261    0.030
 5326.00    1.85703   1.65576    0.030
 5327.00    1.84403   1.64411    0.030
 5328.00    1.84700   1.65246    0.030
 5329.00    1.86005   1.67430    0.030
 5330.00    1.87452   1.69846    0.030
 5331.00    1.88854   1.72593    0.030
 5332.00    1.90250   1.75501    0.029
 5333.00    1.91430   1.78124    0.029
 5334.00    1.92595   1.79993    0.029
 5335.00    1.98491   1.80756    0.030
 5336.00    2.04508   1.80770    0.030
 5337.00    2.02934   1.80670    0.030
 5338.00    2.01472   1.80144    0.030
 5339.00    2.03195   1.79052    0.030
 5340.00    2.04568   1.78565    0.029
 5341.00    2.00926   1.78682    0.029
 5342.00    1.97817   1.78578    0.029
 5343.00    1.99698   1.78819    0.029
 5344.00    2.01555   1.79283    0.029
 5345.00    2.03248   1.79616    0.029
 5346.00    2.04426   1.80502    0.029
 5347.00    2.02892   1.81535    0.029
 5348.00    2.02223   1.82492    0.029
 5349.00    2.05230   1.84184    0.029
 5350.00    2.07383   1.86450    0.029
 5351.00    2.06541   1.88573    0.029
 5352.00    2.07005   1.90594    0.029
 5353.00    2.11318   1.92798    0.029
 5354.00    2.15023   1.94660    0.029
 5355.00    2.17201   1.95700    0.029
 5356.00    2.19923   1.96274    0.029
 5357.00    2.23819   1.96255    0.029
 5358.00    2.25372   1.95477    0.029
 5359.00    2.22524   1.94286    0.029
 5360.00    2.19751   1.92527    0.029
 5361.00    2.17104   1.90332    0.029
 5362.00    2.15492   1.88256    0.029
 5363.00    2.15369   1.85909    0.029
 5364.00    2.11361   1.83339    0.029
 5365.00    2.02439   1.81202    0.029
 5366.00    1.98570   1.79101    0.029
 5367.00    2.00335   1.77196    0.029
 5368.00    1.99967   1.76189   -2.000
 5369.00    1.97502   1.75714   -2.000
 5370.00    1.93859   1.75777   -2.000
 5371.00    1.89194   1.77132   -2.000
 5372.00    1.92654   1.79241   -2.000
 5373.00    2.02321   1.81224   -2.000
 5374.00    2.10041   1.83546   -2.000
 5375.00    2.16454   1.85749   -2.000
 5376.00    2.15986   1.87064   -2.000
 5377.00    2.11471   1.88135   -2.000
 5378.00    2.12043   1.88827   -2.000
 5379.00    2.15224   1.88667   -2.000
 5380.00    2.10692   1.88442   -2.000
 5381.00    2.02734   1.88264   -2.000
 5382.00    2.05184   1.87558   -2.000
 5383.00    2.11605   1.86928    0.030
 5384.00    2.10094   1.86493    0.030
 5385.00    2.06010   1.85521    0.030
 5386.00    2.06306   1.84346    0.030
 5387.00    2.07792   1.83240    0.030
 5388.00    2.05479   1.81754    0.029
 5389.00    2.02319   1.79993    0.029
 5390.00    2.02392   1.78374    0.029
 5391.00    2.03039   1.76945    0.029
 5392.00    1.99130   1.75389    0.029
 5393.00    1.94603   1.73915    0.029
 5394.00    1.95481   1.73305    0.029
 5395.00    1.96881   1.72827    0.029
 5396.00    1.96549   1.71965    0.029
 5397.00    1.96113   1.72081    0.029
 5398.00    1.92204   1.72570    0.029
 5399.00    1.88257   1.72036    0.029
 5400.00    1.93242   1.71465    0.028
 5401.00    1.97831   1.71133    0.028
 5402.00    1.92229   1.70061    0.028
 5403.00    1.87120   1.68785    0.028
 5404.00    1.88686   1.67983    0.028
 5405.00    1.90279   1.67428    0.029
 5406.00    1.92120   1.67569    0.028
 5407.00    1.93192   1.68627    0.028
 5408.00    1.89175   1.69994    0.028
 5409.00    1.86513   1.71827    0.028
 5410.00    1.90818   1.74426    0.028
 5411.00    1.94595   1.77069    0.028
 5412.00    1.96182   1.79479    0.028
 5413.00    1.97951   1.81757    0.028
 5414.00    2.00345   1.83655    0.028
 5415.00    2.02790   1.85201    0.028
 5416.00    2.05386   1.86165    0.028
 5417.00    2.08132   1.86538    0.029
 5418.00    2.11251   1.86778    0.029
 5419.00    2.13201   1.86487    0.029
 5420.00    2.12660   1.85838    0.029
 5421.00    2.12530   1.85577    0.029
 5422.00    2.13160   1.84945    0.029
 5423.00    2.11126   1.83963    0.029
 5424.00    2.04788   1.83415    0.029
 5425.00    2.02892   1.82375    0.029
 5426.00    2.07291   1.81123    0.029
 5427.00    2.09504   1.80181    0.029
 5428.00    2.08989   1.78380    0.029
 5429.00    2.08307   1.76810    0.029
 5430.00    2.07441   1.76331    0.029
 5431.00    2.02825   1.75515    0.029
 5432.00    1.94573   1.75111    0.029
 5433.00    1.95048   1.75989    0.029
 5434.00    2.02983   1.77319    0.029
 5435.00    2.05532   1.79071    0.029
 5436.00    2.04027   1.81365    0.029
 5437.00    2.05081   1.83785    0.029
 5438.00    2.07827   1.85878    0.029
 5439.00    2.11031   1.87356    0.029
 5440.00    2.14500   1.88069    0.029
 5441.00    2.16283   1.87972    0.029
 5442.00    2.17216   1.86984    0.029
 5443.00    2.16338   1.85423    0.029
 5444.00    2.14669   1.83898    0.029
 5445.00    2.13034   1.82203    0.029
 5446.00    2.11412   1.80710    0.028
 5447.00    2.10503   1.80135    0.028
 5448.00    2.09822   1.79692    0.028
 5449.00    2.05528   1.79237    0.028
 5450.00    2.00274   1.79137    0.028
 5451.00    1.98460   1.78765    0.028
 5452.00    1.97395   1.78355    0.028
 5453.00    1.95594   1.78217    0.028
 5454.00    1.93666   1.77847    0.028
 5455.00    1.96155   1.77790    0.028
 5456.00    1.99222   1.78294    0.028
 5457.00    1.98121   1.78736    0.028
 5458.00    1.96635   1.79122    0.029
 5459.00    1.96563   1.79431    0.028
 5460.00    1.96570   1.79832    0.028
 5461.00    1.97566   1.80163    0.028
 5462.00    1.98609   1.80010    0.028
 5463.00    2.02167   1.80195    0.028
 5464.00    2.05588   1.80729    0.027
 5465.00    2.05775   1.80654    0.028
 5466.00    2.06098   1.80461    0.028
 5467.00    2.08171   1.80614    0.028
 5468.00    2.09868   1.80249    0.028
 5469.00    2.08315   1.79082    0.028
 5470.00    2.06680   1.78138    0.028
 5471.00    2.04514   1.77319    0.029
 5472.00    2.01751   1.75590    0.029
 5473.00    1.95993   1.74119    0.028
 5474.00    1.91710   1.73636    0.028
 5475.00    1.93417   1.72768    0.029
 5476.00    1.93723   1.72026    0.029
 5477.00    1.89317   1.72461    0.029
 5478.00    1.86297   1.73178   -2.000
 5479.00    1.87218   1.73720   -2.000
 5480.00    1.88608   1.74625   -2.000
 5481.00    1.91135   1.76039   -2.000
 5482.00    1.92885   1.77246   -2.000
 5483.00    1.93007   1.78022   -2.000
 5484.00    1.90220   1.79105   -2.000
 5485.00    1.82138   1.80110   -2.000
 5486.00    1.79272   1.80306   -2.000
 5487.00    1.84709   1.80676   -2.000
 5488.00    1.93468   1.81383   -2.000
 5489.00    2.06870   1.81321   -2.000
 5490.00    2.21454   1.81273   -2.000
 5491.00    2.37494   1.81826   -2.000
 5492.00    2.40116   1.81816   -2.000
 5493.00    2.28198   1.81470   -2.000
 5494.00    2.26931   1.81698   -2.000
 5495.00    2.35846   1.81808   -2.000
 5496.00    2.38908   1.81279   -2.000
 5497.00    2.37037   1.80971   -2.000
 5498.00    2.23527   1.80962   -2.000
 5499.00    2.01380   1.80353   -2.000
 5500.00    1.96182   1.79610   -2.000
 5501.00    2.02033   1.79285   -2.000
 5502.00    2.05570   1.78596    0.028
 5503.00    2.07788   1.77917    0.028
 5504.00    2.05943   1.77729    0.028
 5505.00    2.02078   1.77125    0.028
 5506.00    2.02325   1.76662    0.028
 5507.00    2.04341   1.76683    0.028
 5508.00    2.02728   1.76134    0.028
 5509.00    1.99780   1.75694    0.028
 5510.00    1.96920   1.75742    0.027
 5511.00    1.94087   1.75577    0.027
 5512.00    1.97399   1.75758    0.028
 5513.00    2.02310   1.76506    0.028
 5514.00    2.02952   1.77536    0.028
 5515.00    2.02687   1.78873    0.028
 5516.00    1.97694   1.80323    0.028
 5517.00    1.91907   1.81870    0.028
 5518.00    1.94246   1.83198    0.028
 5519.00    1.97614   1.84015    0.028
 5520.00    1.98479   1.84498    0.028
 5521.00    1.99123   1.84447    0.029
 5522.00    2.02135   1.83939    0.028
 5523.00    2.05271   1.83179    0.028
 5524.00    2.10262   1.82038    0.028
 5525.00    2.15117   1.81078    0.028
 5526.00    2.07095   1.80445    0.028
 5527.00    1.99467   1.79700    0.028
 5528.00    2.00318   1.79423    0.028
 5529.00    2.01381   1.79785    0.028
 5530.00    2.05034   1.80024    0.028
 5531.00    2.08139   1.80277    0.028
 5532.00    2.06671   1.81025    0.028
 5533.00    2.05464   1.81659    0.028
 5534.00    2.05884   1.81957    0.028
 5535.00    2.05967   1.82648    0.028
 5536.00    2.04407   1.83386    0.028
 5537.00    2.03707   1.83826    0.028
 5538.00    2.06416   1.84469    0.028
 5539.00    2.08728   1.85027    0.028
 5540.00    2.09731   1.85440    0.028
 5541.00    2.09622   1.85916    0.027
 5542.00    2.06411   1.86119    0.027
 5543.00    2.04476   1.86437    0.027
 5544.00    2.05585   1.87009    0.027
 5545.00    2.07354   1.87283    0.027
 5546.00    2.10482   1.87660    0.027
 5547.00    2.13089   1.88289    0.027
 5548.00    2.14760   1.88543    0.027
 5549.00    2.15034   1.88577    0.027
 5550.00    2.13118   1.88576    0.027
 5551.00    2.12677   1.88304    0.027
 5552.00    2.14267   1.87837    0.027
 5553.00    2.15665   1.87232    0.027
 5554.00    2.16831   1.86651    0.027
 5555.00    2.16798   1.86148    0.027
 5556.00    2.15483   1.85468    0.027
 5557.00    2.14615   1.84887    0.027
 5558.00    2.14166   1.84385    0.028
 5559.00    2.10205   1.83604    0.028
 5560.00    2.03327   1.82952    0.027
 5561.00    2.00219   1.82299    0.027
 5562.00    1.99867   1.81340    0.028
 5563.00    2.03331   1.80721    0.028
 5564.00    2.09245   1.80280    0.027
 5565.00    2.09480   1.79485    0.028
 5566.00    2.06523   1.79112    0.028
 5567.00    2.06138   1.79310    0.028
 5568.00    2.07011   1.79021    0.027
 5569.00    2.05747   1.78895    0.027
 5570.00    2.03579   1.79745    0.028
 5571.00    2.03973   1.80056    0.028
 5572.00    2.05294   1.80094    0.028
 5573.00    2.02181   1.81242    0.027
 5574.00    1.97711   1.81913    0.027
 5575.00    1.98879   1.81916    0.027
 5576.00    2.01483   1.82732    0.028
 5577.00    2.03217   1.83057    0.028
 5578.00    2.04771   1.82498    0.027
 5579.00    2.06318   1.82280    0.027
 5580.00    2.07864   1.81498    0.027
 5581.00    2.09380   1.79923    0.027
 5582.00    2.10891   1.78432    0.028
 5583.00    2.07969   1.76592    0.027
 5584.00    2.04674   1.74540    0.027
 5585.00    1.99207   1.72788    0.027
 5586.00    1.93635   1.71301    0.027
 5587.00    1.94381   1.70331    0.027
 5588.00    1.95179   1.69904    0.027
 5589.00    1.93447   1.70093    0.027
 5590.00    1.91924   1.70752    0.027
 5591.00    1.94532   1.71588    0.027
 5592.00    1.96817   1.72825    0.028
 5593.00    1.95335   1.73831    0.028
 5594.00    1.93963   1.74395    0.028
 5595.00    1.93469   1.75174    0.027
 5596.00    1.93822   1.75450    0.027
 5597.00    1.99300   1.75184    0.028
 5598.00    2.03062   1.75378    0.028
 5599.00    1.98646   1.75610    0.028
 5600.00    1.95793   1.75872    0.028
 5601.00    1.99010   1.76822    0.028
 5602.00    2.01310   1.78178    0.028
 5603.00    2.00642   1.79825    0.028
 5604.00    2.01092   1.81680    0.028
 5605.00    2.04603   1.83434    0.028
 5606.00    2.06436   1.85000    0.027
 5607.00    2.04333   1.86062    0.027
 5608.00    2.03594   1.86426    0.027
 5609.00    2.05624   1.86293    0.027
 5610.00    2.05986   1.85561    0.027
 5611.00    2.03403   1.84097    0.027
 5612.00    2.02505   1.82583    0.027
 5613.00    2.04209   1.81150    0.027
 5614.00    2.02198   1.79371    0.027
 5615.00    1.95143   1.78164    0.027
 5616.00    1.91512   1.77677    0.026
 5617.00    1.91971   1.77028    0.026
 5618.00    1.93657   1.76791    0.026
 5619.00    1.96637   1.77098    0.026
 5620.00    1.96588   1.77103    0.026
 5621.00    1.93725   1.77131    0.026
 5622.00    1.91655   1.77507    0.026
 5623.00    1.90235   1.77690    0.026
 5624.00    1.91215   1.78013    0.026
 5625.00    1.93927   1.78914    0.026
 5626.00    1.96046   1.79742    0.026
 5627.00    1.97791   1.80530    0.026
 5628.00    1.98033   1.81684    0.026
 5629.00    1.97443   1.82543    0.026
 5630.00    2.01441   1.82892    0.026
 5631.00    2.07647   1.83109    0.026
 5632.00    2.09982   1.82978    0.026
 5633.00    2.10709   1.82375    0.026
 5634.00    2.07154   1.81648    0.026
 5635.00    2.02078   1.80944    0.026
 5636.00    1.95560   1.80152    0.026
 5637.00    1.88609   1.79426    0.026
 5638.00    1.90148   1.79080    0.026
 5639.00    1.93801   1.78878    0.026
 5640.00    1.94889   1.78684    0.026
 5641.00    1.95458   1.78939    0.026
 5642.00    1.99530   1.79362    0.026
 5643.00    2.04157   1.79654    0.026
 5644.00    2.05802   1.80224    0.026
 5645.00    2.07096   1.80819    0.026
 5646.00    2.04934   1.81256    0.026
 5647.00    2.02496   1.81737    0.026
 5648.00    1.98747   1.81994    0.026
 5649.00    1.94939   1.82088    0.027
 5650.00    2.01482   1.82014    0.026
 5651.00    2.07933   1.81499    0.026
 5652.00    2.04185   1.80887    0.026
 5653.00    2.00409   1.80064    0.026
 5654.00    1.96110   1.78711    0.026
 5655.00    1.92170   1.77670    0.026
 5656.00    1.92190   1.76871    0.026
 5657.00    1.91648   1.75656    0.026
 5658.00    1.86738   1.75098    0.026
 5659.00    1.83118   1.75367    0.026
 5660.00    1.87064   1.75386    0.025
 5661.00    1.90920   1.75715    0.025
 5662.00    1.94357   1.76762    0.026
 5663.00    1.96964   1.77660    0.026
 5664.00    1.96415   1.78411    0.025
 5665.00    1.96623   1.79395    0.025
 5666.00    1.99232   1.80295    0.025
 5667.00    2.01195   1.81108    0.025
 5668.00    2.01423   1.82039    0.025
 5669.00    2.00930   1.82976    0.025
 5670.00    1.98770   1.83876    0.025
 5671.00    1.99187   1.84800    0.025
 5672.00    2.04746   1.85708    0.026
 5673.00    2.08813   1.86389    0.026
 5674.00    2.10284   1.86729    0.026
 5675.00    2.09614   1.86892    0.026
 5676.00    2.05683   1.86826    0.026
 5677.00    2.04156   1.86308    0.026
 5678.00    2.05845   1.85525    0.026
 5679.00    2.06219   1.84766    0.026
 5680.00    2.05044   1.83913    0.026
 5681.00    2.03329   1.82889    0.026
 5682.00    2.01053   1.82074    0.026
 5683.00    2.03255   1.81585    0.026
 5684.00    2.09559   1.81180    0.026
 5685.00    2.09868   1.81017    0.026
 5686.00    2.05334   1.81267    0.026
 5687.00    2.00892   1.81733    0.026
 5688.00    1.96515   1.82380    0.025
 5689.00    1.96182   1.83196    0.025
 5690.00    1.98370   1.83922    0.026
 5691.00    2.00226   1.84560    0.026
 5692.00    2.01902   1.85031    0.025
 5693.00    2.05662   1.85066    0.026
 5694.00    2.10409   1.84695    0.026
 5695.00    2.10646   1.84134    0.026
 5696.00    2.09041   1.83301    0.026
 5697.00    2.09224   1.82034    0.026
 5698.00    2.10030   1.80879    0.026
 5699.00    2.08463   1.79838    0.026
 5700.00    2.06198   1.78528    0.026
 5701.00    2.01960   1.77425    0.026
 5702.00    1.97240   1.76454    0.025
 5703.00    1.94648   1.75443    0.025
 5704.00    1.92474   1.74523    0.025
 5705.00    1.94808   1.73531    0.025
 5706.00    1.97834   1.72956    0.025
 5707.00    1.95351   1.72652    0.025
 5708.00    1.92243   1.72340    0.025
 5709.00    1.93873   1.72982    0.025
 5710.00    1.95863   1.74052    0.025
 5711.00    1.98367   1.75091    0.025
 5712.00    2.00892   1.77063    0.025
 5713.00    2.05479   1.79137    0.025
 5714.00    2.09896   1.80843    0.025
 5715.00    2.06647   1.82980    0.025
 5716.00    2.03524   1.84862    0.025
 5717.00    2.02562   1.86218    0.025
 5718.00    2.01912   1.87651    0.025
 5719.00    2.04561   1.88722    0.026
 5720.00    2.07427   1.89301    0.026
 5721.00    2.11928   1.89827    0.025
 5722.00    2.15508   1.90015    0.025
 5723.00    2.13834   1.89773    0.025
 5724.00    2.12421   1.89529    0.026
 5725.00    2.12197   1.89186    0.026
 5726.00    2.12007   1.88599    0.026
 5727.00    2.11941   1.88179    0.026
 5728.00    2.11457   1.88014    0.026
 5729.00    2.09670   1.87841    0.025
 5730.00    2.08468   1.87717    0.025
 5731.00    2.08812   1.87911    0.025
 5732.00    2.09779   1.88235    0.026
 5733.00    2.12156   1.88362    0.026
 5734.00    2.13173   1.88563    0.026
 5735.00    2.11518   1.88826    0.025
 5736.00    2.10341   1.88876    0.025
 5737.00    2.09983   1.88918    0.025
 5738.00    2.10134   1.88938    0.025
 5739.00    2.11050   1.88850    0.025
 5740.00    2.11280   1.88850    0.000
 5741.00    2.10607   1.88821    0.000
 5742.00    2.09874   1.88706    0.000
 5743.00    2.09073   1.88645    0.000
 5744.00    2.08593   1.88480    0.000
 5745.00    2.08440   1.88224    0.000
 5746.00    2.09249   1.87909    0.000
 5747.00    2.10928   1.87382    0.000
 5748.00    2.11280   1.86918    0.000
 5749.00    2.10574   1.86506    0.000
 5750.00    2.10476   1.85931    0.000
 5751.00    2.10803   1.85566    0.000
 5752.00    2.08393   1.85430    0.000
 5753.00    2.04300   1.85255    0.000
 5754.00    2.02674   1.85318    0.000
 5755.00    2.02371   1.85498    0.000
 5756.00    2.03971   1.85475    0.000
 5757.00    2.06459   1.85565    0.000
 5758.00    2.09053   1.85639    0.000
 5759.00    2.11691   1.85527    0.000
 5760.00    2.09879   1.85653    0.000
 5761.00    2.06545   1.85909    0.000
 5762.00    2.04097   1.86212    0.000
 5763.00    2.01905   1.86954    0.000
 5764.00    2.04147   1.87765    0.000
 5765.00    2.07445   1.88382    0.000
 5766.00    2.12169   1.89127    0.000
 5767.00    2.17166   1.89697    0.000
 5768.00    2.18097   1.89808    0.000
 5769.00    2.18423   1.89823    0.000
 5770.00    2.17052   1.89671    0.000
 5771.00    2.15496   1.89145    0.000
 5772.00    2.14755   1.88631    0.000
 5773.00    2.14071   1.87964    0.000
 5774.00    2.11590   1.86957    0.000
 5775.00    2.09042   1.85951    0.000
 5776.00    2.09857   1.84678    0.000
 5777.00    2.10649   1.83086    0.000
 5778.00    2.10106   1.81560    0.000
 5779.00    2.09446   1.79964    0.000
 5780.00    2.06917   1.78398    0.000
 5781.00    2.04238   1.77261    0.000
 5782.00    2.00035   1.76622    0.000
 5783.00    1.96354   1.76417    0.000
 5784.00    1.96455   1.76558    0.000
 5785.00    1.96878   1.77374    0.000
 5786.00    1.99089   1.78621    0.000
 5787.00    2.01113   1.79704    0.000
 5788.00    2.02308   1.81134    0.000
 5789.00    2.02844   1.82629    0.000
 5790.00    2.00976   1.83722    0.000
 5791.00    2.00513   1.84986   -2.000
 5792.00    2.04340   1.86087   -2.000
 5793.00    2.06987   1.86850   -2.000
 5794.00    2.06573   1.87719   -2.000
 5795.00    2.06474   1.88510   -2.000
 5796.00    2.07076   1.89077   -2.000
 5797.00    2.08582   1.89577   -2.000
 5798.00    2.11835   1.90182   -2.000
 5799.00    2.13741   1.90604   -2.000
 5800.00    2.13373   1.90693   -2.000
 5801.00    2.14920   1.90872   -2.000
 5802.00    2.19298   1.90906   -2.000
 5803.00    2.20748   1.90597   -2.000
 5804.00    2.18393   1.90413   -2.000
 5805.00    2.16236   1.90261   -2.000
 5806.00    2.14306   1.90035   -2.000
 5807.00    2.11016   1.89951   -2.000
 5808.00    2.06354   1.89900   -2.000
 5809.00    2.03077   1.89873   -2.000
 5810.00    2.01034   1.89857   -2.000
 5811.00    2.01572   1.89756    0.000
 5812.00    2.04134   1.89706    0.000
 5813.00    2.06405   1.89718    0.000
 5814.00    2.08475   1.89771    0.000
 5815.00    2.08804   1.89930    0.000
 5816.00    2.08078   1.90285    0.000
 5817.00    2.09424   1.90819    0.000
 5818.00    2.11863   1.91311    0.000
 5819.00    2.12440   1.91839    0.000
 5820.00    2.12163   1.92413    0.000
 5821.00    2.13249   1.92828    0.000
 5822.00    2.14874   1.93117    0.000
 5823.00    2.16254   1.93355    0.000
 5824.00    2.17552   1.93534    0.000
 5825.00    2.16349   1.93595    0.000
 5826.00    2.14440   1.93611    0.000
 5827.00    2.12042   1.93603    0.000
 5828.00    2.09531   1.93515    0.000
 5829.00    2.10460   1.93374    0.000
 5830.00    2.12032   1.93144    0.000
 5831.00    2.10515   1.92905    0.000
 5832.00    2.08553   1.92716    0.000
 5833.00    2.09605   1.92475    0.000
 5834.00    2.10974   1.92272    0.000
 5835.00    2.10123   1.92303    0.000
 5836.00    2.09122   1.92389    0.000
 5837.00    2.10060   1.92409    0.000
 5838.00    2.11062   1.92599    0.000
 5839.00    2.09531   1.92836    0.000
 5840.00    2.08122   1.92854    0.000
 5841.00    2.10632   1.92740    0.000
 5842.00    2.12965   1.92524    0.000
 5843.00    2.12636   1.92039    0.000
 5844.00    2.12239   1.91338    0.000
 5845.00    2.11183   1.90534    0.000
 5846.00    2.10580   1.89543    0.000
 5847.00    2.13160   1.88469    0.000
 5848.00    2.15403   1.87387    0.000
 5849.00    2.15833   1.86214    0.000
 5850.00    2.15528   1.85068    0.000
 5851.00    2.12039   1.83932    0.000
 5852.00    2.08678   1.82781    0.000
 5853.00    2.05779   1.81801    0.000
 5854.00    2.02976   1.81034    0.000
 5855.00    2.00463   1.80437    0.000
 5856.00    1.99052   1.79990    0.000
 5857.00    2.00453   1.79926    0.000
 5858.00    2.02066   1.80219    0.000
 5859.00    2.04146   1.80568    0.000
 5860.00    2.05217   1.81136    0.000
 5861.00    2.04367   1.81807    0.000
 5862.00    2.03435   1.82458    0.000
 5863.00    2.02365   1.83202    0.000
 5864.00    2.01360   1.83893    0.000
 5865.00    2.00451   1.84454    0.000
 5866.00    1.99678   1.85044    0.000
 5867.00    1.99079   1.85689    0.000
 5868.00    2.00139   1.86177    0.000
 5869.00    2.03071   1.86533    0.000
 5870.00    2.04143   1.86811    0.000
 5871.00    2.03363   1.86906    0.000
 5872.00    2.01221   1.86752    0.000
 5873.00    1.97884   1.86461    0.000
 5874.00    1.97819   1.85975    0.000
 5875.00    2.00287   1.85235    0.000
 5876.00    2.02028   1.84411    0.000
 5877.00    2.03275   1.83461    0.000
 5878.00    2.04713   1.82339    0.000
 5879.00    2.06264   1.80983    0.000
 5880.00    2.04081   1.79360    0.000
 5881.00    1.99957   1.77475    0.000
 5882.00    1.95678   1.75083    0.000
 5883.00    1.91329   1.72000    0.000
 5884.00    1.85921   1.68467    0.000
 5885.00    1.80103   1.64622    0.000
 5886.00    1.75819   1.60298    0.000
 5887.00    1.72041   1.56102    0.000
 5888.00    1.69559   1.52327    0.000
 5889.00    1.67435   1.48854    0.000
 5890.00    1.64950   1.46776    0.000
 5891.00    1.62382   1.45798    0.000
 5892.00    1.60119   1.45286    0.000
 5893.00    1.57912   1.46340    0.000
 5894.00    1.58094   1.48203    0.000
 5895.00    1.58609   1.50313    0.000
 5896.00    1.64543   1.53748    0.000
 5897.00    1.71020   1.57491    0.000
 5898.00    1.73760   1.60938    0.000
 5899.00    1.76263   1.64871    0.000
 5900.00    1.79561   1.68626    0.000
 5901.00    1.82882   1.71690    0.024
 5902.00    1.86544   1.74395    0.024
 5903.00    1.90158   1.76616    0.024
 5904.00    1.92439   1.78243    0.024
 5905.00    1.94779   1.79458    0.024
 5906.00    1.97964   1.80353    0.024
 5907.00    2.00825   1.80880    0.024
 5908.00    2.00655   1.81101    0.024
 5909.00    2.00072   1.81147    0.024
 5910.00    1.96677   1.81019    0.024
 5911.00    1.93647   1.80824    0.023
 5912.00    1.92539   1.80524    0.023
 5913.00    1.91652   1.80191    0.023
 5914.00    1.91703   1.80157    0.023
 5915.00    1.92383   1.80162    0.023
 5916.00    1.95261   1.80285    0.023
 5917.00    1.97471   1.80693    0.023
 5918.00    1.97714   1.81062    0.023
 5919.00    1.97534   1.81552    0.023
 5920.00    1.96291   1.82056    0.023
 5921.00    1.96130   1.82327    0.023
 5922.00    1.98304   1.82663    0.023
 5923.00    1.99606   1.82888    0.023
 5924.00    1.99276   1.82849    0.023
 5925.00    1.98626   1.82888    0.023
 5926.00    1.97454   1.82803    0.023
 5927.00    1.96383   1.82623    0.023
 5928.00    1.95459   1.82500    0.023
 5929.00    1.94418   1.82280    0.023
 5930.00    1.93229   1.82286    0.023
 5931.00    1.95143   1.82341    0.023
 5932.00    2.00508   1.82318    0.023
 5933.00    2.02568   1.82451    0.023
 5934.00    2.01384   1.82577    0.023
 5935.00    2.00899   1.82773    0.023
 5936.00    2.01018   1.82939    0.023
 5937.00    1.98852   1.82981    0.023
 5938.00    1.94943   1.83164    0.023
 5939.00    1.93281   1.83281    0.023
 5940.00    1.93125   1.83229    0.023
 5941.00    1.93136   1.83313    0.023
 5942.00    1.93245   1.83361    0.023
 5943.00    1.92912   1.83257    0.023
 5944.00    1.92352   1.83231    0.022
 5945.00    1.92220   1.83155    0.022
 5946.00    1.92277   1.82917    0.023
 5947.00    1.94033   1.82598    0.022
 5948.00    1.96435   1.82272    0.022
 5949.00    1.97322   1.82018    0.022
 5950.00    1.97719   1.81772    0.023
 5951.00    1.96252   1.81483    0.023
 5952.00    1.94280   1.81310    0.023
 5953.00    1.93795   1.81430    0.023
 5954.00    1.93640   1.81629    0.022
 5955.00    1.93645   1.81807    0.023
 5956.00    1.93678   1.82215    0.023
 5957.00    1.93946   1.82790    0.023
 5958.00    1.94246   1.83400    0.023
 5959.00    1.96491   1.84009    0.023
 5960.00    1.98922   1.84581    0.023
 5961.00    1.97261   1.85189    0.023
 5962.00    1.95357   1.85663    0.023
 5963.00    1.94339   1.86072    0.023
 5964.00    1.93355   1.86436    0.023
 5965.00    1.94393   1.86657    0.023
 5966.00    1.95502   1.86967    0.023
 5967.00    1.98445   1.87173    0.023
 5968.00    2.01309   1.87216    0.023
 5969.00    2.03127   1.87225    0.023
 5970.00    2.04540   1.87036    0.023
 5971.00    2.02332   1.86676    0.023
 5972.00    2.00476   1.86184    0.023
 5973.00    2.00935   1.85569    0.023
 5974.00    2.01226   1.84906    0.023
 5975.00    2.00656   1.84196    0.023
 5976.00    1.99652   1.83581    0.023
 5977.00    1.96852   1.83031    0.022
 5978.00    1.94663   1.82470    0.022
 5979.00    1.94573   1.82130    0.022
 5980.00    1.94935   1.81846    0.022
 5981.00    1.96602   1.81548    0.022
 5982.00    1.97285   1.81412    0.022
 5983.00    1.95545   1.81312    0.022
 5984.00    1.94388   1.81450    0.022
 5985.00    1.94470   1.81777    0.022
 5986.00    1.94591   1.82074    0.022
 5987.00    1.94787   1.82602    0.022
 5988.00    1.95934   1.83215    0.022
 5989.00    1.98617   1.83743    0.022
 5990.00    2.00516   1.84167    0.023
 5991.00    2.01307   1.84421    0.023
 5992.00    2.01940   1.84663    0.023
 5993.00    2.02377   1.84718    0.023
 5994.00    2.01670   1.84538    0.023
 5995.00    1.99707   1.84335    0.023
 5996.00    1.97444   1.83952    0.023
 5997.00    1.94888   1.83505    0.023
 5998.00    1.93800   1.83178    0.023
 5999.00    1.93965   1.82736    0.023
 6000.00    1.92167   1.82324    0.023
 6001.00    1.88892   1.81933    0.023
 6002.00    1.88119   1.81394    0.023
 6003.00    1.88998   1.81125    0.023
 6004.00    1.89570   1.80874    0.023
 6005.00    1.89965   1.80476    0.023
 6006.00    1.88926   1.80308    0.022
 6007.00    1.87165   1.80090    0.022
 6008.00    1.87011   1.80054    0.022
 6009.00    1.87557   1.80209    0.022
 6010.00    1.88650   1.80074    0.022
 6011.00    1.89948   1.80020    0.022
 6012.00    1.90855   1.80036    0.022
 6013.00    1.91638   1.79913    0.022
 6014.00    1.90561   1.79810    0.022
 6015.00    1.88991   1.79583    0.022
 6016.00    1.87372   1.79418    0.022
 6017.00    1.85742   1.79491    0.022
 6018.00    1.86793   1.79484    0.022
 6019.00    1.88304   1.79606    0.022
 6020.00    1.86686   1.79996    0.022
 6021.00    1.84659   1.80438    0.022
 6022.00    1.84567   1.81139    0.023
 6023.00    1.84653   1.81904    0.023
 6024.00    1.86475   1.82759    0.023
 6025.00    1.88394   1.83750    0.023
 6026.00    1.91038   1.84607    0.022
 6027.00    1.93671   1.85555    0.022
 6028.00    1.93753   1.86436    0.022
 6029.00    1.93806   1.87132    0.022
 6030.00    1.93185   1.87779    0.023
 6031.00    1.92798   1.88311    0.023
 6032.00    1.95396   1.88741    0.022
 6033.00    1.97919   1.89001    0.022
 6034.00    1.99795   1.89143    0.022
 6035.00    2.01325   1.89266    0.023
 6036.00    2.00644   1.89276    0.022
 6037.00    1.99773   1.89301    0.022
 6038.00    1.97955   1.89331    0.022
 6039.00    1.96325   1.89346    0.022
 6040.00    1.95461   1.89519    0.022
 6041.00    1.94970   1.89695    0.022
 6042.00    1.95737   1.89928    0.022
 6043.00    1.96715   1.90218    0.022
 6044.00    1.98291   1.90462    0.022
 6045.00    2.00161   1.90683    0.022
 6046.00    2.02746   1.90786    0.022
 6047.00    2.04591   1.90747    0.022
 6048.00    2.04890   1.90573    0.022
 6049.00    2.04207   1.90318    0.022
 6050.00    2.01738   1.89904    0.022
 6051.00    1.99018   1.89396    0.022
 6052.00    1.95901   1.88880    0.022
 6053.00    1.93311   1.88373    0.022
 6054.00    1.91456   1.87918    0.022
 6055.00    1.90197   1.87472    0.022
 6056.00    1.89669   1.87121    0.022
 6057.00    1.90883   1.86833    0.022
 6058.00    1.93981   1.86595    0.023
 6059.00    1.96632   1.86292    0.023
 6060.00    1.98856   1.86081    0.023
 6061.00    1.97595   1.86038    0.023
 6062.00    1.93401   1.85968    0.022
 6063.00    1.90896   1.86131    0.022
 6064.00    1.89642   1.86424    0.022
 6065.00    1.90695   1.86957    0.022
 6066.00    1.93247   1.87829    0.022
 6067.00    1.92656   1.88604    0.022
 6068.00    1.90276   1.89413    0.022
 6069.00    1.90911   1.90200    0.022
 6070.00    1.93043   1.90716    0.022
 6071.00    1.95205   1.91024    0.022
 6072.00    1.97380   1.90962    0.022
 6073.00    1.98017   1.90593    0.022
 6074.00    1.98089   1.90098    0.022
 6075.00    1.98401   1.89270    0.022
 6076.00    1.98789   1.88296    0.022
 6077.00    1.97113   1.87364    0.022
 6078.00    1.94902   1.86406    0.022
 6079.00    1.92864   1.85598    0.022
 6080.00    1.90863   1.84886    0.022
 6081.00    1.89785   1.84280    0.022
 6082.00    1.88862   1.83964    0.022
 6083.00    1.90725   1.83741    0.022
 6084.00    1.92940   1.83490    0.022
 6085.00    1.94486   1.83412    0.022
 6086.00    1.95973   1.83415    0.022
 6087.00    1.93030   1.83379    0.022
 6088.00    1.89857   1.83417    0.022
 6089.00    1.87499   1.83485    0.022
 6090.00    1.85142   1.83604    0.022
 6091.00    1.81724   1.83814    0.022
 6092.00    1.78473   1.83989    0.022
 6093.00    1.78780   1.84201    0.022
 6094.00    1.79324   1.84423    0.022
 6095.00    1.82755   1.84412    0.022
 6096.00    1.85992   1.84137    0.022
 6097.00    1.87629   1.83775    0.022
 6098.00    1.89171   1.83452    0.022
 6099.00    1.90116   1.82931    0.022
 6100.00    1.90537   1.82387    0.022
 6101.00    1.88403   1.81951    0.022
 6102.00    1.86404   1.81689    0.022
 6103.00    1.84933   1.82006    0.022
 6104.00    1.84386   1.82381    0.022
 6105.00    1.86876   1.82758    0.022
 6106.00    1.89014   1.83496    0.022
 6107.00    1.90169   1.84237    0.021
 6108.00    1.90034   1.84993    0.021
 6109.00    1.86822   1.85649    0.022
 6110.00    1.84746   1.85949    0.022
 6111.00    1.85007   1.86209    0.023
 6112.00    1.86578   1.86389    0.023
 6113.00    1.90492   1.86153    0.023
 6114.00    1.93072   1.85689    0.023
 6115.00    1.93564   1.85028    0.023
 6116.00    1.92184   1.84116    0.023
 6117.00    1.88233   1.83320    0.022
 6118.00    1.85056   1.82443    0.022
 6119.00    1.82814   1.81469    0.022
 6120.00    1.81488   1.80884    0.022
 6121.00    1.81139   1.80439    0.022
 6122.00    1.81604   1.80320    0.022
 6123.00    1.82834   1.80594    0.022
 6124.00    1.83840   1.80817    0.022
 6125.00    1.84658   1.81223    0.022
 6126.00    1.86549   1.81687    0.022
 6127.00    1.89224   1.82012    0.022
 6128.00    1.90849   1.82186    0.022
 6129.00    1.91801   1.82027    0.022
 6130.00    1.91457   1.81552    0.022
 6131.00    1.90387   1.80735    0.021
 6132.00    1.86877   1.79858    0.021
 6133.00    1.82177   1.78899    0.022
 6134.00    1.79891   1.77835    0.022
 6135.00    1.78624   1.77057    0.022
 6136.00    1.79545   1.76595    0.022
 6137.00    1.81256   1.76785    0.022
 6138.00    1.81688   1.77443    0.022
 6139.00    1.81729   1.78208    0.022
 6140.00    1.83219   1.79275    0.022
 6141.00    1.85077   1.80461    0.022
 6142.00    1.84978   1.81685    0.022
 6143.00    1.84476   1.82706    0.022
 6144.00    1.82902   1.83315    0.022
 6145.00    1.81154   1.83722    0.022
 6146.00    1.82067   1.83881    0.022
 6147.00    1.83304   1.83798    0.022
 6148.00    1.82497   1.83515    0.022
 6149.00    1.81520   1.83046    0.022
 6150.00    1.80980   1.82560    0.022
 6151.00    1.80461   1.81914    0.022
 6152.00    1.80642   1.81113    0.022
 6153.00    1.80824   1.80125    0.022
 6154.00    1.80399   1.78861    0.022
 6155.00    1.79947   1.77389    0.022
 6156.00    1.78947   1.75680    0.022
 6157.00    1.77999   1.73812    0.021
 6158.00    1.77643   1.71875    0.022
 6159.00    1.77113   1.70016    0.022
 6160.00    1.75206   1.68303    0.022
 6161.00    1.73086   1.67031    0.021
 6162.00    1.69683   1.66294    0.021
 6163.00    1.66861   1.65876    0.021
 6164.00    1.66798   1.65930    0.021
 6165.00    1.66945   1.66311    0.021
 6166.00    1.67905   1.66910    0.021
 6167.00    1.68707   1.67720    0.021
 6168.00    1.68997   1.68552    0.021
 6169.00    1.69235   1.69508    0.021
 6170.00    1.69328   1.70608    0.021
 6171.00    1.68287   1.71663    0.021
 6172.00    1.64589   1.72663    0.022
 6173.00    1.61471   1.73699    0.023
 6174.00    1.59524   1.74681    0.023
 6175.00    1.58099   1.75634    0.023
 6176.00    1.57593   1.76468    0.023
 6177.00    1.59365   1.77132    0.023
 6178.00    1.64650   1.77687    0.022
 6179.00    1.69535   1.78013    0.022
 6180.00    1.73880   1.78131    0.021
 6181.00    1.75939   1.78064    0.021
 6182.00    1.75271   1.77715    0.021
 6183.00    1.74772   1.77080    0.021
 6184.00    1.74451   1.76307    0.021
 6185.00    1.74340   1.75302    0.021
 6186.00    1.74424   1.74322    0.021
 6187.00    1.73773   1.73538    0.021
 6188.00    1.72521   1.72718    0.021
 6189.00    1.70456   1.72270    0.021
 6190.00    1.67807   1.72100    0.021
 6191.00    1.66535   1.72202    0.021
 6192.00    1.66133   1.72783    0.021
 6193.00    1.68286   1.73320    0.021
 6194.00    1.71851   1.73964    0.021
 6195.00    1.77332   1.74726    0.022
 6196.00    1.83733   1.75334   -2.000
 6197.00    1.81789   1.75946   -2.000
 6198.00    1.76385   1.76427   -2.000
 6199.00    1.68285   1.76849   -2.000
 6200.00    1.59230   1.77370   -2.000
 6201.00    1.58435   1.77801   -2.000
 6202.00    1.60112   1.78135   -2.000
 6203.00    1.69814   1.78395   -2.000
 6204.00    1.81509   1.78495   -2.000
 6205.00    1.81604   1.78421   -2.000
 6206.00    1.79363   1.78096   -2.000
 6207.00    1.75723   1.77406   -2.000
 6208.00    1.71862   1.76466    0.022
 6209.00    1.69790   1.75357    0.022
 6210.00    1.67927   1.74018    0.022
 6211.00    1.69417   1.72682    0.021
 6212.00    1.71172   1.71336    0.021
 6213.00    1.70915   1.70079    0.021
 6214.00    1.70570   1.69196    0.021
 6215.00    1.67377   1.68516    0.021
 6216.00    1.64183   1.68085    0.020
 6217.00    1.62461   1.67941    0.020
 6218.00    1.60953   1.67878    0.020
 6219.00    1.63374   1.68077    0.021
 6220.00    1.65652   1.68415    0.021
 6221.00    1.66342   1.68647    0.021
 6222.00    1.66743   1.68870    0.021
 6223.00    1.64914   1.68892    0.021
 6224.00    1.63549   1.68803    0.021
 6225.00    1.64898   1.68678    0.021
 6226.00    1.66070   1.68417    0.021
 6227.00    1.66422   1.68071    0.021
 6228.00    1.66562   1.67783    0.021
 6229.00    1.65898   1.67620    0.022
 6230.00    1.65317   1.67624    0.022
 6231.00    1.65000   1.67941    0.021
 6232.00    1.64641   1.68253    0.021
 6233.00    1.64171   1.68648    0.021
 6234.00    1.63932   1.68987    0.021
 6235.00    1.64227   1.69086    0.021
 6236.00    1.64735   1.69127    0.021
 6237.00    1.65666   1.68817    0.021
 6238.00    1.66140   1.68434    0.021
 6239.00    1.65817   1.67959    0.021
 6240.00    1.65618   1.67386    0.021
 6241.00    1.65606   1.67049    0.021
 6242.00    1.65539   1.66728    0.021
 6243.00    1.65399   1.66619    0.021
 6244.00    1.65982   1.66732    0.021
 6245.00    1.67414   1.66830    0.020
 6246.00    1.67898   1.66981    0.020
 6247.00    1.67397   1.67043    0.021
 6248.00    1.66650   1.66863    0.021
 6249.00    1.65678   1.66476    0.021
 6250.00    1.65671   1.65892    0.021
 6251.00    1.66440   1.65127    0.021
 6252.00    1.65521   1.64431    0.021
 6253.00    1.63403   1.63736    0.021
 6254.00    1.61032   1.63217    0.021
 6255.00    1.58504   1.62939    0.021
 6256.00    1.57748   1.62944    0.021
 6257.00    1.57955   1.63414    0.021
 6258.00    1.62147   1.64124    0.022
 6259.00    1.68223   1.65189    0.022
 6260.00    1.70032   1.66333    0.023
 6261.00    1.70102   1.67464    0.025
 6262.00    1.70648   1.68599    0.025
 6263.00    1.71360   1.69582    0.026
 6264.00    1.73426   1.70473    0.026
 6265.00    1.75889   1.71208    0.025
 6266.00    1.76920   1.71786    0.024
 6267.00    1.77602   1.72249    0.023
 6268.00    1.75097   1.72602    0.022
 6269.00    1.71965   1.72913    0.021
 6270.00    1.70758   1.73229    0.021
 6271.00    1.69846   1.73471    0.021
 6272.00    1.69842   1.73633    0.020
 6273.00    1.69940   1.73703    0.020
 6274.00    1.69999   1.73704    0.020
 6275.00    1.70055   1.73708    0.020
 6276.00    1.70522   1.73674    0.020
 6277.00    1.71006   1.73561    0.020
 6278.00    1.71084   1.73558    0.021
 6279.00    1.71180   1.73617    0.021
 6280.00    1.72142   1.73836    0.000
 6281.00    1.73049   1.74281    0.000
 6282.00    1.73009   1.74673    0.000
 6283.00    1.72877   1.75232    0.000
 6284.00    1.71785   1.75741    0.000
 6285.00    1.70913   1.76194    0.000
 6286.00    1.71682   1.76672    0.000
 6287.00    1.72276   1.76842    0.000
 6288.00    1.71880   1.76830    0.000
 6289.00    1.71951   1.76586    0.000
 6290.00    1.74134   1.76124    0.000
 6291.00    1.76379   1.75651    0.000
 6292.00    1.78851   1.75023    0.000
 6293.00    1.80350   1.74268    0.000
 6294.00    1.78827   1.73532    0.000
 6295.00    1.76512   1.72809    0.000
 6296.00    1.72104   1.72280    0.000
 6297.00    1.68552   1.71907    0.000
 6298.00    1.66938   1.71641    0.000
 6299.00    1.66317   1.71605    0.000
 6300.00    1.67646   1.71719    0.000
 6301.00    1.70106   1.72062    0.000
 6302.00    1.74499   1.72594    0.000
 6303.00    1.77236   1.73189    0.000
 6304.00    1.77494   1.73838    0.000
 6305.00    1.76828   1.74383    0.000
 6306.00    1.74945   1.74834    0.000
 6307.00    1.74118   1.75085    0.000
 6308.00    1.74516   1.75108    0.000
 6309.00    1.74690   1.74895    0.000
 6310.00    1.74638   1.74450    0.000
 6311.00    1.73545   1.73924    0.000
 6312.00    1.71512   1.73291    0.000
 6313.00    1.69235   1.72704    0.000
 6314.00    1.66762   1.72137    0.000
 6315.00    1.66331   1.71698    0.000
 6316.00    1.67328   1.71610    0.000
 6317.00    1.67776   1.71682    0.000
 6318.00    1.67888   1.72056    0.000
 6319.00    1.66359   1.72592    0.000
 6320.00    1.63951   1.73288    0.000
 6321.00    1.65235   1.74189    0.021
 6322.00    1.68236   1.74948    0.021
 6323.00    1.70893   1.75821    0.021
 6324.00    1.73412   1.76558    0.021
 6325.00    1.73345   1.77173    0.021
 6326.00    1.72394   1.77634    0.021
 6327.00    1.73586   1.77745    0.021
 6328.00    1.75394   1.77835    0.020
 6329.00    1.76017   1.77682    0.020
 6330.00    1.76359   1.77409    0.021
 6331.00    1.73494   1.77009    0.020
 6332.00    1.70016   1.76430    0.020
 6333.00    1.69571   1.75914    0.020
 6334.00    1.69575   1.75381    0.020
 6335.00    1.69264   1.74980    0.020
 6336.00    1.68917   1.74714    0.020
 6337.00    1.69184   1.74643    0.021
 6338.00    1.69493   1.74639    0.021
 6339.00    1.69550   1.74667    0.021
 6340.00    1.69598   1.74821    0.021
 6341.00    1.68426   1.74989    0.021
 6342.00    1.67256   1.75314    0.021
 6343.00    1.66367   1.75607    0.021
 6344.00    1.65554   1.75948    0.021
 6345.00    1.65958   1.76354    0.020
 6346.00    1.66444   1.76608    0.020
 6347.00    1.67772   1.76810    0.020
 6348.00    1.69261   1.76905    0.020
 6349.00    1.71914   1.76853    0.020
 6350.00    1.74155   1.76576    0.020
 6351.00    1.74118   1.75997    0.020
 6352.00    1.74036   1.75211    0.020
 6353.00    1.73751   1.74297    0.020
 6354.00    1.73172   1.73235    0.020
 6355.00    1.71523   1.72103    0.020
 6356.00    1.69780   1.71028    0.020
 6357.00    1.67755   1.70065    0.020
 6358.00    1.66342   1.69281    0.020
 6359.00    1.66514   1.68783    0.021
 6360.00    1.66567   1.68667    0.021
 6361.00    1.66355   1.68885    0.021
 6362.00    1.66321   1.69408    0.021
 6363.00    1.66632   1.70240    0.021
 6364.00    1.67057   1.71369    0.021
 6365.00    1.67677   1.72678    0.021
 6366.00    1.67668   1.73976    0.021
 6367.00    1.66730   1.75283    0.021
 6368.00    1.67080   1.76523    0.021
 6369.00    1.69101   1.77630    0.021
 6370.00    1.71508   1.78547    0.021
 6371.00    1.74356   1.79229    0.021
 6372.00    1.76385   1.79724    0.021
 6373.00    1.77591   1.79982    0.021
 6374.00    1.77039   1.80068    0.020
 6375.00    1.74925   1.79989    0.020
 6376.00    1.72482   1.79828    0.020
 6377.00    1.69782   1.79628    0.020
 6378.00    1.68216   1.79375    0.020
 6379.00    1.67430   1.79222    0.020
 6380.00    1.66716   1.79103    0.020
 6381.00    1.66044   1.79033    0.020
 6382.00    1.66422   1.79006    0.020
 6383.00    1.67352   1.78984    0.020
 6384.00    1.68307   1.78993    0.020
 6385.00    1.69274   1.78892    0.020
 6386.00    1.68550   1.78756    0.021
 6387.00    1.67161   1.78557    0.021
 6388.00    1.67864   1.78215    0.021
 6389.00    1.69270   1.77814    0.021
 6390.00    1.70139   1.77293    0.021
 6391.00    1.70857   1.76852    0.021
 6392.00    1.71193   1.76454    0.021
 6393.00    1.71441   1.76212    0.021
 6394.00    1.70500   1.76146    0.021
 6395.00    1.69339   1.76084    0.021
 6396.00    1.67445   1.76081    0.021
 6397.00    1.65446   1.76002    0.021
 6398.00    1.64706   1.76259    0.021
 6399.00    1.64097   1.76656    0.021
 6400.00    1.66071   1.77033    0.021
 6401.00    1.68218   1.77488    0.020
 6402.00    1.70170   1.77754    0.020
 6403.00    1.72116   1.77948    0.020
 6404.00    1.72929   1.77972    0.020
 6405.00    1.73656   1.77979    0.020
 6406.00    1.71743   1.78076    0.020
 6407.00    1.69901   1.77948    0.020
 6408.00    1.69116   1.77735    0.020
 6409.00    1.68460   1.77567    0.020
 6410.00    1.69048   1.77406    0.020
 6411.00    1.69532   1.77280    0.020
 6412.00    1.69294   1.77189    0.020
 6413.00    1.69159   1.77209    0.020
 6414.00    1.69580   1.77229    0.021
 6415.00    1.69945   1.77184    0.021
 6416.00    1.70070   1.77131    0.021
 6417.00    1.70001   1.77138    0.021
 6418.00    1.69245   1.77205    0.021
 6419.00    1.68196   1.77393    0.021
 6420.00    1.66272   1.77773    0.021
 6421.00    1.64607   1.78136    0.020
 6422.00    1.63601   1.78510    0.020
 6423.00    1.64183   1.78846    0.020
 6424.00    1.68244   1.79131    0.020
 6425.00    1.70824   1.79329    0.020
 6426.00    1.70591   1.79417    0.020
 6427.00    1.69378   1.79354    0.020
 6428.00    1.66537   1.79092    0.020
 6429.00    1.64247   1.78892    0.020
 6430.00    1.62755   1.78702    0.020
 6431.00    1.62125   1.78627    0.020
 6432.00    1.62595   1.78634    0.020
 6433.00    1.63347   1.78661    0.020
 6434.00    1.64415   1.78768    0.020
 6435.00    1.66098   1.78856    0.020
 6436.00    1.68392   1.79089    0.020
 6437.00    1.68743   1.79510    0.020
 6438.00    1.67392   1.79957    0.021
 6439.00    1.66749   1.80389    0.021
 6440.00    1.66653   1.80781    0.021
 6441.00    1.67466   1.80996    0.021
 6442.00    1.68895   1.81036    0.021
 6443.00    1.68901   1.80902    0.021
 6444.00    1.68061   1.80597    0.021
 6445.00    1.66683   1.80100    0.021
 6446.00    1.65027   1.79273    0.021
 6447.00    1.63555   1.78368    0.021
 6448.00    1.62165   1.77744    0.021
 6449.00    1.61288   1.77277    0.021
 6450.00    1.60608   1.77145    0.021
 6451.00    1.60678   1.77216    0.020
 6452.00    1.60993   1.77367    0.020
 6453.00    1.61658   1.77676    0.020
 6454.00    1.62418   1.78073    0.019
 6455.00    1.62576   1.78636    0.019
 6456.00    1.62598   1.79141    0.020
 6457.00    1.64335   1.79450    0.020
 6458.00    1.66384   1.79597    0.020
 6459.00    1.67477   1.79463    0.020
 6460.00    1.68437   1.79321    0.020
 6461.00    1.67736   1.79361    0.020
 6462.00    1.66870   1.79396    0.021
 6463.00    1.68398   1.79556    0.021
 6464.00    1.70077   1.79703    0.021
 6465.00    1.69214   1.79911    0.021
 6466.00    1.68278   1.80030    0.021
 6467.00    1.67248   1.80181    0.021
 6468.00    1.66249   1.80368    0.021
 6469.00    1.66126   1.80460    0.021
 6470.00    1.65896   1.80568    0.021
 6471.00    1.64157   1.80506    0.021
 6472.00    1.62530   1.80405    0.020
 6473.00    1.61934   1.80222    0.020
 6474.00    1.61578   1.80054    0.020
 6475.00    1.62847   1.79809    0.020
 6476.00    1.64143   1.79512    0.020
 6477.00    1.65584   1.79223    0.020
 6478.00    1.66848   1.78794    0.020
 6479.00    1.67366   1.78317    0.020
 6480.00    1.67466   1.77913    0.020
 6481.00    1.66107   1.77620    0.020
 6482.00    1.65094   1.77333    0.020
 6483.00    1.65096   1.77029    0.020
 6484.00    1.65654   1.76640    0.020
 6485.00    1.67598   1.76108    0.020
 6486.00    1.69184   1.75321    0.020
 6487.00    1.70000   1.74293    0.020
 6488.00    1.69534   1.73032    0.020
 6489.00    1.66670   1.71484    0.020
 6490.00    1.63903   1.69759    0.020
 6491.00    1.61294   1.67837    0.021
 6492.00    1.58639   1.66127    0.021
 6493.00    1.55919   1.64776    0.020
 6494.00    1.53885   1.63825    0.020
 6495.00    1.52715   1.63551    0.020
 6496.00    1.53057   1.63690    0.020
 6497.00    1.55076   1.64473    0.020
 6498.00    1.58115   1.65638    0.020
 6499.00    1.62151   1.67129    0.020
 6500.00    1.64142   1.68923    0.020
 6501.00    1.64366   1.70665    0.020
 6502.00    1.63468   1.72403    0.020
 6503.00    1.61717   1.73903    0.020
 6504.00    1.61667   1.75184    0.020
 6505.00    1.62756   1.76191    0.020
 6506.00    1.64705   1.76931    0.020
 6507.00    1.67156   1.77486    0.020
 6508.00    1.67703   1.77828    0.020
 6509.00    1.67278   1.77980    0.020
 6510.00    1.66697   1.78014    0.020
 6511.00    1.66047   1.77925    0.020
 6512.00    1.66490   1.77725    0.020
 6513.00    1.67348   1.77490    0.021
 6514.00    1.67246   1.77304    0.021
 6515.00    1.66835   1.77140    0.021
 6516.00    1.66500   1.77030    0.021
 6517.00    1.66186   1.77099    0.020
 6518.00    1.66134   1.77223    0.020
 6519.00    1.66139   1.77434    0.020
 6520.00    1.66903   1.77657    0.020
 6521.00    1.67799   1.77912    0.020
 6522.00    1.66434   1.78155    0.020
 6523.00    1.64764   1.78287    0.020
 6524.00    1.64255   1.78382    0.020
 6525.00    1.63857   1.78456    0.020
 6526.00    1.64009   1.78488    0.020
 6527.00    1.64193   1.78482    0.020
 6528.00    1.64077   1.78466    0.000
 6529.00    1.63966   1.78440    0.000
 6530.00    1.65739   1.78467    0.000
 6531.00    1.67511   1.78557    0.000
 6532.00    1.69258   1.78753    0.000
 6533.00    1.70946   1.78977    0.000
 6534.00    1.71841   1.79147    0.000
 6535.00    1.72586   1.79306    0.000
 6536.00    1.71992   1.79382    0.000
 6537.00    1.71120   1.79394    0.000
 6538.00    1.68415   1.79237    0.000
 6539.00    1.65863   1.78929    0.000
 6540.00    1.64090   1.78473    0.000
 6541.00    1.62768   1.77860    0.000
 6542.00    1.63310   1.77194    0.000
 6543.00    1.64220   1.76386    0.000
 6544.00    1.66388   1.75689    0.000
 6545.00    1.68221   1.75009    0.000
 6546.00    1.69084   1.74355    0.000
 6547.00    1.69569   1.73719    0.000
 6548.00    1.69124   1.73020    0.000
 6549.00    1.68034   1.72319    0.000
 6550.00    1.65575   1.71495    0.000
 6551.00    1.63262   1.70533    0.000
 6552.00    1.61215   1.69367    0.000
 6553.00    1.59908   1.68000    0.000
 6554.00    1.59792   1.66509    0.000
 6555.00    1.58809   1.64785    0.000
 6556.00    1.56601   1.62891    0.000
 6557.00    1.55123   1.60917    0.000
 6558.00    1.54553   1.58950    0.000
 6559.00    1.54953   1.56988    0.000
 6560.00    1.56416   1.55401    0.000
 6561.00    1.57398   1.54909    0.000
 6562.00    1.57915   1.55017    0.000
 6563.00    1.57295   1.55679    0.000
 6564.00    1.55707   1.56870    0.000
 6565.00    1.55081   1.58384    0.000
 6566.00    1.55176   1.60051    0.000
 6567.00    1.55166   1.61777    0.000
 6568.00    1.55087   1.63603    0.000
 6569.00    1.55454   1.65174    0.000
 6570.00    1.56079   1.66443    0.000
 6571.00    1.57245   1.67530    0.000
 6572.00    1.58685   1.68395    0.000
 6573.00    1.59241   1.69247    0.000
 6574.00    1.59413   1.70041    0.000
 6575.00    1.58373   1.70807    0.000
 6576.00    1.56881   1.71502    0.000
 6577.00    1.57577   1.72142    0.000
 6578.00    1.58965   1.72698    0.000
 6579.00    1.61926   1.73270    0.000
 6580.00    1.65304   1.73789    0.000
 6581.00    1.69271   1.74199    0.000
 6582.00    1.73365   1.74505    0.000
 6583.00    1.76940   1.74640    0.000
 6584.00    1.80425   1.74714    0.000
 6585.00    1.80227   1.74684    0.000
 6586.00    1.79549   1.74480    0.000
 6587.00    1.75090   1.74179    0.000
 6588.00    1.70285   1.73713    0.000
 6589.00    1.66728   1.73135    0.000
 6590.00    1.63240   1.72476    0.000
 6591.00    1.61118   1.72021    0.000
 6592.00    1.59023   1.71804    0.000
 6593.00    1.56739   1.71663    0.000
 6594.00    1.54588   1.71704    0.000
 6595.00    1.55495   1.71861    0.000
 6596.00    1.56349   1.72161    0.000
 6597.00    1.56519   1.72587    0.000
 6598.00    1.56724   1.73040    0.000
 6599.00    1.57230   1.73423    0.000
 6600.00    1.57854   1.73674    0.000
 6601.00    1.59221   1.73781    0.000
 6602.00    1.60837   1.73725    0.000
 6603.00    1.63700   1.73584    0.000
 6604.00    1.65764   1.73384    0.000
 6605.00    1.64607   1.73192    0.000
 6606.00    1.62976   1.73002    0.000
 6607.00    1.59758   1.73012    0.000
 6608.00    1.57731   1.73214    0.000
 6609.00    1.59075   1.73487    0.020
 6610.00    1.59695   1.73863    0.020
 6611.00    1.58564   1.74284    0.020
 6612.00    1.57775   1.74857    0.020
 6613.00    1.57701   1.75361    0.020
 6614.00    1.58421   1.75796    0.021
 6615.00    1.60579   1.76147    0.021
 6616.00    1.61635   1.76388    0.020
 6617.00    1.60943   1.76494    0.020
 6618.00    1.59363   1.76432    0.020
 6619.00    1.56548   1.76234    0.020
 6620.00    1.52959   1.75882    0.020
 6621.00    1.48422   1.75430    0.019
 6622.00    1.45607   1.74894    0.019
 6623.00    1.44650   1.74442    0.019
 6624.00    1.46502   1.73939    0.020
 6625.00    1.51029   1.73437    0.020
 6626.00    1.54206   1.72955    0.020
 6627.00    1.56250   1.72475    0.020
 6628.00    1.56773   1.72053    0.020
 6629.00    1.56173   1.71657    0.020
 6630.00    1.55985   1.71329    0.020
 6631.00    1.56065   1.71078    0.020
 6632.00    1.55155   1.71004    0.021
 6633.00    1.53683   1.71028    0.021
 6634.00    1.52439   1.71112    0.021
 6635.00    1.51308   1.71241    0.021
 6636.00    1.51950   1.71386    0.021
 6637.00    1.53351   1.71528    0.021
 6638.00    1.53182   1.71702    0.021
 6639.00    1.52437   1.71850    0.021
 6640.00    1.51297   1.71863    0.020
 6641.00    1.50034   1.71902    0.020
 6642.00    1.49076   1.71987    0.020
 6643.00    1.48197   1.72047    0.019
 6644.00    1.50555   1.72070    0.019
 6645.00    1.53597   1.72117    0.020
 6646.00    1.55205   1.72211    0.020
 6647.00    1.56574   1.72283    0.020
 6648.00    1.55839   1.72336    0.020
 6649.00    1.54839   1.72361    0.020
 6650.00    1.54726   1.72378    0.020
 6651.00    1.54691   1.72335    0.020
 6652.00    1.53914   1.72271    0.020
 6653.00    1.53099   1.72112    0.020
 6654.00    1.54960   1.71886    0.020
 6655.00    1.56856   1.71619    0.021
 6656.00    1.57902   1.71265    0.021
 6657.00    1.58807   1.70860    0.021
 6658.00    1.56723   1.70390    0.021
 6659.00    1.54545   1.69964    0.020
 6660.00    1.51239   1.69484    0.020
 6661.00    1.48380   1.69144    0.020
 6662.00    1.49223   1.68960    0.020
 6663.00    1.49784   1.68854    0.020
 6664.00    1.48608   1.68912    0.020
 6665.00    1.47645   1.69076    0.020
 6666.00    1.47720   1.69381    0.020
 6667.00    1.47877   1.69732    0.020
 6668.00    1.48353   1.70081    0.020
 6669.00    1.48850   1.70356    0.020
 6670.00    1.49420   1.70533    0.020
 6671.00    1.49857   1.70587    0.020
 6672.00    1.49929   1.70492    0.020
 6673.00    1.49960   1.70248    0.020
 6674.00    1.49895   1.69903    0.020
 6675.00    1.48934   1.69490    0.020
 6676.00    1.46138   1.69227    0.020
 6677.00    1.44641   1.69093    0.020
 6678.00    1.45467   1.68989    0.020
 6679.00    1.46287   1.69060    0.021
 6680.00    1.47100   1.69231    0.021
 6681.00    1.48069   1.69528    0.021
 6682.00    1.49252   1.69847    0.021
 6683.00    1.49889   1.70180    0.021
 6684.00    1.49868   1.70494    0.021
 6685.00    1.49646   1.70737    0.021
 6686.00    1.49211   1.70950    0.020
 6687.00    1.50250   1.71022    0.020
 6688.00    1.52673   1.71007    0.020
 6689.00    1.52869   1.70896    0.020
 6690.00    1.51219   1.70708    0.020
 6691.00    1.50191   1.70453    0.020
 6692.00    1.49616   1.70158    0.020
 6693.00    1.49090   1.69830    0.020
 6694.00    1.48596   1.69565    0.020
 6695.00    1.47569   1.69375    0.020
 6696.00    1.46243   1.69226    0.000
 6697.00    1.46014   1.69179    0.000
 6698.00    1.46318   1.69137    0.000
 6699.00    1.47077   1.69140    0.000
 6700.00    1.48027   1.69146    0.000
 6701.00    1.48947   1.69149    0.000
 6702.00    1.49856   1.69165    0.000
 6703.00    1.50921   1.69149    0.000
 6704.00    1.52033   1.69113    0.000
 6705.00    1.48558   1.68955    0.000
 6706.00    1.43923   1.68767    0.000
 6707.00    1.43212   1.68449    0.000
 6708.00    1.43310   1.68049    0.000
 6709.00    1.43236   1.67604    0.000
 6710.00    1.43134   1.67038    0.000
 6711.00    1.41875   1.66481    0.000
 6712.00    1.40476   1.65897    0.000
 6713.00    1.43769   1.65378    0.000
 6714.00    1.47452   1.64954    0.000
 6715.00    1.50769   1.64670    0.000
 6716.00    1.54068   1.64632    0.000
 6717.00    1.53375   1.64690    0.000
 6718.00    1.52580   1.64934    0.000
 6719.00    1.49162   1.65244    0.000
 6720.00    1.45890   1.65679    0.000
 6721.00    1.45449   1.66139    0.000
 6722.00    1.45148   1.66585    0.000
 6723.00    1.46444   1.66998    0.000
 6724.00    1.47752   1.67386    0.000
 6725.00    1.49158   1.67760    0.000
 6726.00    1.50018   1.68036    0.000
 6727.00    1.47603   1.68266    0.000
 6728.00    1.45871   1.68400    0.000
 6729.00    1.47378   1.68505    0.000
 6730.00    1.49098   1.68510    0.000
 6731.00    1.51646   1.68482    0.000
 6732.00    1.53264   1.68361    0.000
 6733.00    1.51886   1.68204    0.000
 6734.00    1.50392   1.67979    0.000
 6735.00    1.48581   1.67692    0.000
 6736.00    1.47056   1.67406    0.000
 6737.00    1.46198   1.67103    0.000
 6738.00    1.46019   1.66827    0.000
 6739.00    1.47211   1.66533    0.000
 6740.00    1.47039   1.66271    0.000
 6741.00    1.44468   1.66039    0.000
 6742.00    1.41617   1.65858    0.000
 6743.00    1.38338   1.65650    0.000
 6744.00    1.36847   1.65492    0.000
 6745.00    1.37774   1.65336    0.000
 6746.00    1.39737   1.65263    0.000
 6747.00    1.42936   1.65219    0.000
 6748.00    1.44489   1.65243    0.000
 6749.00    1.44315   1.65395    0.000
 6750.00    1.42353   1.65566    0.000
 6751.00    1.38736   1.65939    0.000
 6752.00    1.37654   1.66333    0.000
 6753.00    1.38639   1.66836    0.022
 6754.00    1.38622   1.67365    0.023
 6755.00    1.37884   1.67903    0.023
 6756.00    1.37850   1.68401    0.023
 6757.00    1.38259   1.68803    0.023
 6758.00    1.41150   1.69132    0.023
 6759.00    1.45409   1.69279    0.024
 6760.00    1.51784   1.69341    0.024
 6761.00    1.59174   1.69251    0.024
 6762.00    1.65302   1.69050    0.025
 6763.00    1.70907   1.68766    0.025
 6764.00    1.70531   1.68464    0.025
 6765.00    1.68038   1.68174    0.025
 6766.00    1.65884   1.67966    0.025
 6767.00    1.63832   1.67841    0.025
 6768.00    1.64118   1.67825    0.024
 6769.00    1.64983   1.67958    0.024
 6770.00    1.61769   1.68213    0.024
 6771.00    1.57736   1.68558    0.024
 6772.00    1.56325   1.68924    0.024
 6773.00    1.55326   1.69290    0.023
 6774.00    1.53057   1.69601    0.023
 6775.00    1.50640   1.69796    0.023
 6776.00    1.46917   1.69876    0.022
 6777.00    1.43091   1.69749    0.022
 6778.00    1.44892   1.69489    0.023
 6779.00    1.46937   1.69069    0.023
 6780.00    1.47029   1.68586    0.023
 6781.00    1.47127   1.68056    0.023
 6782.00    1.48447   1.67578    0.023
 6783.00    1.49595   1.67182    0.023
 6784.00    1.47643   1.66868    0.023
 6785.00    1.46052   1.66699    0.023
 6786.00    1.48403   1.66603    0.023
 6787.00    1.50261   1.66609    0.023
 6788.00    1.48320   1.66657    0.023
 6789.00    1.46774   1.66754    0.023
 6790.00    1.47531   1.66852    0.023
 6791.00    1.48248   1.66953    0.023
 6792.00    1.48786   1.67084    0.023
 6793.00    1.49680   1.67189    0.023
 6794.00    1.51923   1.67323    0.023
 6795.00    1.53030   1.67454    0.024
 6796.00    1.50547   1.67593    0.023
 6797.00    1.48504   1.67751    0.023
 6798.00    1.47639   1.67890    0.023
 6799.00    1.46882   1.68014    0.023
 6800.00    1.46375   1.68112    0.023
 6801.00    1.45636   1.68175    0.023
 6802.00    1.44439   1.68196    0.023
 6803.00    1.44641   1.68207    0.023
 6804.00    1.47267   1.68160    0.023
 6805.00    1.48287   1.68106    0.022
 6806.00    1.46872   1.68052    0.022
 6807.00    1.45797   1.67980    0.022
 6808.00    1.45176   1.67941    0.022
 6809.00    1.44944   1.67897    0.022
 6810.00    1.45168   1.67876    0.022
 6811.00    1.44280   1.67893    0.022
 6812.00    1.42240   1.67943    0.023
 6813.00    1.41094   1.68032    0.023
 6814.00    1.40763   1.68156    0.023
 6815.00    1.39961   1.68287    0.023
 6816.00    1.38779   1.68451    0.023
 6817.00    1.39778   1.68630    0.023
 6818.00    1.42322   1.68834    0.023
 6819.00    1.42786   1.69021    0.023
 6820.00    1.41958   1.69198    0.023
 6821.00    1.43290   1.69326    0.023
 6822.00    1.45794   1.69422    0.023
 6823.00    1.48398   1.69452    0.023
 6824.00    1.51050   1.69460    0.023
 6825.00    1.50903   1.69421    0.023
 6826.00    1.49617   1.69389    0.022
 6827.00    1.46860   1.69323    0.022
 6828.00    1.43592   1.69261    0.022
 6829.00    1.45154   1.69176    0.022
 6830.00    1.48130   1.69070    0.022
 6831.00    1.50020   1.68924    0.023
 6832.00    1.51647   1.68702    0.023
 6833.00    1.50700   1.68424    0.023
 6834.00    1.49250   1.68031    0.023
 6835.00    1.46829   1.67611    0.023
 6836.00    1.44260   1.67117    0.023
 6837.00    1.45304   1.66665    0.024
 6838.00    1.46753   1.66258    0.025
 6839.00    1.40601   1.65969    0.025
 6840.00    1.33880   1.65822    0.025
 6841.00    1.37062   1.65804    0.025
 6842.00    1.40637   1.65932    0.024
 6843.00    1.38462   1.66152    0.024
 6844.00    1.36378   1.66437    0.023
 6845.00    1.39494   1.66727    0.023
 6846.00    1.42228   1.66983    0.023
 6847.00    1.38516   1.67153    0.022
 6848.00    1.35462   1.67222    0.022
 6849.00    1.39298   1.67154    0.022
 6850.00    1.42582   1.66951    0.023
 6851.00    1.41773   1.66672    0.022
 6852.00    1.41131   1.66333    0.022
 6853.00    1.41442   1.65961    0.022
 6854.00    1.41252   1.65628    0.022
 6855.00    1.38793   1.65309    0.022
 6856.00    1.35903   1.65054    0.022
 6857.00    1.31417   1.64884    0.023
 6858.00    1.28941   1.64815    0.023
 6859.00    1.32695   1.64839    0.023
 6860.00    1.35055   1.64897    0.023
 6861.00    1.33749   1.64999    0.024
 6862.00    1.33208   1.65073    0.024
 6863.00    1.34396   1.65141    0.024
 6864.00    1.36260   1.65197    0.024
 6865.00    1.39446   1.65262    0.024
 6866.00    1.41395   1.65271    0.024
 6867.00    1.41235   1.65280    0.024
 6868.00    1.40214   1.65291    0.024
 6869.00    1.37907   1.65348    0.024
 6870.00    1.36829   1.65419    0.024
 6871.00    1.37365   1.65555    0.023
 6872.00    1.37435   1.65720    0.023
 6873.00    1.36964   1.65926    0.022
 6874.00    1.34534   1.66120    0.022
 6875.00    1.30105   1.66324    0.022
 6876.00    1.29923   1.66488    0.022
 6877.00    1.33564   1.66623    0.022
 6878.00    1.36072   1.66748    0.022
 6879.00    1.37680   1.66871    0.023
 6880.00    1.37778   1.67021    0.023
 6881.00    1.36822   1.67165    0.023
 6882.00    1.37119   1.67400    0.023
 6883.00    1.38182   1.67676    0.024
 6884.00    1.39049   1.68017    0.024
 6885.00    1.39812   1.68395    0.024
 6886.00    1.39477   1.68810    0.024
 6887.00    1.38634   1.69204    0.024
 6888.00    1.38680   1.69553    0.024
 6889.00    1.39080   1.69882    0.024
 6890.00    1.38796   1.70104    0.023
 6891.00    1.38278   1.70287    0.023
 6892.00    1.37185   1.70389    0.023
 6893.00    1.35928   1.70472    0.022
 6894.00    1.35763   1.70490    0.023
 6895.00    1.35857   1.70498    0.023
 6896.00    1.34083   1.70515    0.023
 6897.00    1.31954   1.70576    0.023
 6898.00    1.34923   1.70642    0.023
 6899.00    1.38646   1.70734    0.023
 6900.00    1.37991   1.70851    0.023
 6901.00    1.36865   1.70978    0.023
 6902.00    1.38265   1.71138    0.023
 6903.00    1.39844   1.71241    0.024
 6904.00    1.38686   1.71343    0.024
 6905.00    1.37431   1.71365    0.024
 6906.00    1.37744   1.71347    0.024
 6907.00    1.37950   1.71230    0.024
 6908.00    1.34286   1.71068    0.024
 6909.00    1.30859   1.70819    0.024
 6910.00    1.31176   1.70576    0.024
 6911.00    1.31413   1.70335    0.024
 6912.00    1.30852   1.70073    0.023
 6913.00    1.30714   1.69900    0.023
 6914.00    1.33622   1.69743    0.024
 6915.00    1.35948   1.69679    0.024
 6916.00    1.35063   1.69628    0.023
 6917.00    1.34272   1.69612    0.023
 6918.00    1.33895   1.69592    0.023
 6919.00    1.34153   1.69521    0.023
 6920.00    1.36711   1.69454    0.023
 6921.00    1.38507   1.69346    0.023
 6922.00    1.37986   1.69267    0.023
 6923.00    1.37222   1.69165    0.023
 6924.00    1.35829   1.69085    0.023
 6925.00    1.35047   1.69034    0.024
 6926.00    1.35622   1.69010    0.024
 6927.00    1.35259   1.69046    0.024
 6928.00    1.33088   1.69084    0.024
 6929.00    1.30795   1.69198    0.024
 6930.00    1.28297   1.69336    0.024
 6931.00    1.28013   1.69481    0.024
 6932.00    1.30994   1.69637    0.024
 6933.00    1.32002   1.69779    0.024
 6934.00    1.30457   1.69939    0.024
 6935.00    1.29742   1.70055    0.023
 6936.00    1.29973   1.70152    0.023
 6937.00    1.31309   1.70170    0.023
 6938.00    1.33757   1.70138    0.023
 6939.00    1.34171   1.70047    0.023
 6940.00    1.32781   1.69903    0.023
 6941.00    1.33166   1.69756    0.023
 6942.00    1.34940   1.69610    0.023
 6943.00    1.34661   1.69464    0.023
 6944.00    1.32969   1.69336    0.024
 6945.00    1.30336   1.69243    0.024
 6946.00    1.27136   1.69163    0.024
 6947.00    1.27520   1.69130    0.024
 6948.00    1.29790   1.69138    0.024
 6949.00    1.31533   1.69169    0.024
 6950.00    1.33036   1.69251    0.024
 6951.00    1.33293   1.69366    0.024
 6952.00    1.33061   1.69542    0.024
 6953.00    1.34433   1.69733    0.024
 6954.00    1.36343   1.70005    0.024
 6955.00    1.36677   1.70283    0.024
 6956.00    1.36568   1.70621    0.024
 6957.00    1.36843   1.70949    0.024
 6958.00    1.37208   1.71286    0.023
 6959.00    1.34734   1.71601    0.023
 6960.00    1.31734   1.71883    0.023
 6961.00    1.34049   1.72132    0.023
 6962.00    1.37124   1.72334    0.024
 6963.00    1.36412   1.72511    0.024
 6964.00    1.35307   1.72598    0.023
 6965.00    1.36363   1.72640    0.024
 6966.00    1.37563   1.72582    0.024
 6967.00    1.38471   1.72457    0.024
 6968.00    1.39369   1.72232    0.024
 6969.00    1.35194   1.71888    0.024
 6970.00    1.31139   1.71434    0.025
 6971.00    1.30785   1.70871    0.024
 6972.00    1.30505   1.70260    0.024
 6973.00    1.31336   1.69614    0.025
 6974.00    1.31716   1.69025    0.025
 6975.00    1.27779   1.68569    0.024
 6976.00    1.24894   1.68270    0.024
 6977.00    1.29322   1.68167    0.024
 6978.00    1.32719   1.68275    0.024
 6979.00    1.30582   1.68582    0.025
 6980.00    1.28883   1.69050    0.025
 6981.00    1.29069   1.69624    0.024
 6982.00    1.29279   1.70241    0.024
 6983.00    1.29577   1.70842    0.024
 6984.00    1.29231   1.71379    0.024
 6985.00    1.26963   1.71823    0.024
 6986.00    1.26031   1.72173    0.024
 6987.00    1.28495   1.72409    0.024
 6988.00    1.30823   1.72558    0.024
 6989.00    1.32857   1.72618    0.024
 6990.00    1.34508   1.72623    0.024
 6991.00    1.35432   1.72572    0.025
 6992.00    1.35458   1.72462    0.025
 6993.00    1.33998   1.72298    0.025
 6994.00    1.31700   1.72093    0.025
 6995.00    1.28189   1.71847    0.025
 6996.00    1.28157   1.71590    0.025
 6997.00    1.32566   1.71302    0.025
 6998.00    1.35091   1.71034    0.025
 6999.00    1.35498   1.70756    0.025
 7000.00    1.35048   1.70540    0.025
 7001.00    1.33747   1.70349    0.025
 7002.00    1.31549   1.70233    0.025
 7003.00    1.28564   1.70146    0.025
 7004.00    1.30465   1.70101    0.025
 7005.00    1.36131   1.70079    0.025
 7006.00    1.36306   1.70057    0.025
 7007.00    1.32762   1.70030    0.026
 7008.00    1.30101   1.69955    0.026
 7009.00    1.27964   1.69835    0.025
 7010.00    1.27906   1.69677    0.026
 7011.00    1.28923   1.69518    0.026
 7012.00    1.27154   1.69351    0.026
 7013.00    1.24133   1.69235    0.026
 7014.00    1.24796   1.69140    0.026
 7015.00    1.26881   1.69123    0.026
 7016.00    1.25774   1.69137    0.026
 7017.00    1.23619   1.69231    0.026
 7018.00    1.28646   1.69346    0.026
 7019.00    1.35649   1.69525    0.027
 7020.00    1.34767   1.69688    0.026
 7021.00    1.32102   1.69887    0.026
 7022.00    1.31039   1.70067    0.026
 7023.00    1.30266   1.70275    0.026
 7024.00    1.31430   1.70483    0.026
 7025.00    1.32863   1.70715    0.026
 7026.00    1.32538   1.70957    0.026
 7027.00    1.32039   1.71214    0.025
 7028.00    1.31281   1.71469    0.026
 7029.00    1.30507   1.71725    0.026
 7030.00    1.26913   1.71954    0.026
 7031.00    1.23252   1.72147    0.026
 7032.00    1.23074   1.72347    0.026
 7033.00    1.22958   1.72579    0.026
 7034.00    1.24543   1.72841    0.026
 7035.00    1.26379   1.73167    0.027
 7036.00    1.31750   1.73545    0.027
 7037.00    1.36276   1.74001    0.027
 7038.00    1.33014   1.74489    0.027
 7039.00    1.30439   1.75049    0.027
 7040.00    1.32488   1.75591    0.027
 7041.00    1.34852   1.76120    0.027
 7042.00    1.38869   1.76537    0.027
 7043.00    1.41573   1.76833    0.027
 7044.00    1.38757   1.76948    0.026
 7045.00    1.35954   1.76845    0.026
 7046.00    1.33200   1.76510    0.026
 7047.00    1.31295   1.75952    0.026
 7048.00    1.31873   1.75180    0.026
 7049.00    1.31828   1.74234    0.026
 7050.00    1.30226   1.73143   -2.000
 7051.00    1.29003   1.71969   -2.000
 7052.00    1.28596   1.70740   -2.000
 7053.00    1.30138   1.69544   -2.000
 7054.00    1.35318   1.68407   -2.000
 7055.00    1.37802   1.67395   -2.000
 7056.00    1.35885   1.66482   -2.000
 7057.00    1.34276   1.65720   -2.000
 7058.00    1.33105   1.65070   -2.000
 7059.00    1.35559   1.64530   -2.000
 7060.00    1.42575   1.64097   -2.000
 7061.00    1.45104   1.63743   -2.000
 7062.00    1.42658   1.63498   -2.000
 7063.00    1.41188   1.63339   -2.000
 7064.00    1.40672   1.63290   -2.000
 7065.00    1.39707   1.63317   -2.000
 7066.00    1.38354   1.63462   -2.000
 7067.00    1.34479   1.63702   -2.000
 7068.00    1.28689   1.64036   -2.000
 7069.00    1.26581   1.64447   -2.000
 7070.00    1.26932   1.64893   -2.000
 7071.00    1.33388   1.65367   -2.000
 7072.00    1.43414   1.65788   -2.000
 7073.00    1.48186   1.66157   -2.000
 7074.00    1.50280   1.66393   -2.000
 7075.00    1.47302   1.66489   -2.000
 7076.00    1.42084   1.66390   -2.000
 7077.00    1.40134   1.66104   -2.000
 7078.00    1.39424   1.65606   -2.000
 7079.00    1.40927   1.64939   -2.000
 7080.00    1.43142   1.64083   -2.000
 7081.00    1.44182   1.63107   -2.000
 7082.00    1.44905   1.62025   -2.000
 7083.00    1.39047   1.60928   -2.000
 7084.00    1.31737   1.59822   -2.000
 7085.00    1.33149   1.58816   -2.000
 7086.00    1.36094   1.57878   -2.000
 7087.00    1.30964   1.57115   -2.000
 7088.00    1.24752   1.56481   -2.000
 7089.00    1.24853   1.56029   -2.000
 7090.00    1.25554   1.55749   -2.000
 7091.00    1.25359   1.55604   -2.000
 7092.00    1.25112   1.55649   -2.000
 7093.00    1.24595   1.55752   -2.000
 7094.00    1.24086   1.56032   -2.000
 7095.00    1.25585   1.56298   -2.000
 7096.00    1.26963   1.56703   -2.000
 7097.00    1.25337   1.57036   -2.000
 7098.00    1.23199   1.57441   -2.000
 7099.00    1.14247   1.57743   -2.000
 7100.00    1.06849   1.58055   -2.000
 7101.00    1.13218   1.58261   -2.000
 7102.00    1.18269   1.58433   -2.000
 7103.00    1.14710   1.58520   -2.000
 7104.00    1.12035   1.58564   -2.000
 7105.00    1.13861   1.58565   -2.000
 7106.00    1.14859   1.58536   -2.000
 7107.00    1.12448   1.58512   -2.000
 7108.00    1.10372   1.58483   -2.000
 7109.00    1.09436   1.58496   -2.000
 7110.00    1.10640   1.58524   -2.000
 7111.00    1.17996   1.58597   -2.000
 7112.00    1.22473   1.58685   -2.000
 7113.00    1.19886   1.58776   -2.000
 7114.00    1.18756   1.58864   -2.000
 7115.00    1.20708   1.58906   -2.000
 7116.00    1.21440   1.58900   -2.000
 7117.00    1.19930   1.58804   -2.000
 7118.00    1.22618   1.58634   -2.000
 7119.00    1.32051   1.58376   -2.000
 7120.00    1.38698   1.58027   -2.000
 7121.00    1.41416   1.57611   -2.000
 7122.00    1.39449   1.57116   -2.000
 7123.00    1.31670   1.56624   -2.000
 7124.00    1.24033   1.56091   -2.000
 7125.00    1.16553   1.55626   -2.000
 7126.00    1.12327   1.55181   -2.000
 7127.00    1.11238   1.54858   -2.000
 7128.00    1.14504   1.54628   -2.000
 7129.00    1.21475   1.54543   -2.000
 7130.00    1.22543   1.54576   -2.000
 7131.00    1.19192   1.54733   -2.000
 7132.00    1.15854   1.55000   -2.000
 7133.00    1.12526   1.55319   -2.000
 7134.00    1.17823   1.55690   -2.000
 7135.00    1.28088   1.56040   -2.000
 7136.00    1.30972   1.56380   -2.000
 7137.00    1.30151   1.56647   -2.000
 7138.00    1.23625   1.56862   -2.000
 7139.00    1.14622   1.56979   -2.000
 7140.00    1.16410   1.57044   -2.000
 7141.00    1.22218   1.57032   -2.000
 7142.00    1.21231   1.56990   -2.000
 7143.00    1.18099   1.56912   -2.000
 7144.00    1.14251   1.56859   -2.000
 7145.00    1.10215   1.56825   -2.000
 7146.00    1.15038   1.56869   -2.000
 7147.00    1.21772   1.56974   -2.000
 7148.00    1.26505   1.57191   -2.000
 7149.00    1.30898   1.57461   -2.000
 7150.00    1.37303   1.57817   -2.000
 7151.00    1.43968   1.58179   -2.000
 7152.00    1.40060   1.58561   -2.000
 7153.00    1.35191   1.58879   -2.000
 7154.00    1.24912   1.59136   -2.000
 7155.00    1.14337   1.59285   -2.000
 7156.00    1.15507   1.59327   -2.000
 7157.00    1.16949   1.59276   -2.000
 7158.00    1.20776   1.59119   -2.000
 7159.00    1.23983   1.58930   -2.000
 7160.00    1.13100   1.58690   -2.000
 7161.00    1.03408   1.58506   -2.000
 7162.00    1.08706   1.58350   -2.000
 7163.00    1.14097   1.58314   -2.000
 7164.00    1.20285   1.58359   -2.000
 7165.00    1.26428   1.58529   -2.000
 7166.00    1.32293   1.58781   -2.000
 7167.00    1.36550   1.59102   -2.000
 7168.00    1.32823   1.59448   -2.000
 7169.00    1.28699   1.59772   -2.000
 7170.00    1.22976   1.60046   -2.000
 7171.00    1.19331   1.60233   -2.000
 7172.00    1.22631   1.60329   -2.000
 7173.00    1.24562   1.60313   -2.000
 7174.00    1.22632   1.60204   -2.000
 7175.00    1.21457   1.60011   -2.000
 7176.00    1.22106   1.59759   -2.000
 7177.00    1.21469   1.59470   -2.000
 7178.00    1.18155   1.59167   -2.000
 7179.00    1.16912   1.58863   -2.000
 7180.00    1.19418   1.58568   -2.000
 7181.00    1.19185   1.58283   -2.000
 7182.00    1.14617   1.58015   -2.000
 7183.00    1.14316   1.57759   -2.000
 7184.00    1.19945   1.57531   -2.000
 7185.00    1.21944   1.57323   -2.000
 7186.00    1.19505   1.57165   -2.000
 7187.00    1.16443   1.57050   -2.000
 7188.00    1.12708   1.57009   -2.000
 7189.00    1.12671   1.57028   -2.000
 7190.00    1.16149   1.57121   -2.000
 7191.00    1.17021   1.57271   -2.000
 7192.00    1.15706   1.57465   -2.000
 7193.00    1.14529   1.57690   -2.000
 7194.00    1.13453   1.57916   -2.000
 7195.00    1.12508   1.58137   -2.000
 7196.00    1.11649   1.58322   -2.000
 7197.00    1.18463   1.58474   -2.000
 7198.00    1.29629   1.58570   -2.000
 7199.00    1.22890   1.58615   -2.000
 7200.00    1.07308   1.58600   -2.000
 7201.00    1.04332   1.58539   -2.000
 7202.00    1.06740   1.58440   -2.000
 7203.00    1.13597   1.58325   -2.000
 7204.00    1.22080   1.58221   -2.000
 7205.00    1.23502   1.58144   -2.000
 7206.00    1.22737   1.58134   -2.000
 7207.00    1.18737   1.58183   -2.000
 7208.00    1.13903   1.58328   -2.000
 7209.00    1.13786   1.58534   -2.000
 7210.00    1.14661   1.58829   -2.000
 7211.00    1.13085   1.59158   -2.000
 7212.00    1.11101   1.59534   -2.000
 7213.00    0.90236   1.59915   -2.000
 7214.00    0.67011   1.60302   -2.000
 7215.00    0.63953   1.60672   -2.000
 7216.00    0.62642   1.61030   -2.000
 7217.00    0.62880   1.61367   -2.000
 7218.00    0.63197   1.61698   -2.000
