###################################################################
## OUTPUT of StarlightChains_v04.for    [Cid@UFSC - 01/Apr/2007] ##
###################################################################

## Some input info
KUG0210-078._34_39.txt                   [arq_obs]
Base.CB07.vall.4m                        [arq_base]
Masks.EmLines.NEW.gm                     [arq_masks]
StCv04.C11.config                        [arq_config]
   66                                    [N_base]
    0                                    [N_YAV_components = # of components with extra extinction!]
    0                                    [i_FitPowerLaw (1/0 = Yes/No)]
-9.99                                    [alpha_PowerLaw]
CCM                                      [red_law_option]
 1.458241                                [q_norm = A(l_norm)/A(V)]

## (Re)Sampling Parameters
 3741.00                                 [l_ini (A)]
 7218.00                                 [l_fin (A)]
    1.00                                 [dl    (A)]     (OBS: dl_cushion =    50.00 A)

## Normalization info
 4020.00                                 [l_norm (A) - for base]
 4010.00                                 [llow_norm (A) - window for f_obs]
 4060.00                                 [lupp_norm (A) - window for f_obs]
1.435388E-17                             [fobs_norm (in input units)]

## S/N
 3691.00                                 [llow_SN (A) - window for S/N]
 7268.00                                 [lupp_SN (A) - window for S/N]
   3.921                                 [S/N in S/N window]
   2.672                                 [S/N in norm. window]
   0.024                                 [S/N_err in S/N window]
   0.016                                 [S/N_err in norm. window]
  1.0000                                 [fscale_chi2]

## etc...
    -2007544                             [idum_orig]
  2429                                   [NOl_eff]
  2419                                   [Nl_eff]
    10    NSIGMA                         [Ntot_cliped & clip_method]
  2630740                                [Nglobal_steps]
   7                                     [N_chains]
  23                                     [NEX0s_base = N_base in EX0s-fits]
 0   0   1       10   2.0   1.868E+03    [Clip-Bug, RC-Crash & Burn-In warning-flags, n_censored_weights, wei_nsig_threshold & wei_limit]
    42     42.503     42.091      0.411  [idt_all, wdt_TotTime, wdt_UsrTime & wdt_SysTime (sec)]

## Synthesis Results - Best model ##

 7.07166E-06                             [chi2/Nl_eff]
    11.19419                             [adev (%)]

   111.61063                             [sum-of-x (%)]
 1.34617E-17                             [Flux_tot (units of input spectrum!)]
 1.56485E-12                             [Mini_tot (???)]
 7.85699E-13                             [Mcor_tot (???)]

 -90.16                                  [v0_min  (km/s)]
 330.21                                  [vd_min  (km/s)]
-0.1296                                  [AV_min  (mag)]
 0.0000                                  [YAV_min (mag)]

# j     x_j(%)      Mini_j(%)     Mcor_j(%)     age_j(yr)     Z_j      (L/M)_j    YAV?  Mstars   component_j        a/Fe...       SSP_chi2r SSP_adev(%)   SSP_AV   SSP_x(%)
  1      0.0000     0.0000E+00    0.0000E+00    1.000000E+06  0.00400  1.094E-02    0   1.0000   age020_m42            0.0000     2.1515E-05    21.6473   4.0000    95.1250
  2      0.0000     0.0000E+00    0.0000E+00    3.160000E+06  0.00400  4.007E-02    0   0.9999   age045_m42            0.0000     1.7853E-05    19.8501   3.3459    99.3703
  3      0.0000     0.0000E+00    0.0000E+00    5.010000E+06  0.00400  2.539E-02    0   0.9488   age055_m42            0.0000     1.9432E-05    20.7485   3.6737    96.6327
  4      0.0000     0.0000E+00    0.0000E+00    6.610000E+06  0.00400  2.620E-02    0   0.9220   age061_m42            0.0000     1.7899E-05    19.8994   3.2705    99.6467
  5      0.0000     0.0000E+00    0.0000E+00    1.000000E+07  0.00400  1.322E-02    0   0.8862   age070_m42            0.0000     2.0043E-05    21.4085   2.9941   101.4199
  6      0.0000     0.0000E+00    0.0000E+00    1.445000E+07  0.00400  7.883E-03    0   0.8571   age078_m42            0.0000     2.0800E-05    21.7594   3.3244    98.7089
  7      0.0000     0.0000E+00    0.0000E+00    2.512000E+07  0.00400  5.251E-03    0   0.8174   age090_m42            0.0000     2.0318E-05    21.5965   2.8640   101.9880
  8      0.0000     0.0000E+00    0.0000E+00    4.000000E+07  0.00400  3.649E-03    0   0.7851   age104_m42            0.0000     1.9351E-05    21.0386   2.6333   103.0193
  9      0.0000     0.0000E+00    0.0000E+00    5.500000E+07  0.00400  3.098E-03    0   0.7629   age110_m42            0.0000     1.7902E-05    20.0366   2.7813   103.3069
 10      0.0000     0.0000E+00    0.0000E+00    1.015200E+08  0.00400  2.228E-03    0   0.7207   age116_m42            0.0000     1.6926E-05    19.3244   2.7968   103.7351
 11      0.0000     0.0000E+00    0.0000E+00    2.861200E+08  0.00400  1.093E-03    0   0.6648   age125_m42            0.0000     1.6802E-05    19.2842   2.2158   107.1062
 12      0.0000     0.0000E+00    0.0000E+00    5.088000E+08  0.00400  6.597E-04    0   0.6365   age130_m42            0.0000     1.4981E-05    17.9469   2.2011   108.3387
 13      0.0000     0.0000E+00    0.0000E+00    1.434000E+09  0.00400  2.132E-04    0   0.5798   age139_m42            0.0000     1.2243E-05    16.3962   1.2319   110.6345
 14      0.0000     0.0000E+00    0.0000E+00    4.250000E+09  0.00400  5.895E-05    0   0.5377   age158_m42            0.0000     1.1017E-05    15.3425   0.7943   106.3828
 15      0.0000     0.0000E+00    0.0000E+00    7.500000E+09  0.00400  3.510E-05    0   0.5212   age171_m42            0.0000     1.0339E-05    14.6512   0.6026   105.8447
 16      0.0000     0.0000E+00    0.0000E+00    1.300000E+10  0.00400  2.005E-05    0   0.5034   age193_m42            0.0000     9.8898E-06    14.1408   0.4347   105.3790
 17      0.0000     0.0000E+00    0.0000E+00    1.800000E+10  0.00400  1.525E-05    0   0.4967   age213_m42            0.0000     1.0116E-05    14.3510   0.4125   104.8690
 18      0.0000     0.0000E+00    0.0000E+00    1.000000E+06  0.00800  1.238E-02    0   1.0000   age020_m52            0.0000     2.1485E-05    21.6343   4.0000    95.1999
 19      0.0000     0.0000E+00    0.0000E+00    3.160000E+06  0.00800  3.074E-02    0   0.9966   age045_m52            0.0000     2.0944E-05    21.4526   4.0000    93.6438
 20      0.0000     0.0000E+00    0.0000E+00    5.010000E+06  0.00800  2.668E-02    0   0.9443   age055_m52            0.0000     1.9937E-05    21.0117   3.7583    95.6853
 21      0.0000     0.0000E+00    0.0000E+00    6.610000E+06  0.00800  2.136E-02    0   0.9177   age061_m52            0.0000     1.8974E-05    20.9375   2.4990   102.5014
 22      0.0000     0.0000E+00    0.0000E+00    1.000000E+07  0.00800  1.215E-02    0   0.8827   age070_m52            0.0000     2.1399E-05    22.1607   3.1745   101.0365
 23      0.0000     0.0000E+00    0.0000E+00    1.445000E+07  0.00800  8.717E-03    0   0.8552   age078_m52            0.0000     2.0504E-05    21.6165   3.2883   100.1533
 24      0.0000     0.0000E+00    0.0000E+00    2.512000E+07  0.00800  5.592E-03    0   0.8162   age090_m52            0.0000     2.0301E-05    21.5690   2.9252   103.2598
 25      0.0000     0.0000E+00    0.0000E+00    4.000000E+07  0.00800  3.896E-03    0   0.7841   age104_m52            0.0000     1.9109E-05    20.8320   2.8315   104.3207
 26      0.0000     0.0000E+00    0.0000E+00    1.015200E+08  0.00800  2.148E-03    0   0.7226   age116_m52            0.0000     1.7303E-05    19.6334   2.7649   104.4759
 27      0.0000     0.0000E+00    0.0000E+00    2.861200E+08  0.00800  9.925E-04    0   0.6683   age125_m52            0.0000     1.4888E-05    17.8602   2.2660   109.3666
 28      0.0000     0.0000E+00    0.0000E+00    9.047900E+08  0.00800  3.141E-04    0   0.6138   age135_m52            0.0000     1.1129E-05    15.1356   1.4552   114.5993
 29      0.0000     0.0000E+00    0.0000E+00    1.434000E+09  0.00800  1.719E-04    0   0.5853   age139_m52            0.0000     1.0899E-05    15.3186   0.8791   112.0644
 30      0.0000     0.0000E+00    0.0000E+00    2.500000E+09  0.00800  7.872E-05    0   0.5600   age150_m52            0.0000     9.4757E-06    13.9952   0.6143   109.1795
 31      0.0000     0.0000E+00    0.0000E+00    4.250000E+09  0.00800  4.336E-05    0   0.5426   age158_m52            0.0000     9.5299E-06    13.9434   0.6001   108.1188
 32      0.0000     0.0000E+00    0.0000E+00    6.250000E+09  0.00800  3.159E-05    0   0.5319   age166_m52            0.0000     8.6495E-06    13.0646   0.3918   108.4370
 33      0.0000     0.0000E+00    0.0000E+00    1.300000E+10  0.00800  1.361E-05    0   0.5073   age193_m52            0.0000     7.8502E-06    12.1337  -0.0831   108.1024
 34      4.2057     3.2790E+00    3.2588E+00    1.800000E+10  0.00800  9.886E-06    0   0.4990   age213_m52            0.0000     7.4197E-06    11.5760  -0.1974   107.8864
 35      0.0000     0.0000E+00    0.0000E+00    1.000000E+06  0.02000  1.544E-02    0   1.0000   age020_m62            0.0000     2.1556E-05    21.6682   4.0000    95.2954
 36      0.0000     0.0000E+00    0.0000E+00    3.160000E+06  0.02000  3.762E-02    0   0.9858   age045_m62            0.0000     2.1280E-05    21.5845   4.0000    94.1998
 37      0.0000     0.0000E+00    0.0000E+00    5.010000E+06  0.02000  3.296E-02    0   0.9342   age055_m62            0.0000     1.8594E-05    20.2387   3.6282    98.0697
 38      0.0000     0.0000E+00    0.0000E+00    8.710000E+06  0.02000  1.154E-02    0   0.8861   age067_m62            0.0000     2.9248E-05    26.3741   2.6305   103.1653
 39      0.0000     0.0000E+00    0.0000E+00    1.445000E+07  0.02000  7.663E-03    0   0.8472   age078_m62            0.0000     2.3045E-05    23.1337   2.8174   103.2649
 40      0.0000     0.0000E+00    0.0000E+00    2.512000E+07  0.02000  4.532E-03    0   0.8099   age090_m62            0.0000     2.3404E-05    23.3276   2.8064   103.0520
 41      0.0000     0.0000E+00    0.0000E+00    5.500000E+07  0.02000  2.733E-03    0   0.7595   age110_m62            0.0000     1.9226E-05    20.9505   2.8151   103.5426
 42      0.0000     0.0000E+00    0.0000E+00    1.609000E+08  0.02000  1.369E-03    0   0.6985   age120_m62            0.0000     1.6430E-05    18.9727   2.6401   107.1072
 43      0.0000     0.0000E+00    0.0000E+00    2.861200E+08  0.02000  9.013E-04    0   0.6714   age125_m62            0.0000     1.4688E-05    17.5805   2.3807   110.6966
 44      3.6657     5.6193E-02    7.2175E-02    5.088000E+08  0.02000  5.028E-04    0   0.6449   age130_m62            0.0000     1.1925E-05    15.4036   1.9942   114.1624
 45     10.9606     3.4794E-01    4.2820E-01    9.047900E+08  0.02000  2.428E-04    0   0.6179   age135_m62            0.0000     1.0072E-05    14.3751   1.4050   113.6881
 46      0.0000     0.0000E+00    0.0000E+00    1.434000E+09  0.02000  1.263E-04    0   0.5908   age139_m62            0.0000     9.5593E-06    14.0314   0.9637   111.9695
 47      1.6486     2.1232E-01    2.3989E-01    2.500000E+09  0.02000  5.985E-05    0   0.5673   age150_m62            0.0000     8.6784E-06    13.1271   0.5945   110.6778
 48      0.0000     0.0000E+00    0.0000E+00    4.250000E+09  0.02000  3.271E-05    0   0.5468   age158_m62            0.0000     7.7512E-06    12.1291   0.2822   110.1502
 49     17.9670     1.0183E+01    1.0479E+01    1.000000E+10  0.02000  1.360E-05    0   0.5167   age181_m62            0.0000     7.1535E-06    11.2521  -0.0788   110.3166
 50     16.3310     1.7669E+01    1.7641E+01    1.800000E+10  0.02000  7.124E-06    0   0.5013   age213_m62            0.0000     7.1417E-06    10.9676  -0.2992   109.9117
 51      0.0000     0.0000E+00    0.0000E+00    1.000000E+06  0.05000  2.592E-02    0   0.9998   age020_m72            0.0000     2.1888E-05    21.8374   4.0000    95.0476
 52      0.0000     0.0000E+00    0.0000E+00    3.160000E+06  0.05000  4.845E-02    0   0.9577   age045_m72            0.0000     2.0144E-05    21.0256   3.8972    95.0516
 53      0.0000     0.0000E+00    0.0000E+00    5.010000E+06  0.05000  3.072E-02    0   0.9147   age055_m72            0.0000     2.2498E-05    22.5960   3.3998    99.4028
 54      0.1058     5.6056E-05    9.9108E-05    6.610000E+06  0.05000  1.455E-02    0   0.8877   age061_m72            0.0000     3.6230E-05    29.5661   2.6438   104.2671
 55      0.0000     0.0000E+00    0.0000E+00    1.000000E+07  0.05000  9.074E-03    0   0.8524   age070_m72            0.0000     2.4058E-05    23.2047   3.5587    99.4929
 56      0.0000     0.0000E+00    0.0000E+00    2.512000E+07  0.05000  4.250E-03    0   0.7902   age090_m72            0.0000     2.1904E-05    22.2498   3.2668   101.4601
 57      0.0000     0.0000E+00    0.0000E+00    4.000000E+07  0.05000  3.087E-03    0   0.7618   age104_m72            0.0000     2.1760E-05    22.2362   3.0356   103.2931
 58      0.0000     0.0000E+00    0.0000E+00    1.015200E+08  0.05000  1.700E-03    0   0.7096   age116_m72            0.0000     1.7741E-05    19.7782   2.7813   106.5664
 59      0.0000     0.0000E+00    0.0000E+00    2.861200E+08  0.05000  7.384E-04    0   0.6633   age125_m72            0.0000     1.3155E-05    16.4160   2.2423   112.5799
 60      0.0000     0.0000E+00    0.0000E+00    5.088000E+08  0.05000  3.819E-04    0   0.6372   age130_m72            0.0000     1.0643E-05    14.7535   1.7472   114.7427
 61      6.0986     2.8047E-01    3.4130E-01    9.047900E+08  0.05000  1.676E-04    0   0.6110   age135_m72            0.0000     8.7973E-06    13.2523   1.0513   112.9230
 62      2.6872     2.3438E-01    2.7420E-01    1.434000E+09  0.05000  8.837E-05    0   0.5874   age139_m72            0.0000     8.4412E-06    12.8870   0.5874   112.5980
 63      0.0000     0.0000E+00    0.0000E+00    2.500000E+09  0.05000  4.233E-05    0   0.5598   age150_m72            0.0000     7.5502E-06    11.8547   0.2761   111.3768
 64      1.4258     7.6579E-01    8.0058E-01    6.250000E+09  0.05000  1.435E-05    0   0.5249   age166_m72            0.0000     7.1850E-06    11.3162  -0.1796   110.0519
 65     23.5428     2.7861E+01    2.7945E+01    1.300000E+10  0.05000  6.513E-06    0   0.5036   age193_m72            0.0000     7.4123E-06    11.0904  -0.4709   111.5736
 66     22.9718     3.9111E+01    3.8520E+01    1.800000E+10  0.05000  4.527E-06    0   0.4945   age213_m72            0.0000     7.8644E-06    11.1721  -0.6386   111.5954


## Synthesis Results - Average & Chains ##

# j      x_j: min, <> & last-chain-values for 1 ...  7 chains
  1      0.0000      1.5073      0.0000      0.0000      0.0000      0.0000      0.0153      0.0000      0.0000
  2      0.0000      1.1969      0.0000      0.0000      0.0014      0.0000      0.0000      0.0000      0.0000
  3      0.0000      1.0794      0.0000      0.0270      0.0000      0.0000      0.0000      0.0000      0.0000
  4      0.0000      3.0384      0.0000      0.0817      0.0000      0.0000      0.0000      0.0000      0.0000
  5      0.0000      1.3383      0.0000      0.0000      0.0000      0.0297      0.0148      0.0868      0.0000
  6      0.0000      1.2536      0.0000      0.0000      0.0000      0.0000      0.0000      0.0157      0.0541
  7      0.0000      1.0666      0.0000      0.0000      0.0000      0.0000      0.0000      0.0058      0.0000
  8      0.0000      1.6213      0.0000      0.0616      0.0000      0.0000      0.0194      0.0000      0.0000
  9      0.0000      1.7323      0.4874      0.3609      0.3801      0.3664      0.3464      0.4395      0.3666
 10      0.0000      1.9939      0.2055      0.2019      0.0894      0.0764      0.2274      0.0778      0.1542
 11      0.0000      1.4698      0.3207      0.1451      0.2541      0.2192      0.1971      0.2901      0.1953
 12      0.0000      1.2603      0.0000      0.0000      0.0000      0.0758      0.0000      0.0000      0.0000
 13      0.0000      1.7915      0.0049      0.0000      0.0000      0.0000      0.0737      0.0000      0.2935
 14      0.0000      1.7844      0.0000      0.0360      0.0110      0.0000      0.0000      0.0000      0.0000
 15      0.0000      1.4584      0.0019      0.0000      0.1139      0.0000      0.0414      0.2550      0.0000
 16      0.0000      1.1114      0.6797      0.4560      0.5990      0.2887      0.0092      0.3590      0.6677
 17      0.0000      1.7549      0.2991      0.1043      0.5237      0.3802      0.3469      0.0000      0.3025
 18      0.0000      1.1197      0.0000      0.0410      0.0000      0.0000      0.0000      0.0000      0.0000
 19      0.0000      1.4552      0.0157      0.0249      0.0000      0.0102      0.0772      0.0000      0.0176
 20      0.0000      1.2780      0.0000      0.0000      0.0000      0.0000      0.0000      0.0000      0.0000
 21      0.0000      1.2694      0.0705      0.1239      0.0000      0.0844      0.1210      0.0000      0.0996
 22      0.0000      1.3152      0.1904      0.2028      0.0000      0.2721      0.1855      0.1900      0.2502
 23      0.0000      1.3067      0.0000      0.0000      0.0000      0.0000      0.0000      0.0000      0.0000
 24      0.0000      1.3855      0.0000      0.0224      0.0000      0.0000      0.0402      0.0000      0.0000
 25      0.0000      1.3759      0.0590      0.0000      0.0527      0.0000      0.0266      0.0000      0.0000
 26      0.0000      1.4890      0.0000      0.0000      0.0000      0.0000      0.0464      0.0000      0.0000
 27      0.0000      1.6647      0.0000      0.0864      0.0000      0.0445      0.0000      0.0000      0.1198
 28      0.0000      1.4109      0.6344      0.6040      0.6297      0.7079      0.6633      0.5787      0.5952
 29      0.0000      1.0914      0.0054      0.0000      0.0000      0.1455      0.1689      0.0506      0.0000
 30      0.0000      1.5712      0.0041      0.0406      0.0111      0.0479      0.0749      0.0000      0.0000
 31      0.0000      1.5979      2.4131      2.4474      2.4189      2.4333      2.2352      2.5240      2.8177
 32      0.0000      1.7953      4.1095      3.5213      3.8796      4.5106      2.7255      4.1644      3.8398
 33      0.0000      3.1273     23.0551     21.3810     23.8509     19.5340     21.5199     19.8869     21.4041
 34      4.2057      2.6680     16.2603     16.2785     13.5752     16.2411     15.0828     16.6899     13.8029
 35      0.0000      1.6939      1.4958      1.4644      1.4384      1.4568      1.5866      1.4624      1.4168
 36      0.0000      1.4266      0.3736      0.3494      0.3054      0.4168      0.4070      0.4389      0.3557
 37      0.0000      1.8497      2.0889      1.9168      1.6878      1.9840      2.4017      1.8337      1.7758
 38      0.0000      1.4673      0.0571      0.0000      0.0466      0.0349      0.0000      0.0000      0.0000
 39      0.0000      1.9029      0.0000      0.1863      0.1102      0.1606      0.2190      0.1952      0.2648
 40      0.0000      1.0098      0.1500      0.1696      0.1252      0.1392      0.0000      0.0991      0.2122
 41      0.0000      1.3586      0.0659      0.0500      0.0175      0.0000      0.0000      0.0000      0.0000
 42      0.0000      1.7285      0.1974      0.1863      0.2422      0.1344      0.1841      0.2016      0.1050
 43      0.0000      1.2436      0.0227      0.0000      0.0000      0.0799      0.0000      0.0000      0.0137
 44      3.6657      1.3376      2.3821      2.4071      2.3625      2.4394      2.4360      2.3362      2.3328
 45     10.9606      1.8052      0.2006      0.3795      0.4034      0.4219      0.6139      0.3221      0.4592
 46      0.0000      1.7317      4.4672      4.5034      4.3828      4.3978      4.4531      4.7651      4.2483
 47      1.6486      1.3582      2.0483      2.4385      2.2335      1.4860      2.1794      2.3899      2.2713
 48      0.0000      1.5131      0.0074      0.0000      0.1111      0.0854      0.0000      0.0000      0.4369
 49     17.9670      1.1701      0.0514      2.5674      3.1354      3.1664      1.8936      1.9031      3.2662
 50     16.3310      1.6705      4.5414      4.3222      4.4313      4.3593      4.3023      4.4457      4.4036
 51      0.0000      1.1773      0.0000      0.0000      0.0632      0.0069      0.0000      0.0000      0.0000
 52      0.0000      1.8095      0.1632      0.1660      0.2555      0.1460      0.3063      0.2757      0.2615
 53      0.0000      1.4770      0.0000      0.0000      0.0202      0.0000      0.0000      0.0000      0.0000
 54      0.1058      1.6677      0.3697      0.2766      0.2768      0.3657      0.2919      0.2903      0.3283
 55      0.0000      1.1057      0.0000      0.0289      0.0488      0.0000      0.0071      0.0301      0.0854
 56      0.0000      1.3933      0.0131      0.0000      0.0000      0.0000      0.0241      0.0000      0.0000
 57      0.0000      1.3038      0.0000      0.0391      0.0000      0.0000      0.0522      0.0836      0.0000
 58      0.0000      1.7244      0.0000      0.0497      0.0291      0.0288      0.0000      0.3073      0.0019
 59      0.0000      1.1330      0.0343      0.0000      0.0000      0.0000      0.1109      0.0336      0.0603
 60      0.0000      1.5155      0.2152      0.1663      0.1769      0.0286      0.1507      0.2594      0.0794
 61      6.0986      2.4636      8.1727      7.6193      7.4591      9.1312     11.1975      8.7640      8.3060
 62      2.6872      3.4697     20.6826     22.2736     20.0738     20.3970     20.2893     20.0269     20.4592
 63      0.0000      1.8349      0.0000      0.0568      0.0000      0.0763      0.0000      0.1685      0.0686
 64      1.4258      1.2832      1.9151      0.6804      2.3142      1.8349      2.0607      1.6826      1.7871
 65     23.5428      1.4198      5.4586      5.4508      4.5129      5.2553      5.6222      5.4595      5.3009
 66     22.9718      1.0685      0.0000      0.0000      0.5459      0.5477      0.4671      0.6167      0.7898

# j      m_j: min, <> & last-chain-values for 1 ...  7 chains
  1  0.0000E+00  1.3694E-02  0.0000E+00  0.0000E+00  0.0000E+00  0.0000E+00  4.9626E-05  0.0000E+00  0.0000E+00
  2  0.0000E+00  2.9684E-03  0.0000E+00  0.0000E+00  1.2267E-06  0.0000E+00  0.0000E+00  0.0000E+00  0.0000E+00
  3  0.0000E+00  4.0090E-03  0.0000E+00  3.6078E-05  0.0000E+00  0.0000E+00  0.0000E+00  0.0000E+00  0.0000E+00
  4  0.0000E+00  1.0627E-02  0.0000E+00  1.0269E-04  0.0000E+00  0.0000E+00  0.0000E+00  0.0000E+00  0.0000E+00
  5  0.0000E+00  8.9166E-03  0.0000E+00  0.0000E+00  0.0000E+00  6.9990E-05  3.5257E-05  2.0400E-04  0.0000E+00
  6  0.0000E+00  1.3546E-02  0.0000E+00  0.0000E+00  0.0000E+00  0.0000E+00  0.0000E+00  5.9968E-05  2.0705E-04
  7  0.0000E+00  1.6501E-02  0.0000E+00  0.0000E+00  0.0000E+00  0.0000E+00  0.0000E+00  3.1615E-05  0.0000E+00
  8  0.0000E+00  3.4670E-02  0.0000E+00  4.7314E-04  0.0000E+00  0.0000E+00  1.4843E-04  0.0000E+00  0.0000E+00
  9  0.0000E+00  4.2397E-02  4.2354E-03  3.1756E-03  3.2979E-03  3.1691E-03  3.0346E-03  3.7936E-03  3.1796E-03
 10  0.0000E+00  6.4104E-02  2.3453E-03  2.3331E-03  1.0189E-03  8.6848E-04  2.6165E-03  8.8217E-04  1.7572E-03
 11  0.0000E+00  8.8850E-02  6.8835E-03  3.1541E-03  5.4443E-03  4.6819E-03  4.2653E-03  6.1851E-03  4.1829E-03
 12  0.0000E+00  1.2085E-01  0.0000E+00  0.0000E+00  0.0000E+00  2.5697E-03  0.0000E+00  0.0000E+00  0.0000E+00
 13  0.0000E+00  4.8422E-01  4.7408E-04  0.0000E+00  0.0000E+00  0.0000E+00  7.1284E-03  0.0000E+00  2.8111E-02
 14  0.0000E+00  1.6176E+00  0.0000E+00  1.1738E-02  3.5385E-03  0.0000E+00  0.0000E+00  0.0000E+00  0.0000E+00
 15  0.0000E+00  2.1524E+00  1.0066E-03  0.0000E+00  5.9610E-02  0.0000E+00  2.1853E-02  1.3274E-01  0.0000E+00
 16  0.0000E+00  2.7734E+00  6.0220E-01  4.0906E-01  5.2990E-01  2.5455E-01  8.2549E-03  3.1589E-01  5.9041E-01
 17  0.0000E+00  5.6808E+00  3.4379E-01  1.2138E-01  6.0094E-01  4.3483E-01  4.0199E-01  0.0000E+00  3.4705E-01
 18  0.0000E+00  8.9890E-03  0.0000E+00  1.1840E-04  0.0000E+00  0.0000E+00  0.0000E+00  0.0000E+00  0.0000E+00
 19  0.0000E+00  4.6888E-03  1.7922E-05  2.8867E-05  0.0000E+00  1.1660E-05  8.9044E-05  0.0000E+00  2.0081E-05
 20  0.0000E+00  4.4956E-03  0.0000E+00  0.0000E+00  0.0000E+00  0.0000E+00  0.0000E+00  0.0000E+00  0.0000E+00
 21  0.0000E+00  5.4203E-03  1.0694E-04  1.9024E-04  0.0000E+00  1.2729E-04  1.8500E-04  0.0000E+00  1.5078E-04
 22  0.0000E+00  9.4966E-03  4.8827E-04  5.2628E-04  0.0000E+00  6.9434E-04  4.7938E-04  4.8380E-04  6.4010E-04
 23  0.0000E+00  1.2741E-02  0.0000E+00  0.0000E+00  0.0000E+00  0.0000E+00  0.0000E+00  0.0000E+00  0.0000E+00
 24  0.0000E+00  2.0099E-02  0.0000E+00  1.1665E-04  0.0000E+00  0.0000E+00  2.0853E-04  0.0000E+00  0.0000E+00
 25  0.0000E+00  2.7522E-02  4.1876E-04  0.0000E+00  3.7359E-04  0.0000E+00  1.9019E-04  0.0000E+00  0.0000E+00
 26  0.0000E+00  4.9785E-02  0.0000E+00  0.0000E+00  0.0000E+00  0.0000E+00  5.5563E-04  0.0000E+00  0.0000E+00
 27  0.0000E+00  1.1141E-01  0.0000E+00  2.0796E-03  0.0000E+00  1.0513E-03  0.0000E+00  0.0000E+00  2.8411E-03
 28  0.0000E+00  2.7402E-01  4.3749E-02  4.2167E-02  4.3356E-02  4.8583E-02  4.6114E-02  3.9639E-02  4.0964E-02
 29  0.0000E+00  3.6932E-01  6.4294E-04  0.0000E+00  0.0000E+00  1.7400E-02  2.0459E-02  6.0416E-03  0.0000E+00
 30  0.0000E+00  1.1109E+00  1.0391E-03  1.0314E-02  2.7800E-03  1.1957E-02  1.8950E-02  0.0000E+00  0.0000E+00
 31  0.0000E+00  1.9873E+00  1.0656E+00  1.0942E+00  1.0664E+00  1.0694E+00  9.9513E-01  1.1071E+00  1.2418E+00
 32  0.0000E+00  3.0044E+00  2.4418E+00  2.1182E+00  2.3015E+00  2.6672E+00  1.6327E+00  2.4577E+00  2.2770E+00
 33  0.0000E+00  1.1585E+01  3.0326E+01  2.8473E+01  3.1322E+01  2.5571E+01  2.8538E+01  2.5982E+01  2.8098E+01
 34  3.2588E+00  1.3385E+01  2.8964E+01  2.9355E+01  2.4141E+01  2.8790E+01  2.7086E+01  2.9528E+01  2.4537E+01
 35  0.0000E+00  1.0904E-02  3.4188E-03  3.3884E-03  3.2822E-03  3.3136E-03  3.6560E-03  3.3197E-03  3.2317E-03
 36  0.0000E+00  3.7153E-03  3.4551E-04  3.2709E-04  2.8193E-04  3.8356E-04  3.7944E-04  4.0310E-04  3.2830E-04
 37  0.0000E+00  5.2106E-03  2.0893E-03  1.9410E-03  1.6854E-03  1.9749E-03  2.4218E-03  1.8217E-03  1.7726E-03
 38  0.0000E+00  1.1197E-02  1.5464E-04  0.0000E+00  1.2595E-04  9.4054E-05  0.0000E+00  0.0000E+00  0.0000E+00
 39  0.0000E+00  2.0909E-02  0.0000E+00  7.3573E-04  4.2940E-04  6.2343E-04  8.6137E-04  7.5656E-04  1.0309E-03
 40  0.0000E+00  1.7935E-02  9.4597E-04  1.0831E-03  7.8849E-04  8.7379E-04  0.0000E+00  6.2100E-04  1.3354E-03
 41  0.0000E+00  3.7523E-02  6.4639E-04  4.9664E-04  1.7156E-04  0.0000E+00  0.0000E+00  0.0000E+00  0.0000E+00
 42  0.0000E+00  8.7652E-02  3.5550E-03  3.3962E-03  4.3537E-03  2.4086E-03  3.3413E-03  3.6052E-03  1.8862E-03
 43  0.0000E+00  9.2072E-02  5.9726E-04  0.0000E+00  0.0000E+00  2.0901E-03  0.0000E+00  0.0000E+00  3.5916E-04
 44  7.2175E-02  1.7051E-01  1.0782E-01  1.1030E-01  1.0676E-01  1.0988E-01  1.1116E-01  1.0503E-01  1.0538E-01
 45  4.2820E-01  4.5658E-01  1.8014E-02  3.4508E-02  3.6173E-02  3.7708E-02  5.5583E-02  2.8730E-02  4.1160E-02
 46  0.0000E+00  8.0510E-01  7.3742E-01  7.5260E-01  7.2230E-01  7.2247E-01  7.4110E-01  7.8128E-01  6.9988E-01
 47  2.3989E-01  1.2795E+00  6.8514E-01  8.2578E-01  7.4587E-01  4.9465E-01  7.3496E-01  7.9399E-01  7.5821E-01
 48  0.0000E+00  2.5139E+00  4.3926E-03  0.0000E+00  6.5434E-02  5.0110E-02  0.0000E+00  0.0000E+00  2.5720E-01
 49  1.0479E+01  4.4182E+00  6.8853E-02  3.4848E+00  4.1969E+00  4.2249E+00  2.5596E+00  2.5342E+00  4.3703E+00
 50  1.7641E+01  1.1683E+01  1.1277E+01  1.0866E+01  1.0986E+01  1.0773E+01  1.0771E+01  1.0965E+01  1.0913E+01
 51  0.0000E+00  4.5132E-03  0.0000E+00  0.0000E+00  8.5897E-05  9.3423E-06  0.0000E+00  0.0000E+00  0.0000E+00
 52  0.0000E+00  3.5549E-03  1.1382E-04  1.1725E-04  1.7794E-04  1.0137E-04  2.1541E-04  1.9103E-04  1.8208E-04
 53  0.0000E+00  4.3710E-03  0.0000E+00  0.0000E+00  2.1163E-05  0.0000E+00  0.0000E+00  0.0000E+00  0.0000E+00
 54  9.9108E-05  1.0112E-02  7.9606E-04  6.0289E-04  5.9491E-04  7.8367E-04  6.3357E-04  6.2072E-04  7.0543E-04
 55  0.0000E+00  1.0323E-02  0.0000E+00  9.7007E-05  1.6167E-04  0.0000E+00  2.3824E-05  9.8981E-05  2.8252E-04
 56  0.0000E+00  2.5746E-02  8.5894E-05  0.0000E+00  0.0000E+00  0.0000E+00  1.5951E-04  0.0000E+00  0.0000E+00
 57  0.0000E+00  3.1977E-02  0.0000E+00  3.4447E-04  0.0000E+00  0.0000E+00  4.5852E-04  7.2302E-04  0.0000E+00
 58  0.0000E+00  7.1536E-02  0.0000E+00  7.4049E-04  4.2741E-04  4.2167E-04  0.0000E+00  4.4964E-03  2.8322E-05
 59  0.0000E+00  1.0115E-01  1.0877E-03  0.0000E+00  0.0000E+00  0.0000E+00  3.5431E-03  1.0569E-03  1.9067E-03
 60  0.0000E+00  2.5132E-01  1.2670E-02  9.9130E-03  1.0396E-02  1.6748E-03  8.9487E-03  1.5172E-02  4.6673E-03
 61  3.4130E-01  8.9262E-01  1.0514E+00  9.9237E-01  9.5804E-01  1.1691E+00  1.4523E+00  1.1199E+00  1.0664E+00
 62  2.7420E-01  2.2922E+00  4.8515E+00  5.2895E+00  4.7010E+00  4.7615E+00  4.7981E+00  4.6659E+00  4.7895E+00
 63  0.0000E+00  2.4117E+00  0.0000E+00  2.6824E-02  0.0000E+00  3.5439E-02  0.0000E+00  7.8100E-02  3.1935E-02
 64  8.0058E-01  4.6649E+00  2.4721E+00  8.8914E-01  2.9824E+00  2.3571E+00  2.6817E+00  2.1573E+00  2.3022E+00
 65  2.7945E+01  1.0911E+01  1.4895E+01  1.5058E+01  1.2294E+01  1.4271E+01  1.5466E+01  1.4796E+01  1.4435E+01
 66  3.8520E+01  1.1600E+01  0.0000E+00  0.0000E+00  2.1009E+00  2.1011E+00  1.8155E+00  2.3612E+00  3.0385E+00

# AV, chi2 & Mass for <> & i_chain = 1 ...  7 solutions
AV      -0.1296      0.4295      0.4177      0.4266      0.4182      0.4213      0.4186      0.4231      0.4201
chi2 7.0717E-06  9.8912E-05  9.1539E-06  9.1499E-06  9.2161E-06  9.1029E-06  8.9578E-06  9.1354E-06  9.1033E-06
Mass 7.8570E-13  2.5712E-13  7.1282E-13  7.1258E-13  7.1440E-13  7.1968E-13  7.0787E-13  7.2287E-13  7.1659E-13
 -90.16                                  [v0_min (km/s) before EX0s...]
 330.21                                  [vd_min (km/s) before EX0s...]


## Synthetic spectrum (Best Model) ##l_obs f_obs f_syn wei
 3478    [Nl_obs]
 3741.00    0.44928   0.41768    0.000
 3742.00    0.49230   0.41224    0.000
 3743.00    0.44018   0.40531    0.000
 3744.00    0.36481   0.39874    0.000
 3745.00    0.27591   0.39350    0.034
 3746.00    0.29289   0.39280    0.034
 3747.00    0.36365   0.39640    0.032
 3748.00    0.29712   0.40594    0.032
 3749.00    0.17023   0.42115    0.032
 3750.00    0.22769   0.43849    0.032
 3751.00    0.35475   0.45606    0.032
 3752.00    0.35649   0.47189    0.031
 3753.00    0.31806   0.48584    0.031
 3754.00    0.31551   0.49516    0.031
 3755.00    0.32257   0.49857    0.030
 3756.00    0.39650   0.49795    0.030
 3757.00    0.48511   0.49460    0.030
 3758.00    0.45704   0.49126    0.030
 3759.00    0.40860   0.48831    0.029
 3760.00    0.34348   0.48465    0.033
 3761.00    0.27614   0.48323    0.039
 3762.00    0.44316   0.48504    0.034
 3763.00    0.63220   0.48892    0.029
 3764.00    0.67846   0.49563    0.029
 3765.00    0.71647   0.50402    0.029
 3766.00    0.71088   0.51455    0.030
 3767.00    0.70347   0.52808    0.031
 3768.00    0.60236   0.54287    0.030
 3769.00    0.49935   0.55769    0.029
 3770.00    0.35018   0.57335    0.028
 3771.00    0.21224   0.58919    0.027
 3772.00    0.22134   0.60357    0.026
 3773.00    0.25533   0.61718    0.026
 3774.00    0.50785   0.62951    0.026
 3775.00    0.70088   0.64023    0.027
 3776.00    0.50816   0.65027    0.027
 3777.00    0.33680   0.65767    0.027
 3778.00    0.27357   0.66269    0.027
 3779.00    0.24461   0.66499    0.026
 3780.00    0.35598   0.66219    0.027
 3781.00    0.43266   0.65634    0.028
 3782.00    0.39171   0.64604    0.028
 3783.00    0.35143   0.63140    0.028
 3784.00    0.31308   0.61419    0.028
 3785.00    0.27336   0.59405    0.028
 3786.00    0.23028   0.57429    0.028
 3787.00    0.23238   0.55514    0.028
 3788.00    0.32966   0.53728    0.029
 3789.00    0.43556   0.52135    0.029
 3790.00    0.55722   0.50748    0.029
 3791.00    0.54848   0.49553    0.029
 3792.00    0.33099   0.48517    0.029
 3793.00    0.28509   0.47828    0.028
 3794.00    0.48023   0.47395    0.028
 3795.00    0.56126   0.47313    0.028
 3796.00    0.50125   0.47574    0.027
 3797.00    0.42917   0.48198    0.027
 3798.00    0.34394   0.49254    0.027
 3799.00    0.31586   0.50610    0.028
 3800.00    0.34268   0.52147    0.029
 3801.00    0.25138   0.53655    0.029
 3802.00    0.05996   0.55142    0.028
 3803.00    0.02421   0.56397    0.028
 3804.00    0.10460   0.57332    0.028
 3805.00    0.22399   0.57978    0.027
 3806.00    0.36896   0.58217    0.027
 3807.00    0.41968   0.58164    0.027
 3808.00    0.41634   0.57766    0.026
 3809.00    0.42594   0.56966    0.026
 3810.00    0.44203   0.55841    0.027
 3811.00    0.37036   0.54480    0.027
 3812.00    0.26075   0.52881    0.027
 3813.00    0.34699   0.51227    0.027
 3814.00    0.50586   0.49595    0.026
 3815.00    0.51641   0.47957    0.026
 3816.00    0.48033   0.46448    0.026
 3817.00    0.29320   0.44972    0.026
 3818.00    0.06645   0.43601    0.026
 3819.00    0.16318   0.42438    0.027
 3820.00    0.32921   0.41390    0.027
 3821.00    0.42454   0.40436    0.027
 3822.00    0.50788   0.39515    0.027
 3823.00    0.46169   0.38588    0.027
 3824.00    0.39889   0.37795    0.027
 3825.00    0.40873   0.37142    0.027
 3826.00    0.42510   0.36554    0.027
 3827.00    0.43187   0.36050    0.029
 3828.00    0.43812   0.35561    0.031
 3829.00    0.19284   0.35122    0.029
 3830.00   -0.05412   0.34799    0.000
 3831.00   -0.01803   0.34521    0.000
 3832.00    0.02613   0.34404    0.028
 3833.00    0.24953   0.34485    0.028
 3834.00    0.45268   0.34752    0.029
 3835.00    0.40396   0.35243    0.028
 3836.00    0.35942   0.35965    0.028
 3837.00    0.35026   0.36926    0.029
 3838.00    0.36453   0.38200    0.030
 3839.00    0.52617   0.39763    0.029
 3840.00    0.62306   0.41403    0.029
 3841.00    0.40043   0.43117    0.028
 3842.00    0.22206   0.44707    0.027
 3843.00    0.22089   0.46166    0.028
 3844.00    0.20674   0.47496    0.028
 3845.00    0.14940   0.48503    0.028
 3846.00    0.11028   0.49244    0.028
 3847.00    0.12235   0.49658    0.000
 3848.00    0.09982   0.49806    0.000
 3849.00   -0.00581   0.49794    0.000
 3850.00   -0.02783   0.49576    0.000
 3851.00    0.12355   0.49224    0.000
 3852.00    0.26416   0.48716    0.000
 3853.00    0.38530   0.48127    0.000
 3854.00    0.43409   0.47662    0.000
 3855.00    0.36876   0.47230    0.000
 3856.00    0.33076   0.46947    0.000
 3857.00    0.33058   0.46813    0.000
 3858.00    0.32562   0.46873    0.000
 3859.00    0.31485   0.47272    0.000
 3860.00    0.36213   0.47796    0.000
 3861.00    0.47179   0.48408    0.000
 3862.00    0.53841   0.48940    0.000
 3863.00    0.56426   0.49332    0.000
 3864.00    0.55520   0.49631    0.000
 3865.00    0.51697   0.49791    0.000
 3866.00    0.58449   0.49862    0.000
 3867.00    0.72981   0.49730    0.000
 3868.00    0.76137   0.49507    0.000
 3869.00    0.71945   0.49250    0.000
 3870.00    0.65334   0.49061    0.000
 3871.00    0.57356   0.49078    0.000
 3872.00    0.53829   0.49131    0.000
 3873.00    0.52493   0.49155    0.000
 3874.00    0.45459   0.49095    0.000
 3875.00    0.36003   0.48942    0.000
 3876.00    0.30945   0.48872    0.000
 3877.00    0.27488   0.48704    0.000
 3878.00    0.30193   0.48481    0.000
 3879.00    0.34797   0.48295    0.000
 3880.00    0.39607   0.48079    0.000
 3881.00    0.44470   0.48001    0.028
 3882.00    0.49775   0.47990    0.028
 3883.00    0.55172   0.48180    0.027
 3884.00    0.45943   0.48642    0.027
 3885.00    0.34301   0.49226    0.027
 3886.00    0.42080   0.50154    0.027
 3887.00    0.52265   0.51425    0.028
 3888.00    0.63961   0.52941    0.028
 3889.00    0.75786   0.54591    0.029
 3890.00    0.69791   0.56120    0.030
 3891.00    0.62908   0.57685    0.031
 3892.00    0.48092   0.59035    0.029
 3893.00    0.33305   0.60229    0.027
 3894.00    0.28859   0.61224    0.027
 3895.00    0.24642   0.61865    0.026
 3896.00    0.25105   0.62414    0.025
 3897.00    0.27343   0.62632    0.025
 3898.00    0.50554   0.62901    0.025
 3899.00    0.70650   0.63092    0.025
 3900.00    0.65358   0.63303    0.024
 3901.00    0.62838   0.63765    0.024
 3902.00    0.77245   0.64077    0.024
 3903.00    0.89577   0.64688    0.023
 3904.00    0.91926   0.65576    0.023
 3905.00    0.91321   0.66659    0.022
 3906.00    0.79148   0.67933    0.023
 3907.00    0.71584   0.69102    0.023
 3908.00    0.79043   0.70303    0.023
 3909.00    0.83369   0.71321    0.024
 3910.00    0.79062   0.71982    0.024
 3911.00    0.72210   0.72372    0.025
 3912.00    0.59350   0.72343    0.025
 3913.00    0.52015   0.71757    0.025
 3914.00    0.55955   0.70820    0.025
 3915.00    0.60745   0.69497    0.026
 3916.00    0.67042   0.67909    0.027
 3917.00    0.67556   0.66089    0.028
 3918.00    0.59083   0.64084    0.027
 3919.00    0.57588   0.62122    0.027
 3920.00    0.65616   0.60007    0.027
 3921.00    0.70556   0.57940    0.027
 3922.00    0.71788   0.55701    0.028
 3923.00    0.64118   0.53275    0.028
 3924.00    0.47019   0.50674    0.028
 3925.00    0.37371   0.47843    0.028
 3926.00    0.34684   0.45048    0.028
 3927.00    0.38225   0.42172    0.028
 3928.00    0.46894   0.39500    0.028
 3929.00    0.47737   0.37113    0.028
 3930.00    0.42906   0.35156    0.029
 3931.00    0.26171   0.33891    0.029
 3932.00    0.01860   0.33306    0.028
 3933.00   -0.01551   0.33544    0.000
 3934.00    0.06669   0.34510    0.028
 3935.00    0.21927   0.36127    0.028
 3936.00    0.40591   0.38276    0.028
 3937.00    0.52039   0.40782    0.028
 3938.00    0.60469   0.43481    0.028
 3939.00    0.56310   0.46274    0.028
 3940.00    0.47649   0.49040    0.028
 3941.00    0.41271   0.51732    0.028
 3942.00    0.35584   0.54444    0.028
 3943.00    0.26161   0.57102    0.027
 3944.00    0.15800   0.59578    0.027
 3945.00    0.29989   0.61872    0.027
 3946.00    0.49183   0.64051    0.027
 3947.00    0.67415   0.66042    0.027
 3948.00    0.85493   0.67775    0.027
 3949.00    0.86268   0.69158    0.028
 3950.00    0.84976   0.70217    0.028
 3951.00    0.77682   0.70871    0.028
 3952.00    0.69900   0.70921    0.028
 3953.00    0.61954   0.70461    0.028
 3954.00    0.54002   0.69536    0.027
 3955.00    0.42881   0.68069    0.027
 3956.00    0.31830   0.66065    0.027
 3957.00    0.26529   0.63516    0.027
 3958.00    0.21665   0.60497    0.027
 3959.00    0.25083   0.57143    0.027
 3960.00    0.29110   0.53560    0.000
 3961.00    0.39990   0.49976    0.000
 3962.00    0.50494   0.46535    0.000
 3963.00    0.58051   0.43301    0.000
 3964.00    0.62657   0.40499    0.000
 3965.00    0.49753   0.38286    0.000
 3966.00    0.36739   0.36897    0.000
 3967.00    0.23208   0.36493    0.000
 3968.00    0.14720   0.37019    0.000
 3969.00    0.25561   0.38484    0.000
 3970.00    0.35745   0.40800    0.000
 3971.00    0.43833   0.43857    0.000
 3972.00    0.50951   0.47569    0.000
 3973.00    0.55440   0.51641    0.000
 3974.00    0.58945   0.55947    0.000
 3975.00    0.60164   0.60319    0.000
 3976.00    0.55510   0.64500    0.000
 3977.00    0.39059   0.68456    0.000
 3978.00    0.36669   0.71971    0.000
 3979.00    0.58870   0.75051    0.000
 3980.00    0.83936   0.77780    0.000
 3981.00    1.13387   0.80093    0.031
 3982.00    1.24751   0.82216    0.031
 3983.00    1.11791   0.84032    0.031
 3984.00    1.04332   0.85584    0.030
 3985.00    1.03386   0.87093    0.030
 3986.00    0.96518   0.88228    0.029
 3987.00    0.83468   0.89259    0.029
 3988.00    0.73184   0.90220    0.029
 3989.00    0.65450   0.91015    0.028
 3990.00    0.77536   0.91764    0.028
 3991.00    1.05716   0.92238    0.028
 3992.00    1.18320   0.92736    0.028
 3993.00    1.19795   0.93117    0.028
 3994.00    1.25012   0.93441    0.028
 3995.00    1.32574   0.93853    0.028
 3996.00    1.20605   0.94408    0.028
 3997.00    0.97932   0.95008    0.028
 3998.00    0.95769   0.95443    0.028
 3999.00    1.03376   0.95893    0.028
 4000.00    1.01115   0.96240    0.027
 4001.00    0.94798   0.96426    0.027
 4002.00    0.98613   0.96395    0.027
 4003.00    1.05986   0.96568    0.027
 4004.00    1.16379   0.96926    0.027
 4005.00    1.27666   0.97363    0.028
 4006.00    1.23351   0.97972    0.028
 4007.00    1.15203   0.98692    0.027
 4008.00    1.03172   0.99591    0.027
 4009.00    0.90368   1.00510    0.027
 4010.00    0.98811   1.01604    0.027
 4011.00    1.10556   1.02654    0.027
 4012.00    1.04011   1.03675    0.027
 4013.00    0.95363   1.04584    0.027
 4014.00    0.82895   1.05167    0.027
 4015.00    0.70133   1.05703    0.027
 4016.00    0.89024   1.06173    0.028
 4017.00    1.09248   1.06417    0.029
 4018.00    1.04710   1.06501    0.028
 4019.00    1.00000   1.06450    0.027
 4020.00    0.97693   1.06311    0.027
 4021.00    0.97245   1.05906    0.027
 4022.00    1.29569   1.05407    0.028
 4023.00    1.58623   1.04868    0.029
 4024.00    1.52488   1.04066    0.029
 4025.00    1.46483   1.03095    0.030
 4026.00    1.41458   1.01905    0.030
 4027.00    1.32579   1.00397    0.029
 4028.00    1.01468   0.98932    0.029
 4029.00    0.75816   0.97781    0.028
 4030.00    0.75188   0.96827    0.028
 4031.00    0.77254   0.96395    0.028
 4032.00    0.89425   0.96423    0.028
 4033.00    0.99322   0.96948    0.028
 4034.00    1.02091   0.97760    0.028
 4035.00    1.03818   0.98619    0.028
 4036.00    1.02771   0.99430    0.028
 4037.00    0.97849   0.99935    0.028
 4038.00    0.84077   1.00113    0.028
 4039.00    0.79304   1.00015    0.028
 4040.00    0.92320   0.99438    0.029
 4041.00    0.94380   0.98432    0.029
 4042.00    0.77569   0.97274    0.029
 4043.00    0.75093   0.96334    0.029
 4044.00    0.94242   0.96016    0.029
 4045.00    1.00867   0.96007    0.029
 4046.00    0.90890   0.96315    0.029
 4047.00    0.91619   0.96934    0.029
 4048.00    1.04848   0.97676    0.029
 4049.00    1.10816   0.98339    0.029
 4050.00    1.09308   0.98851    0.029
 4051.00    1.11520   0.99161    0.029
 4052.00    1.17110   0.99079    0.029
 4053.00    1.05971   0.98835    0.028
 4054.00    0.81441   0.98164    0.028
 4055.00    0.80447   0.97252    0.028
 4056.00    0.96026   0.96344    0.028
 4057.00    1.06565   0.95440    0.028
 4058.00    1.13989   0.94519    0.028
 4059.00    1.12534   0.93512    0.028
 4060.00    1.06287   0.92633    0.028
 4061.00    1.08906   0.92049    0.028
 4062.00    1.15681   0.91979    0.028
 4063.00    1.09086   0.92012    0.028
 4064.00    0.97089   0.92158    0.027
 4065.00    0.92859   0.92585    0.027
 4066.00    0.91306   0.93135    0.027
 4067.00    0.83345   0.93573    0.027
 4068.00    0.73522   0.93793    0.027
 4069.00    0.81655   0.94044    0.027
 4070.00    0.94101   0.94480    0.027
 4071.00    1.13026   0.94736    0.027
 4072.00    1.33208   0.94864    0.027
 4073.00    1.25557   0.94955    0.027
 4074.00    1.13713   0.95176    0.027
 4075.00    1.03040   0.95767    0.027
 4076.00    0.92498   0.96665    0.027
 4077.00    0.88791   0.97838    0.027
 4078.00    0.85585   0.99252    0.026
 4079.00    1.02064   1.00772    0.027
 4080.00    1.19298   1.02282    0.027
 4081.00    1.20739   1.03854    0.028
 4082.00    1.22038   1.05408    0.029
 4083.00    1.21314   1.06907    0.028
 4084.00    1.19884   1.08310    0.028
 4085.00    1.06829   1.09465    0.028
 4086.00    0.94922   1.10266    0.028
 4087.00    0.94824   1.10579    0.027
 4088.00    0.93309   1.10535    0.027
 4089.00    0.81396   1.09979    0.027
 4090.00    0.70612   1.09014    0.027
 4091.00    0.66159   1.07720    0.027
 4092.00    0.67879   1.05860    0.000
 4093.00    0.97222   1.03786    0.000
 4094.00    1.20137   1.01591    0.000
 4095.00    1.19446   0.99383    0.000
 4096.00    1.15582   0.97278    0.000
 4097.00    1.01956   0.95422    0.000
 4098.00    0.97314   0.93923    0.000
 4099.00    1.16147   0.92990    0.000
 4100.00    1.24939   0.92682    0.000
 4101.00    1.11179   0.92819    0.000
 4102.00    1.02657   0.93381    0.000
 4103.00    1.04329   0.94390    0.000
 4104.00    1.04904   0.95533    0.000
 4105.00    1.03621   0.96770    0.000
 4106.00    1.06619   0.97998    0.000
 4107.00    1.15983   0.99118    0.000
 4108.00    1.13659   1.00220    0.000
 4109.00    0.96065   1.01183    0.000
 4110.00    0.99825   1.02059    0.000
 4111.00    1.28164   1.02749    0.000
 4112.00    1.34924   1.03307    0.000
 4113.00    1.19779   1.03702    0.028
 4114.00    1.11425   1.03934    0.028
 4115.00    1.09149   1.04045    0.028
 4116.00    1.11326   1.03985    0.028
 4117.00    1.17017   1.04002    0.028
 4118.00    1.24504   1.03872    0.028
 4119.00    1.33237   1.03716    0.028
 4120.00    1.22987   1.03513    0.027
 4121.00    1.01186   1.03253    0.027
 4122.00    0.92360   1.02981    0.027
 4123.00    0.90427   1.02492    0.027
 4124.00    0.94025   1.01954    0.028
 4125.00    1.00174   1.01235    0.028
 4126.00    1.12723   1.00567    0.028
 4127.00    1.27814   0.99760    0.027
 4128.00    1.16604   0.99068    0.027
 4129.00    0.96491   0.98393    0.027
 4130.00    0.94280   0.98062    0.027
 4131.00    0.97162   0.97992    0.027
 4132.00    1.07414   0.98095    0.027
 4133.00    1.19396   0.98508    0.026
 4134.00    1.13479   0.98841    0.026
 4135.00    1.04183   0.99281    0.026
 4136.00    1.03196   0.99528    0.026
 4137.00    1.03422   0.99555    0.026
 4138.00    1.02774   0.99281    0.026
 4139.00    1.02033   0.98768    0.026
 4140.00    1.06458   0.98128    0.026
 4141.00    1.11240   0.97456    0.027
 4142.00    1.20359   0.96924    0.027
 4143.00    1.29627   0.96406    0.027
 4144.00    1.26480   0.95999    0.027
 4145.00    1.23675   0.95731    0.026
 4146.00    1.32994   0.95607    0.027
 4147.00    1.42089   0.95527    0.027
 4148.00    1.47734   0.95615    0.027
 4149.00    1.50808   0.95642    0.027
 4150.00    1.28548   0.95857    0.027
 4151.00    1.06306   0.96086    0.026
 4152.00    0.84190   0.96470    0.026
 4153.00    0.65282   0.97017    0.026
 4154.00    0.63881   0.97680    0.026
 4155.00    0.66667   0.98598    0.026
 4156.00    0.87752   0.99531    0.026
 4157.00    1.01130   1.00641    0.026
 4158.00    0.86789   1.01628    0.026
 4159.00    0.77698   1.02552    0.025
 4160.00    0.84448   1.03266    0.025
 4161.00    0.91852   1.03676    0.025
 4162.00    1.00937   1.03784    0.026
 4163.00    1.12071   1.03596    0.026
 4164.00    1.27733   1.03147    0.027
 4165.00    1.38182   1.02414    0.027
 4166.00    1.38649   1.01523    0.027
 4167.00    1.32614   1.00370    0.027
 4168.00    1.15711   0.99194    0.027
 4169.00    1.06938   0.97996    0.027
 4170.00    1.10074   0.96905    0.027
 4171.00    1.07192   0.96004    0.027
 4172.00    0.96559   0.95272    0.027
 4173.00    0.91722   0.94786    0.027
 4174.00    0.93463   0.94568    0.027
 4175.00    0.88163   0.94612    0.027
 4176.00    0.75815   0.94880    0.027
 4177.00    0.82164   0.95308    0.027
 4178.00    1.05016   0.95910    0.028
 4179.00    1.15376   0.96563    0.028
 4180.00    1.16020   0.97352    0.027
 4181.00    1.15610   0.98066    0.027
 4182.00    1.14479   0.98690    0.027
 4183.00    1.15522   0.99313    0.027
 4184.00    1.17868   0.99821    0.027
 4185.00    1.05939   1.00325    0.027
 4186.00    0.86542   1.00679    0.027
 4187.00    1.02470   1.00978    0.027
 4188.00    1.34421   1.01164    0.027
 4189.00    1.29315   1.01146    0.027
 4190.00    1.09748   1.00960    0.027
 4191.00    1.07703   1.00505    0.027
 4192.00    1.11478   0.99915    0.027
 4193.00    0.91438   0.99106    0.027
 4194.00    0.64760   0.98282    0.026
 4195.00    0.66895   0.97505    0.026
 4196.00    0.75641   0.96796    0.027
 4197.00    0.86044   0.96339    0.027
 4198.00    0.96753   0.96213    0.027
 4199.00    1.05782   0.96441    0.027
 4200.00    1.14574   0.97038    0.027
 4201.00    1.04143   0.98013    0.026
 4202.00    0.91753   0.99205    0.026
 4203.00    1.03956   1.00594    0.026
 4204.00    1.17761   1.01977    0.026
 4205.00    1.13329   1.03296    0.026
 4206.00    1.08360   1.04487    0.026
 4207.00    1.17740   1.05484    0.026
 4208.00    1.26900   1.06215    0.026
 4209.00    1.29613   1.06717    0.026
 4210.00    1.31567   1.06970    0.026
 4211.00    1.22475   1.07171    0.026
 4212.00    1.13862   1.07450    0.026
 4213.00    1.09785   1.07628    0.026
 4214.00    1.07282   1.07811    0.025
 4215.00    1.15595   1.07830    0.026
 4216.00    1.22617   1.07733    0.026
 4217.00    1.22783   1.07223    0.026
 4218.00    1.22085   1.06354    0.025
 4219.00    1.17701   1.05040    0.025
 4220.00    1.13198   1.03326    0.024
 4221.00    1.08276   1.01320    0.024
 4222.00    1.02359   0.99251    0.024
 4223.00    0.93492   0.97569    0.024
 4224.00    0.89457   0.96235    0.024
 4225.00    0.97617   0.95468    0.025
 4226.00    1.06096   0.95308    0.025
 4227.00    1.15272   0.95695    0.025
 4228.00    1.18487   0.96521    0.024
 4229.00    1.10460   0.97809    0.024
 4230.00    1.04089   0.99293    0.024
 4231.00    1.00443   1.00755    0.023
 4232.00    1.02330   1.02304    0.023
 4233.00    1.12204   1.03730    0.023
 4234.00    1.22442   1.05104    0.023
 4235.00    1.33140   1.06418    0.023
 4236.00    1.39780   1.07804    0.023
 4237.00    1.41879   1.09161    0.023
 4238.00    1.37830   1.10442    0.023
 4239.00    1.27714   1.11761    0.023
 4240.00    1.20088   1.12833    0.023
 4241.00    1.14630   1.13627    0.023
 4242.00    1.13701   1.14023    0.024
 4243.00    1.16245   1.14026    0.024
 4244.00    1.19167   1.13628    0.024
 4245.00    1.22344   1.12776    0.024
 4246.00    1.30518   1.11704    0.025
 4247.00    1.41643   1.10478    0.025
 4248.00    1.35757   1.09190    0.025
 4249.00    1.21113   1.07929    0.025
 4250.00    1.17399   1.06920    0.025
 4251.00    1.18563   1.06210    0.025
 4252.00    1.21936   1.05833    0.025
 4253.00    1.26156   1.05655    0.025
 4254.00    1.13324   1.05766    0.025
 4255.00    0.94934   1.06145    0.025
 4256.00    0.75852   1.06781    0.025
 4257.00    0.56581   1.07696    0.024
 4258.00    0.70901   1.08730    0.025
 4259.00    0.92749   1.09848    0.025
 4260.00    1.06906   1.10868    0.025
 4261.00    1.19687   1.11785    0.026
 4262.00    1.15302   1.12318    0.026
 4263.00    1.08569   1.12457    0.026
 4264.00    1.05096   1.12057    0.026
 4265.00    1.01942   1.11136    0.026
 4266.00    1.16422   1.09754    0.026
 4267.00    1.31980   1.08020    0.026
 4268.00    1.23324   1.06268    0.026
 4269.00    1.13988   1.04553    0.026
 4270.00    0.99596   1.03208    0.025
 4271.00    0.85894   1.02369    0.025
 4272.00    0.90466   1.02116    0.025
 4273.00    0.94180   1.02390    0.025
 4274.00    0.86110   1.03171    0.025
 4275.00    0.81057   1.04230    0.025
 4276.00    1.03416   1.05502    0.026
 4277.00    1.21546   1.06741    0.026
 4278.00    1.11501   1.07749    0.026
 4279.00    1.04037   1.08493    0.026
 4280.00    1.09933   1.08787    0.026
 4281.00    1.12091   1.08741    0.026
 4282.00    0.98648   1.08238   -2.000
 4283.00    0.86078   1.07493   -2.000
 4284.00    0.76518   1.06481   -2.000
 4285.00    0.71478   1.05382   -2.000
 4286.00    0.79578   1.04308   -2.000
 4287.00    0.87138   1.03188   -2.000
 4288.00    0.93358   1.02238   -2.000
 4289.00    1.05867   1.01258   -2.000
 4290.00    1.31820   1.00385   -2.000
 4291.00    1.47756   0.99441   -2.000
 4292.00    1.45094   0.98382   -2.000
 4293.00    1.35765   0.97171   -2.000
 4294.00    1.15620   0.95756   -2.000
 4295.00    1.04259   0.94161   -2.000
 4296.00    1.05395   0.92357   -2.000
 4297.00    0.98251   0.90521   -2.000
 4298.00    0.80747   0.88600    0.026
 4299.00    0.81724   0.86816    0.026
 4300.00    1.03088   0.85170    0.026
 4301.00    1.03844   0.83804    0.026
 4302.00    0.84548   0.82835    0.026
 4303.00    0.76776   0.82301    0.026
 4304.00    0.78892   0.82348    0.026
 4305.00    0.81325   0.82956    0.026
 4306.00    0.83998   0.84304    0.025
 4307.00    0.86417   0.86309    0.025
 4308.00    0.88668   0.89089    0.025
 4309.00    1.00431   0.92603    0.025
 4310.00    1.17727   0.96624    0.025
 4311.00    1.14090   1.01053    0.025
 4312.00    0.99846   1.05551    0.025
 4313.00    1.04126   1.10006    0.025
 4314.00    1.16536   1.13926    0.025
 4315.00    1.16142   1.17319    0.025
 4316.00    1.10926   1.19706    0.025
 4317.00    1.04261   1.21237    0.024
 4318.00    0.97134   1.21759    0.024
 4319.00    0.99532   1.21562    0.025
 4320.00    1.04477   1.20839    0.025
 4321.00    1.05072   1.19830    0.025
 4322.00    1.04715   1.18870    0.026
 4323.00    1.22205   1.18103    0.026
 4324.00    1.42800   1.17872    0.026
 4325.00    1.34252   1.18144    0.026
 4326.00    1.21850   1.18971    0.026
 4327.00    1.22821   1.20155    0.025
 4328.00    1.25042   1.21507    0.025
 4329.00    1.30642   1.22794    0.025
 4330.00    1.36435   1.23706    0.000
 4331.00    1.38343   1.24178    0.000
 4332.00    1.40058   1.24046    0.000
 4333.00    1.29914   1.23371    0.000
 4334.00    1.19519   1.22210    0.000
 4335.00    1.03121   1.20777    0.000
 4336.00    0.88184   1.19279    0.000
 4337.00    0.92278   1.17914    0.000
 4338.00    0.96302   1.16960    0.000
 4339.00    0.99710   1.16478    0.000
 4340.00    1.04118   1.16602    0.000
 4341.00    1.14978   1.17215    0.000
 4342.00    1.22539   1.18259    0.000
 4343.00    1.13464   1.19530    0.000
 4344.00    1.04830   1.20893    0.000
 4345.00    0.98000   1.22175    0.000
 4346.00    0.93567   1.23258    0.000
 4347.00    0.97243   1.24100    0.000
 4348.00    1.03252   1.24685    0.000
 4349.00    1.15921   1.25089    0.000
 4350.00    1.23443   1.25387    0.000
 4351.00    1.18419   1.25728    0.024
 4352.00    1.18488   1.26185    0.024
 4353.00    1.29273   1.26843    0.024
 4354.00    1.34272   1.27690    0.024
 4355.00    1.28692   1.28778    0.024
 4356.00    1.27418   1.30012    0.025
 4357.00    1.33023   1.31346    0.025
 4358.00    1.38239   1.32656    0.024
 4359.00    1.42908   1.33894    0.024
 4360.00    1.43666   1.34960    0.024
 4361.00    1.39600   1.35759    0.024
 4362.00    1.44277   1.36253    0.024
 4363.00    1.58462   1.36371    0.024
 4364.00    1.55150   1.36135    0.024
 4365.00    1.35053   1.35514    0.024
 4366.00    1.23669   1.34614    0.024
 4367.00    1.19653   1.33449    0.024
 4368.00    1.16245   1.32148    0.024
 4369.00    1.13288   1.30725    0.024
 4370.00    1.18564   1.29292    0.024
 4371.00    1.29227   1.27844    0.024
 4372.00    1.28604   1.26435    0.024
 4373.00    1.21516   1.25016    0.024
 4374.00    1.13129   1.23579    0.024
 4375.00    1.04093   1.22075    0.024
 4376.00    1.10287   1.20461    0.024
 4377.00    1.23053   1.18742    0.024
 4378.00    1.23068   1.16916    0.024
 4379.00    1.18365   1.15104    0.024
 4380.00    1.18859   1.13377    0.024
 4381.00    1.20984   1.11937    0.024
 4382.00    1.19580   1.10860    0.024
 4383.00    1.17254   1.10299    0.024
 4384.00    1.11636   1.10284    0.024
 4385.00    1.05315   1.10846    0.024
 4386.00    1.12561   1.11922    0.023
 4387.00    1.22102   1.13400    0.023
 4388.00    1.15515   1.15180    0.023
 4389.00    1.06868   1.17101    0.023
 4390.00    1.05429   1.19068    0.023
 4391.00    1.04633   1.20931    0.023
 4392.00    1.01079   1.22615    0.024
 4393.00    0.97378   1.23993    0.024
 4394.00    1.11470   1.25035    0.024
 4395.00    1.25946   1.25657    0.024
 4396.00    1.43312   1.25862    0.024
 4397.00    1.58677   1.25640    0.024
 4398.00    1.30059   1.25060    0.024
 4399.00    1.03755   1.24211    0.024
 4400.00    1.06032   1.23223    0.024
 4401.00    1.08765   1.22258    0.024
 4402.00    1.15325   1.21457    0.024
 4403.00    1.20684   1.20968    0.024
 4404.00    1.18515   1.20871    0.024
 4405.00    1.17332   1.21221    0.024
 4406.00    1.20994   1.21968    0.024
 4407.00    1.24840   1.23064    0.025
 4408.00    1.29417   1.24364    0.024
 4409.00    1.30866   1.25781    0.024
 4410.00    1.21941   1.27159    0.024
 4411.00    1.17399   1.28467    0.024
 4412.00    1.25137   1.29601    0.024
 4413.00    1.36583   1.30598    0.024
 4414.00    1.56920   1.31427    0.024
 4415.00    1.68458   1.32141    0.024
 4416.00    1.61783   1.32736    0.024
 4417.00    1.50754   1.33242    0.024
 4418.00    1.31887   1.33648    0.024
 4419.00    1.26093   1.33954    0.024
 4420.00    1.40876   1.34157    0.024
 4421.00    1.48953   1.34249    0.024
 4422.00    1.47765   1.34245    0.025
 4423.00    1.47531   1.34138    0.025
 4424.00    1.48456   1.33968    0.025
 4425.00    1.46580   1.33716    0.024
 4426.00    1.41701   1.33443    0.024
 4427.00    1.36730   1.33127    0.024
 4428.00    1.31670   1.32841    0.025
 4429.00    1.24367   1.32575    0.025
 4430.00    1.15194   1.32406    0.025
 4431.00    1.15703   1.32338    0.025
 4432.00    1.23320   1.32432    0.025
 4433.00    1.26173   1.32677    0.025
 4434.00    1.25953   1.33099    0.025
 4435.00    1.30620   1.33656    0.025
 4436.00    1.38044   1.34345    0.025
 4437.00    1.38110   1.35107    0.025
 4438.00    1.34563   1.35928    0.025
 4439.00    1.40338   1.36763    0.025
 4440.00    1.50069   1.37598    0.025
 4441.00    1.44103   1.38411    0.025
 4442.00    1.32433   1.39157    0.025
 4443.00    1.37254   1.39812    0.025
 4444.00    1.47146   1.40305    0.025
 4445.00    1.45831   1.40581    0.025
 4446.00    1.41646   1.40563    0.025
 4447.00    1.47732   1.40207    0.025
 4448.00    1.55958   1.39467    0.025
 4449.00    1.47751   1.38368    0.025
 4450.00    1.36843   1.36928    0.025
 4451.00    1.37342   1.35263    0.025
 4452.00    1.39248   1.33446    0.025
 4453.00    1.38260   1.31652    0.025
 4454.00    1.37027   1.29967    0.025
 4455.00    1.32338   1.28555    0.024
 4456.00    1.27479   1.27480    0.024
 4457.00    1.37088   1.26828    0.025
 4458.00    1.46740   1.26615    0.025
 4459.00    1.44603   1.26842    0.025
 4460.00    1.42502   1.27466    0.024
 4461.00    1.41131   1.28439    0.000
 4462.00    1.38326   1.29677    0.000
 4463.00    1.18661   1.31137    0.000
 4464.00    1.02405   1.32725    0.000
 4465.00    1.13791   1.34435    0.000
 4466.00    1.24923   1.36178    0.000
 4467.00    1.34513   1.37978    0.000
 4468.00    1.41706   1.39753    0.000
 4469.00    1.37404   1.41511    0.000
 4470.00    1.34500   1.43172    0.000
 4471.00    1.37056   1.44705    0.000
 4472.00    1.39730   1.46039    0.000
 4473.00    1.42787   1.47125    0.000
 4474.00    1.45074   1.47946    0.000
 4475.00    1.45245   1.48464    0.000
 4476.00    1.42168   1.48743    0.000
 4477.00    1.31435   1.48788    0.000
 4478.00    1.27561   1.48718    0.000
 4479.00    1.37655   1.48544    0.000
 4480.00    1.45634   1.48378    0.000
 4481.00    1.49863   1.48201    0.000
 4482.00    1.55321   1.48069    0.024
 4483.00    1.62688   1.47915    0.025
 4484.00    1.69188   1.47754    0.025
 4485.00    1.74511   1.47513    0.024
 4486.00    1.74272   1.47218    0.024
 4487.00    1.67367   1.46832    0.024
 4488.00    1.58126   1.46437    0.024
 4489.00    1.46415   1.46035    0.024
 4490.00    1.34778   1.45754    0.024
 4491.00    1.23210   1.45614    0.024
 4492.00    1.24224   1.45739    0.024
 4493.00    1.35581   1.46140    0.024
 4494.00    1.50088   1.46870    0.024
 4495.00    1.66875   1.47924    0.024
 4496.00    1.50824   1.49265    0.024
 4497.00    1.13915   1.50859    0.023
 4498.00    1.19814   1.52602    0.023
 4499.00    1.49490   1.54429    0.024
 4500.00    1.53911   1.56217    0.024
 4501.00    1.46130   1.57888    0.025
 4502.00    1.51737   1.59343    0.025
 4503.00    1.62928   1.60519    0.024
 4504.00    1.65676   1.61364    0.024
 4505.00    1.65411   1.61858    0.024
 4506.00    1.64016   1.62008    0.024
 4507.00    1.62281   1.61833    0.024
 4508.00    1.55313   1.61392    0.024
 4509.00    1.47034   1.60737    0.023
 4510.00    1.48607   1.59949    0.024
 4511.00    1.52184   1.59080    0.024
 4512.00    1.48965   1.58204    0.024
 4513.00    1.44663   1.57332    0.024
 4514.00    1.51777   1.56510    0.024
 4515.00    1.60249   1.55683    0.024
 4516.00    1.45148   1.54858    0.024
 4517.00    1.28139   1.53929    0.024
 4518.00    1.30520   1.52886    0.024
 4519.00    1.33782   1.51630    0.024
 4520.00    1.44920   1.50168    0.024
 4521.00    1.55840   1.48481    0.024
 4522.00    1.50734   1.46613    0.024
 4523.00    1.45753   1.44660    0.023
 4524.00    1.43124   1.42686    0.024
 4525.00    1.40685   1.40874    0.024
 4526.00    1.40363   1.39266    0.024
 4527.00    1.40497   1.38061    0.024
 4528.00    1.44203   1.37232    0.024
 4529.00    1.46275   1.36929    0.024
 4530.00    1.38684   1.37045    0.024
 4531.00    1.35185   1.37641    0.024
 4532.00    1.50833   1.38571    0.024
 4533.00    1.59473   1.39800    0.024
 4534.00    1.41327   1.41192    0.024
 4535.00    1.29816   1.42642    0.024
 4536.00    1.39466   1.44068    0.024
 4537.00    1.45092   1.45340    0.023
 4538.00    1.39844   1.46446    0.023
 4539.00    1.36468   1.47286    0.024
 4540.00    1.37426   1.47894    0.024
 4541.00    1.41055   1.48248    0.024
 4542.00    1.50036   1.48388    0.024
 4543.00    1.52963   1.48368    0.023
 4544.00    1.45320   1.48216    0.024
 4545.00    1.45037   1.48030    0.024
 4546.00    1.56002   1.47831    0.024
 4547.00    1.63099   1.47715    0.024
 4548.00    1.65003   1.47704    0.024
 4549.00    1.74689   1.47859    0.025
 4550.00    1.93574   1.48211    0.000
 4551.00    1.99425   1.48749    0.000
 4552.00    1.91688   1.49507    0.000
 4553.00    1.89268   1.50398    0.000
 4554.00    1.91738   1.51438    0.000
 4555.00    1.80399   1.52492    0.000
 4556.00    1.57870   1.53560    0.000
 4557.00    1.54009   1.54514    0.000
 4558.00    1.63462   1.55360    0.000
 4559.00    1.67540   1.56024    0.000
 4560.00    1.68255   1.56535    0.000
 4561.00    1.62864   1.56894    0.000
 4562.00    1.54135   1.57143    0.000
 4563.00    1.56693   1.57325    0.000
 4564.00    1.64616   1.57467    0.000
 4565.00    1.63343   1.57606    0.000
 4566.00    1.58297   1.57739    0.000
 4567.00    1.66587   1.57870    0.000
 4568.00    1.79549   1.57966    0.000
 4569.00    1.72089   1.58010    0.000
 4570.00    1.58593   1.57956    0.000
 4571.00    1.67846   1.57781    0.000
 4572.00    1.82671   1.57464    0.000
 4573.00    1.69855   1.56996    0.000
 4574.00    1.51561   1.56385    0.000
 4575.00    1.46483   1.55664    0.000
 4576.00    1.43451   1.54866    0.000
 4577.00    1.54236   1.54069    0.000
 4578.00    1.66601   1.53311    0.000
 4579.00    1.61869   1.52680    0.000
 4580.00    1.55823   1.52196    0.000
 4581.00    1.58676   1.51910    0.000
 4582.00    1.61900   1.51810    0.000
 4583.00    1.59262   1.51873    0.000
 4584.00    1.56432   1.52065    0.000
 4585.00    1.47501   1.52299    0.000
 4586.00    1.40067   1.52549    0.000
 4587.00    1.58805   1.52710    0.000
 4588.00    1.75701   1.52787    0.000
 4589.00    1.72902   1.52716    0.000
 4590.00    1.69573   1.52539    0.000
 4591.00    1.62238   1.52250    0.000
 4592.00    1.56637   1.51921    0.000
 4593.00    1.60998   1.51575    0.000
 4594.00    1.63027   1.51299    0.000
 4595.00    1.54402   1.51104    0.000
 4596.00    1.48467   1.51079    0.000
 4597.00    1.52596   1.51197    0.000
 4598.00    1.57167   1.51541    0.000
 4599.00    1.63121   1.52061    0.000
 4600.00    1.62866   1.52802    0.000
 4601.00    1.46134   1.53728    0.000
 4602.00    1.37906   1.54813    0.000
 4603.00    1.49060   1.56056    0.000
 4604.00    1.56460   1.57345    0.000
 4605.00    1.56452   1.58719    0.000
 4606.00    1.52252   1.60013    0.000
 4607.00    1.40844   1.61290    0.000
 4608.00    1.43800   1.62393    0.000
 4609.00    1.68384   1.63395    0.000
 4610.00    1.70958   1.64201    0.000
 4611.00    1.44409   1.64875    0.000
 4612.00    1.34448   1.65395    0.000
 4613.00    1.43820   1.65790    0.000
 4614.00    1.45868   1.66103    0.000
 4615.00    1.40389   1.66311    0.000
 4616.00    1.37573   1.66491    0.000
 4617.00    1.37170   1.66573    0.000
 4618.00    1.38916   1.66648    0.000
 4619.00    1.42380   1.66625    0.000
 4620.00    1.46049   1.66589    0.000
 4621.00    1.49863   1.66455    0.000
 4622.00    1.59021   1.66292    0.000
 4623.00    1.71474   1.66034    0.000
 4624.00    1.72504   1.65728    0.000
 4625.00    1.67381   1.65327    0.000
 4626.00    1.68573   1.64854    0.000
 4627.00    1.72718   1.64280    0.000
 4628.00    1.73377   1.63608    0.000
 4629.00    1.72631   1.62833    0.000
 4630.00    1.68477   1.61947    0.000
 4631.00    1.63150   1.60978    0.000
 4632.00    1.50450   1.59908    0.000
 4633.00    1.35615   1.58802    0.000
 4634.00    1.41483   1.57634    0.000
 4635.00    1.52310   1.56481    0.000
 4636.00    1.51347   1.55319    0.000
 4637.00    1.48108   1.54202    0.000
 4638.00    1.50456   1.53130    0.000
 4639.00    1.53643   1.52116    0.000
 4640.00    1.53717   1.51199    0.000
 4641.00    1.53449   1.50361    0.000
 4642.00    1.55513   1.49683    0.000
 4643.00    1.57748   1.49136    0.000
 4644.00    1.40638   1.48815    0.000
 4645.00    1.22796   1.48691    0.000
 4646.00    1.33821   1.48833    0.000
 4647.00    1.44850   1.49200    0.000
 4648.00    1.50587   1.49818    0.000
 4649.00    1.56063   1.50611    0.000
 4650.00    1.57263   1.51586    0.000
 4651.00    1.58545   1.52616    0.000
 4652.00    1.60660   1.53716    0.000
 4653.00    1.61740   1.54724    0.000
 4654.00    1.55255   1.55660    0.000
 4655.00    1.50515   1.56365    0.000
 4656.00    1.55524   1.56845    0.000
 4657.00    1.58594   1.56994    0.000
 4658.00    1.53010   1.56808    0.000
 4659.00    1.48278   1.56285    0.000
 4660.00    1.46665   1.55430    0.000
 4661.00    1.46721   1.54357    0.000
 4662.00    1.51894   1.53112    0.000
 4663.00    1.51515   1.51873    0.000
 4664.00    1.36655   1.50718    0.000
 4665.00    1.33461   1.49791    0.000
 4666.00    1.56410   1.49161    0.000
 4667.00    1.69202   1.48869    0.000
 4668.00    1.62267   1.48930    0.000
 4669.00    1.59250   1.49271    0.000
 4670.00    1.62865   1.49849    0.000
 4671.00    1.64346   1.50543    0.000
 4672.00    1.62662   1.51276    0.000
 4673.00    1.56221   1.51961    0.000
 4674.00    1.43576   1.52528    0.000
 4675.00    1.34998   1.52977    0.000
 4676.00    1.31094   1.53260    0.000
 4677.00    1.33655   1.53447    0.000
 4678.00    1.42766   1.53523    0.000
 4679.00    1.51381   1.53562    0.000
 4680.00    1.59550   1.53578    0.000
 4681.00    1.61641   1.53602    0.000
 4682.00    1.58944   1.53659    0.000
 4683.00    1.58853   1.53734    0.000
 4684.00    1.60567   1.53846    0.000
 4685.00    1.56635   1.53965    0.000
 4686.00    1.49275   1.54093    0.000
 4687.00    1.52274   1.54206    0.000
 4688.00    1.60766   1.54296    0.000
 4689.00    1.68654   1.54341    0.000
 4690.00    1.76266   1.54328    0.000
 4691.00    1.75678   1.54225    0.000
 4692.00    1.71842   1.54043    0.000
 4693.00    1.73799   1.53725    0.000
 4694.00    1.77712   1.53332    0.000
 4695.00    1.68349   1.52796    0.000
 4696.00    1.55219   1.52225    0.000
 4697.00    1.48130   1.51566    0.000
 4698.00    1.42455   1.50937    0.000
 4699.00    1.39771   1.50335    0.000
 4700.00    1.37651   1.49821    0.000
 4701.00    1.46357   1.49458    0.000
 4702.00    1.56639   1.49202    0.000
 4703.00    1.55374   1.49186    0.000
 4704.00    1.52888   1.49273    0.000
 4705.00    1.61792   1.49626    0.000
 4706.00    1.71479   1.50072    0.000
 4707.00    1.65609   1.50763    0.000
 4708.00    1.59210   1.51556    0.000
 4709.00    1.59569   1.52536    0.000
 4710.00    1.59893   1.53638    0.000
 4711.00    1.58738   1.54857    0.000
 4712.00    1.57903   1.56187    0.000
 4713.00    1.61983   1.57541    0.000
 4714.00    1.64905   1.58938    0.000
 4715.00    1.56464   1.60245    0.000
 4716.00    1.49724   1.61469    0.000
 4717.00    1.55021   1.62465    0.000
 4718.00    1.60238   1.63241    0.000
 4719.00    1.65019   1.63678    0.000
 4720.00    1.68775   1.63803    0.000
 4721.00    1.68057   1.63558    0.000
 4722.00    1.65335   1.63008    0.000
 4723.00    1.55425   1.62189    0.000
 4724.00    1.48414   1.61179    0.000
 4725.00    1.50131   1.60112    0.000
 4726.00    1.52664   1.59023    0.000
 4727.00    1.57291   1.58090    0.000
 4728.00    1.59893   1.57311    0.000
 4729.00    1.58033   1.56826    0.000
 4730.00    1.54376   1.56590    0.000
 4731.00    1.47280   1.56653    0.000
 4732.00    1.47228   1.56978    0.000
 4733.00    1.58926   1.57507    0.000
 4734.00    1.63406   1.58232    0.000
 4735.00    1.57334   1.59029    0.000
 4736.00    1.50497   1.59928    0.000
 4737.00    1.42677   1.60813    0.000
 4738.00    1.41332   1.61719    0.000
 4739.00    1.47321   1.62570    0.000
 4740.00    1.54848   1.63355    0.000
 4741.00    1.63909   1.64074    0.000
 4742.00    1.66178   1.64663    0.000
 4743.00    1.62460   1.65176    0.000
 4744.00    1.58144   1.65503    0.000
 4745.00    1.53362   1.65750    0.000
 4746.00    1.49232   1.65775    0.000
 4747.00    1.45546   1.65704    0.000
 4748.00    1.48112   1.65435    0.000
 4749.00    1.54418   1.65044    0.000
 4750.00    1.64292   1.64531    0.000
 4751.00    1.76028   1.63900    0.000
 4752.00    1.75159   1.63234    0.000
 4753.00    1.68584   1.62449    0.000
 4754.00    1.61539   1.61693    0.000
 4755.00    1.54311   1.60840    0.000
 4756.00    1.57252   1.60037    0.000
 4757.00    1.63564   1.59178    0.000
 4758.00    1.65737   1.58376    0.000
 4759.00    1.66760   1.57589    0.000
 4760.00    1.67346   1.56904    0.000
 4761.00    1.67832   1.56331    0.020
 4762.00    1.71563   1.55947    0.021
 4763.00    1.75889   1.55755    0.021
 4764.00    1.67497   1.55823    0.021
 4765.00    1.57314   1.56119    0.021
 4766.00    1.58305   1.56691    0.021
 4767.00    1.60428   1.57456    0.021
 4768.00    1.67723   1.58405    0.021
 4769.00    1.75352   1.59464    0.021
 4770.00    1.72268   1.60555    0.020
 4771.00    1.68878   1.61639    0.020
 4772.00    1.74763   1.62591    0.020
 4773.00    1.80194   1.63422    0.021
 4774.00    1.72448   1.64012    0.021
 4775.00    1.65328   1.64399    0.021
 4776.00    1.67246   1.64528    0.020
 4777.00    1.69256   1.64424    0.020
 4778.00    1.72117   1.64114    0.020
 4779.00    1.73673   1.63653    0.020
 4780.00    1.66296   1.63119    0.020
 4781.00    1.61161   1.62569    0.020
 4782.00    1.67910   1.62080    0.020
 4783.00    1.74085   1.61689    0.020
 4784.00    1.77817   1.61485    0.020
 4785.00    1.79503   1.61484    0.020
 4786.00    1.73997   1.61701    0.020
 4787.00    1.70029   1.62124    0.020
 4788.00    1.70602   1.62737    0.020
 4789.00    1.70973   1.63489    0.020
 4790.00    1.70833   1.64302    0.021
 4791.00    1.69588   1.65144    0.021
 4792.00    1.65945   1.65940    0.020
 4793.00    1.62674   1.66599    0.020
 4794.00    1.60104   1.67137    0.020
 4795.00    1.59093   1.67491    0.020
 4796.00    1.60642   1.67723    0.020
 4797.00    1.61297   1.67724    0.021
 4798.00    1.60663   1.67690    0.021
 4799.00    1.59729   1.67467    0.021
 4800.00    1.58414   1.67249    0.021
 4801.00    1.61487   1.66934    0.021
 4802.00    1.69459   1.66643    0.021
 4803.00    1.72062   1.66355    0.021
 4804.00    1.69377   1.66116    0.021
 4805.00    1.63481   1.65998    0.021
 4806.00    1.54795   1.65935    0.021
 4807.00    1.51608   1.66062    0.021
 4808.00    1.52629   1.66238    0.021
 4809.00    1.60360   1.66607    0.021
 4810.00    1.72603   1.66986    0.021
 4811.00    1.77809   1.67485    0.021
 4812.00    1.78867   1.67970    0.021
 4813.00    1.69655   1.68455    0.021
 4814.00    1.55166   1.68880    0.021
 4815.00    1.54906   1.69197    0.021
 4816.00    1.60981   1.69388    0.021
 4817.00    1.66735   1.69387    0.021
 4818.00    1.72367   1.69236    0.021
 4819.00    1.71499   1.68902    0.022
 4820.00    1.68518   1.68475    0.022
 4821.00    1.64872   1.67934    0.021
 4822.00    1.61044   1.67323    0.021
 4823.00    1.71864   1.66738    0.021
 4824.00    1.85957   1.66141    0.022
 4825.00    1.78690   1.65641    0.022
 4826.00    1.67616   1.65132    0.021
 4827.00    1.59843   1.64786    0.021
 4828.00    1.52520   1.64424    0.021
 4829.00    1.52793   1.64187    0.021
 4830.00    1.53804   1.63969    0.021
 4831.00    1.55115   1.63824    0.021
 4832.00    1.56444   1.63690    0.021
 4833.00    1.60291   1.63513    0.021
 4834.00    1.64170   1.63380    0.021
 4835.00    1.61573   1.63219    0.021
 4836.00    1.59057   1.63108    0.021
 4837.00    1.58630   1.62924    0.021
 4838.00    1.58079   1.62798    0.021
 4839.00    1.55828   1.62653    0.021
 4840.00    1.53406   1.62570    0.021
 4841.00    1.49437   1.62454    0.021
 4842.00    1.46851   1.62327    0.021
 4843.00    1.53443   1.62172    0.021
 4844.00    1.60919   1.61913    0.021
 4845.00    1.72956   1.61530    0.021
 4846.00    1.81841   1.61030    0.022
 4847.00    1.77601   1.60362    0.021
 4848.00    1.73101   1.59458    0.000
 4849.00    1.67704   1.58327    0.000
 4850.00    1.64657   1.56950    0.000
 4851.00    1.68427   1.55328    0.000
 4852.00    1.67647   1.53536    0.000
 4853.00    1.55604   1.51652    0.000
 4854.00    1.46795   1.49680    0.000
 4855.00    1.44887   1.47853    0.000
 4856.00    1.41612   1.46080    0.000
 4857.00    1.35805   1.44570    0.000
 4858.00    1.33377   1.43290    0.000
 4859.00    1.36420   1.42419    0.000
 4860.00    1.36472   1.41796    0.000
 4861.00    1.32276   1.41594    0.000
 4862.00    1.29252   1.41719    0.000
 4863.00    1.27692   1.42085    0.000
 4864.00    1.36462   1.42679    0.000
 4865.00    1.56606   1.43379    0.000
 4866.00    1.61205   1.44261    0.000
 4867.00    1.50704   1.45156    0.000
 4868.00    1.40474   1.46214    0.000
 4869.00    1.30476   1.47224    0.000
 4870.00    1.25862   1.48254    0.000
 4871.00    1.25309   1.49349    0.000
 4872.00    1.28072   1.50414    0.000
 4873.00    1.33032   1.51490    0.000
 4874.00    1.40250   1.52522    0.000
 4875.00    1.48777   1.53509    0.020
 4876.00    1.58788   1.54302    0.020
 4877.00    1.69551   1.54928    0.020
 4878.00    1.66379   1.55445    0.020
 4879.00    1.57105   1.55669    0.020
 4880.00    1.58768   1.55692    0.020
 4881.00    1.64543   1.55444    0.020
 4882.00    1.66241   1.55208    0.020
 4883.00    1.66639   1.54770    0.021
 4884.00    1.67325   1.54615    0.020
 4885.00    1.68087   1.54551    0.020
 4886.00    1.71434   1.54725    0.020
 4887.00    1.75345   1.55193    0.020
 4888.00    1.69520   1.56053    0.020
 4889.00    1.62007   1.57198    0.020
 4890.00    1.52379   1.58527    0.020
 4891.00    1.42472   1.60142    0.020
 4892.00    1.49886   1.61753    0.020
 4893.00    1.58910   1.63530    0.020
 4894.00    1.58739   1.65040    0.020
 4895.00    1.58047   1.66423    0.020
 4896.00    1.58310   1.67483    0.020
 4897.00    1.58698   1.68396    0.020
 4898.00    1.70438   1.69093    0.020
 4899.00    1.81694   1.69337    0.020
 4900.00    1.81450   1.69352    0.020
 4901.00    1.80562   1.69092    0.020
 4902.00    1.71333   1.68671    0.020
 4903.00    1.63338   1.68168    0.020
 4904.00    1.66077   1.67595    0.020
 4905.00    1.67377   1.66951    0.020
 4906.00    1.59412   1.66287    0.020
 4907.00    1.53531   1.65651    0.019
 4908.00    1.58134   1.64842    0.020
 4909.00    1.62758   1.64013    0.020
 4910.00    1.67471   1.63047    0.020
 4911.00    1.69678   1.61982    0.020
 4912.00    1.63430   1.60804    0.020
 4913.00    1.59152   1.59591    0.020
 4914.00    1.60484   1.58510    0.020
 4915.00    1.61194   1.57415    0.020
 4916.00    1.60388   1.56501    0.020
 4917.00    1.57639   1.55757    0.020
 4918.00    1.50810   1.55418    0.020
 4919.00    1.48517   1.55312    0.020
 4920.00    1.54502   1.55610    0.020
 4921.00    1.60032   1.56315    0.020
 4922.00    1.64838   1.57243    0.020
 4923.00    1.69113   1.58480    0.020
 4924.00    1.72645   1.59827    0.020
 4925.00    1.72927   1.61216    0.020
 4926.00    1.69205   1.62514    0.020
 4927.00    1.66837   1.63760    0.020
 4928.00    1.65939   1.64609    0.020
 4929.00    1.66030   1.65090    0.020
 4930.00    1.67067   1.65222    0.020
 4931.00    1.65344   1.65169    0.020
 4932.00    1.61289   1.65010    0.020
 4933.00    1.56244   1.64751    0.020
 4934.00    1.50461   1.64488    0.020
 4935.00    1.50125   1.64377    0.020
 4936.00    1.53347   1.64408    0.020
 4937.00    1.59624   1.64660    0.020
 4938.00    1.67649   1.65166    0.020
 4939.00    1.62311   1.65925    0.020
 4940.00    1.50322   1.66937    0.000
 4941.00    1.52569   1.68028    0.000
 4942.00    1.60945   1.69108    0.000
 4943.00    1.64147   1.70203    0.000
 4944.00    1.65439   1.71159    0.000
 4945.00    1.74103   1.71906    0.000
 4946.00    1.85073   1.72400    0.000
 4947.00    1.78534   1.72470    0.000
 4948.00    1.67428   1.72254    0.000
 4949.00    1.70593   1.71507    0.000
 4950.00    1.76796   1.70693    0.000
 4951.00    1.77247   1.69616    0.000
 4952.00    1.76729   1.68547    0.000
 4953.00    1.59562   1.67438    0.000
 4954.00    1.40278   1.66298    0.000
 4955.00    1.57148   1.65359    0.000
 4956.00    1.77225   1.64432    0.000
 4957.00    1.72295   1.63796    0.000
 4958.00    1.66046   1.63230    0.000
 4959.00    1.65591   1.62956    0.000
 4960.00    1.65254   1.62738    0.000
 4961.00    1.65535   1.62755    0.000
 4962.00    1.65515   1.62891    0.000
 4963.00    1.58970   1.63097    0.000
 4964.00    1.52933   1.63463    0.000
 4965.00    1.53131   1.63701    0.000
 4966.00    1.54530   1.63997    0.000
 4967.00    1.65991   1.64157    0.000
 4968.00    1.76443   1.64351    0.000
 4969.00    1.80595   1.64418    0.000
 4970.00    1.83997   1.64361    0.000
 4971.00    1.83720   1.64159    0.000
 4972.00    1.84057   1.63767    0.000
 4973.00    1.86841   1.63178    0.000
 4974.00    1.86584   1.62263    0.000
 4975.00    1.76264   1.61241    0.000
 4976.00    1.67213   1.59972    0.000
 4977.00    1.61704   1.58687    0.000
 4978.00    1.56273   1.57465    0.000
 4979.00    1.51029   1.56333    0.000
 4980.00    1.49332   1.55433    0.000
 4981.00    1.54963   1.54737    0.000
 4982.00    1.58997   1.54368    0.000
 4983.00    1.60161   1.54230    0.000
 4984.00    1.61927   1.54454    0.000
 4985.00    1.64638   1.54794    0.000
 4986.00    1.67401   1.55396    0.000
 4987.00    1.70237   1.56097    0.000
 4988.00    1.73046   1.56763    0.000
 4989.00    1.75824   1.57450    0.000
 4990.00    1.73664   1.57968    0.000
 4991.00    1.66219   1.58230    0.000
 4992.00    1.64518   1.58227    0.000
 4993.00    1.68239   1.57971    0.000
 4994.00    1.66360   1.57431    0.000
 4995.00    1.59819   1.56773    0.000
 4996.00    1.56635   1.55943    0.000
 4997.00    1.55910   1.54911    0.000
 4998.00    1.56511   1.53851    0.000
 4999.00    1.57963   1.52697    0.000
 5000.00    1.51947   1.51545    0.000
 5001.00    1.41725   1.50549    0.000
 5002.00    1.46219   1.49632    0.000
 5003.00    1.57924   1.48803    0.000
 5004.00    1.62981   1.48031    0.000
 5005.00    1.65222   1.47406    0.000
 5006.00    1.64601   1.46764    0.000
 5007.00    1.62941   1.46308    0.000
 5008.00    1.61633   1.45811    0.000
 5009.00    1.60432   1.45459    0.000
 5010.00    1.61841   1.45222    0.000
 5011.00    1.63916   1.45052    0.000
 5012.00    1.63287   1.44949    0.000
 5013.00    1.62096   1.44922    0.000
 5014.00    1.54507   1.45038    0.000
 5015.00    1.45870   1.45179    0.000
 5016.00    1.49269   1.45502    0.000
 5017.00    1.54143   1.46004    0.000
 5018.00    1.52318   1.46797    0.000
 5019.00    1.49926   1.47593    0.000
 5020.00    1.51334   1.48576    0.000
 5021.00    1.52927   1.49445    0.000
 5022.00    1.61381   1.50488    0.000
 5023.00    1.69795   1.51617    0.000
 5024.00    1.69355   1.52650    0.000
 5025.00    1.68504   1.53680    0.000
 5026.00    1.59425   1.54562    0.000
 5027.00    1.51137   1.55462    0.000
 5028.00    1.52076   1.55976    0.000
 5029.00    1.53788   1.56316    0.019
 5030.00    1.61735   1.56244    0.020
 5031.00    1.69581   1.56115    0.020
 5032.00    1.76806   1.55820    0.020
 5033.00    1.82198   1.55136    0.020
 5034.00    1.78823   1.54425    0.020
 5035.00    1.71577   1.53522    0.020
 5036.00    1.49255   1.52944    0.020
 5037.00    1.33799   1.52480    0.020
 5038.00    1.40612   1.52129    0.020
 5039.00    1.45812   1.51983    0.020
 5040.00    1.46580   1.52169    0.020
 5041.00    1.49482   1.52563    0.020
 5042.00    1.57400   1.52887    0.020
 5043.00    1.61809   1.53493    0.020
 5044.00    1.59086   1.54143    0.020
 5045.00    1.57161   1.55033    0.019
 5046.00    1.56648   1.55990    0.019
 5047.00    1.54288   1.56909    0.019
 5048.00    1.49069   1.57850    0.020
 5049.00    1.47493   1.58737    0.020
 5050.00    1.50870   1.59524    0.020
 5051.00    1.53506   1.60255    0.020
 5052.00    1.55255   1.61073    0.020
 5053.00    1.60859   1.61869    0.020
 5054.00    1.70532   1.62655    0.020
 5055.00    1.73997   1.63376    0.020
 5056.00    1.71683   1.63914    0.019
 5057.00    1.69500   1.64244    0.019
 5058.00    1.67425   1.64185    0.019
 5059.00    1.64451   1.63856    0.019
 5060.00    1.60826   1.63530    0.019
 5061.00    1.60788   1.62933    0.019
 5062.00    1.63025   1.62185    0.019
 5063.00    1.55032   1.61309    0.019
 5064.00    1.41369   1.60576    0.019
 5065.00    1.47099   1.59695    0.019
 5066.00    1.62181   1.58666    0.019
 5067.00    1.66138   1.57846    0.019
 5068.00    1.65463   1.57034    0.019
 5069.00    1.66465   1.56401    0.019
 5070.00    1.68064   1.55722    0.019
 5071.00    1.62895   1.55095    0.019
 5072.00    1.55690   1.54531    0.019
 5073.00    1.53385   1.53676    0.019
 5074.00    1.52304   1.52970    0.019
 5075.00    1.53599   1.52308    0.019
 5076.00    1.55376   1.51878    0.019
 5077.00    1.55781   1.51526    0.019
 5078.00    1.55968   1.51276    0.019
 5079.00    1.50283   1.51346    0.019
 5080.00    1.43904   1.51555    0.018
 5081.00    1.48670   1.52028    0.018
 5082.00    1.54331   1.52487    0.018
 5083.00    1.56171   1.53259    0.018
 5084.00    1.57838   1.54234    0.018
 5085.00    1.62863   1.55253    0.018
 5086.00    1.67776   1.56242    0.018
 5087.00    1.65187   1.57171    0.018
 5088.00    1.62444   1.57958    0.018
 5089.00    1.56820   1.58453    0.018
 5090.00    1.51867   1.58712    0.018
 5091.00    1.54389   1.58705    0.018
 5092.00    1.56633   1.58501    0.018
 5093.00    1.56718   1.58024    0.018
 5094.00    1.57637   1.57596    0.019
 5095.00    1.63471   1.57085    0.019
 5096.00    1.68365   1.56572    0.019
 5097.00    1.68874   1.55922    0.018
 5098.00    1.68675   1.55250    0.018
 5099.00    1.65779   1.54676    0.018
 5100.00    1.62789   1.54178    0.018
 5101.00    1.59498   1.53750    0.018
 5102.00    1.56398   1.53402    0.018
 5103.00    1.53814   1.53407    0.018
 5104.00    1.52390   1.53398    0.019
 5105.00    1.53648   1.53621    0.019
 5106.00    1.55231   1.53854    0.019
 5107.00    1.57466   1.54154    0.019
 5108.00    1.58023   1.54652    0.019
 5109.00    1.55658   1.55185    0.019
 5110.00    1.51569   1.55741    0.019
 5111.00    1.44851   1.56330    0.019
 5112.00    1.43233   1.56941    0.019
 5113.00    1.48450   1.57320    0.019
 5114.00    1.53958   1.57555    0.020
 5115.00    1.59811   1.57600    0.020
 5116.00    1.66080   1.57341    0.020
 5117.00    1.72784   1.56761    0.020
 5118.00    1.79479   1.56064    0.020
 5119.00    1.86165   1.55170    0.020
 5120.00    1.89315   1.54277    0.020
 5121.00    1.89603   1.53318    0.020
 5122.00    1.77986   1.52337    0.020
 5123.00    1.57894   1.51473    0.019
 5124.00    1.47516   1.50706    0.019
 5125.00    1.43206   1.50296    0.019
 5126.00    1.40718   1.49959    0.019
 5127.00    1.39225   1.49884    0.019
 5128.00    1.43447   1.50004    0.019
 5129.00    1.50382   1.50352    0.020
 5130.00    1.52492   1.50565    0.020
 5131.00    1.52629   1.50758    0.020
 5132.00    1.50348   1.50988    0.019
 5133.00    1.47221   1.50897    0.019
 5134.00    1.43069   1.51077    0.019
 5135.00    1.38615   1.51003    0.019
 5136.00    1.45204   1.50702    0.019
 5137.00    1.54491   1.50393    0.019
 5138.00    1.51493   1.50083    0.019
 5139.00    1.46067   1.49653    0.019
 5140.00    1.50321   1.49080    0.019
 5141.00    1.56067   1.48671    0.019
 5142.00    1.52077   1.48226    0.019
 5143.00    1.46978   1.48052    0.018
 5144.00    1.48934   1.48024    0.018
 5145.00    1.51428   1.47839    0.018
 5146.00    1.53138   1.47771    0.018
 5147.00    1.54817   1.48063    0.018
 5148.00    1.55032   1.48292    0.018
 5149.00    1.55193   1.48596    0.018
 5150.00    1.53545   1.49068    0.018
 5151.00    1.52325   1.49588    0.019
 5152.00    1.58531   1.50160    0.018
 5153.00    1.64327   1.50436    0.018
 5154.00    1.65760   1.50523    0.018
 5155.00    1.67518   1.50357    0.018
 5156.00    1.71723   1.49842    0.018
 5157.00    1.74733   1.49033    0.018
 5158.00    1.70894   1.47718    0.018
 5159.00    1.66293   1.45934    0.018
 5160.00    1.58215   1.43699    0.018
 5161.00    1.51658   1.41034    0.018
 5162.00    1.50770   1.38211    0.018
 5163.00    1.48928   1.35344    0.018
 5164.00    1.44107   1.32838    0.018
 5165.00    1.38548   1.30274    0.018
 5166.00    1.31036   1.27977    0.018
 5167.00    1.21824   1.26204    0.018
 5168.00    1.08747   1.24785    0.018
 5169.00    1.02887   1.24060    0.018
 5170.00    1.11237   1.23812    0.018
 5171.00    1.21141   1.24262    0.018
 5172.00    1.33710   1.25139    0.019
 5173.00    1.38241   1.26195    0.019
 5174.00    1.30693   1.27166    0.019
 5175.00    1.26687   1.27843    0.019
 5176.00    1.27363   1.28743    0.019
 5177.00    1.33506   1.29742    0.019
 5178.00    1.46012   1.30632    0.019
 5179.00    1.47116   1.31304    0.019
 5180.00    1.36524   1.31994    0.018
 5181.00    1.27242   1.33083    0.018
 5182.00    1.19145   1.33938    0.018
 5183.00    1.16003   1.34941    0.018
 5184.00    1.16810   1.36032    0.018
 5185.00    1.23752   1.37044    0.018
 5186.00    1.34996   1.38173    0.018
 5187.00    1.38824   1.39411    0.018
 5188.00    1.38089   1.41096    0.019
 5189.00    1.41576   1.42629    0.019
 5190.00    1.47332   1.44048    0.000
 5191.00    1.46960   1.45120    0.000
 5192.00    1.43729   1.46025    0.000
 5193.00    1.35352   1.47051    0.000
 5194.00    1.24907   1.47616    0.000
 5195.00    1.38460   1.47912    0.000
 5196.00    1.60250   1.48233    0.000
 5197.00    1.60776   1.48481    0.000
 5198.00    1.55159   1.48204    0.000
 5199.00    1.50560   1.47726    0.000
 5200.00    1.46204   1.47251    0.000
 5201.00    1.42411   1.46574    0.000
 5202.00    1.38727   1.45825    0.000
 5203.00    1.39442   1.45371    0.000
 5204.00    1.40814   1.44888    0.000
 5205.00    1.47863   1.44700    0.000
 5206.00    1.55533   1.44978    0.000
 5207.00    1.49739   1.45399    0.000
 5208.00    1.42973   1.46182    0.000
 5209.00    1.47563   1.47043    0.000
 5210.00    1.52576   1.48386    0.000
 5211.00    1.46208   1.49486    0.018
 5212.00    1.39961   1.50734    0.018
 5213.00    1.40063   1.52202    0.018
 5214.00    1.40655   1.53330    0.018
 5215.00    1.49189   1.54463    0.018
 5216.00    1.56726   1.55041    0.018
 5217.00    1.54116   1.55475    0.018
 5218.00    1.51775   1.55473    0.018
 5219.00    1.51393   1.55225    0.017
 5220.00    1.51007   1.54935    0.017
 5221.00    1.50600   1.54414    0.017
 5222.00    1.49200   1.54089    0.018
 5223.00    1.43383   1.53635    0.018
 5224.00    1.40288   1.53537    0.018
 5225.00    1.47143   1.53693    0.018
 5226.00    1.53616   1.53684    0.018
 5227.00    1.58919   1.54023    0.018
 5228.00    1.61115   1.54499    0.018
 5229.00    1.55228   1.55186    0.018
 5230.00    1.52299   1.56319    0.018
 5231.00    1.55985   1.57701    0.018
 5232.00    1.56358   1.59329    0.018
 5233.00    1.50313   1.60586    0.018
 5234.00    1.50784   1.61739    0.018
 5235.00    1.62269   1.62839    0.018
 5236.00    1.70387   1.63531    0.018
 5237.00    1.73518   1.64443    0.018
 5238.00    1.71930   1.65138    0.018
 5239.00    1.64201   1.65548    0.018
 5240.00    1.59873   1.65758    0.018
 5241.00    1.59449   1.65551    0.018
 5242.00    1.59135   1.65129    0.018
 5243.00    1.58933   1.64415    0.018
 5244.00    1.58120   1.63813    0.018
 5245.00    1.56762   1.63361    0.018
 5246.00    1.61362   1.62628    0.018
 5247.00    1.70646   1.62135    0.019
 5248.00    1.66454   1.61746    0.019
 5249.00    1.52943   1.61187    0.018
 5250.00    1.49763   1.60744    0.018
 5251.00    1.52845   1.60295    0.019
 5252.00    1.52623   1.60225    0.019
 5253.00    1.50652   1.59891    0.019
 5254.00    1.55941   1.59346    0.019
 5255.00    1.64564   1.58750    0.019
 5256.00    1.66190   1.57608    0.019
 5257.00    1.65050   1.56256    0.019
 5258.00    1.60831   1.54415    0.019
 5259.00    1.55574   1.52594    0.019
 5260.00    1.51174   1.50789    0.019
 5261.00    1.47016   1.48889    0.019
 5262.00    1.51074   1.46947    0.019
 5263.00    1.57050   1.45241    0.019
 5264.00    1.49741   1.43812    0.019
 5265.00    1.39940   1.42449    0.019
 5266.00    1.37832   1.41814    0.019
 5267.00    1.36838   1.42085    0.019
 5268.00    1.36634   1.42958    0.019
 5269.00    1.36513   1.43847    0.019
 5270.00    1.43693   1.45298    0.019
 5271.00    1.51371   1.47038    0.019
 5272.00    1.51968   1.48765    0.019
 5273.00    1.52327   1.51026    0.019
 5274.00    1.51634   1.53546    0.019
 5275.00    1.51256   1.56004    0.018
 5276.00    1.61004   1.57893    0.018
 5277.00    1.69926   1.59690    0.018
 5278.00    1.66271   1.61486    0.018
 5279.00    1.63064   1.63107    0.018
 5280.00    1.64225   1.64829    0.018
 5281.00    1.64941   1.66543    0.018
 5282.00    1.62525   1.67986    0.018
 5283.00    1.60280   1.69093    0.018
 5284.00    1.58959   1.69985    0.018
 5285.00    1.59339   1.70784    0.017
 5286.00    1.67113   1.71528    0.018
 5287.00    1.74438   1.71992    0.018
 5288.00    1.80152   1.72393    0.018
 5289.00    1.85126   1.72430    0.018
 5290.00    1.87877   1.72099    0.018
 5291.00    1.86159   1.71587    0.018
 5292.00    1.73013   1.70863    0.018
 5293.00    1.63127   1.70219    0.018
 5294.00    1.60414   1.69546    0.018
 5295.00    1.60016   1.69263    0.018
 5296.00    1.64036   1.69101    0.018
 5297.00    1.65501   1.68924    0.018
 5298.00    1.62713   1.69147    0.018
 5299.00    1.60407   1.69605    0.018
 5300.00    1.58802   1.70425    0.018
 5301.00    1.59769   1.71374    0.018
 5302.00    1.64034   1.72506    0.018
 5303.00    1.67960   1.73654    0.018
 5304.00    1.71503   1.74652    0.018
 5305.00    1.68938   1.75712    0.018
 5306.00    1.60282   1.76635    0.018
 5307.00    1.58603   1.77363    0.018
 5308.00    1.63060   1.77761    0.018
 5309.00    1.68253   1.77882    0.019
 5310.00    1.74016   1.77760    0.019
 5311.00    1.75018   1.77479    0.019
 5312.00    1.72776   1.76935    0.018
 5313.00    1.70086   1.76090    0.018
 5314.00    1.67129   1.75229    0.018
 5315.00    1.69605   1.74070    0.018
 5316.00    1.74911   1.72719    0.018
 5317.00    1.70674   1.71086    0.018
 5318.00    1.62126   1.69523    0.018
 5319.00    1.55691   1.68002    0.018
 5320.00    1.50076   1.66245    0.017
 5321.00    1.47314   1.64847    0.017
 5322.00    1.45495   1.63435    0.017
 5323.00    1.47278   1.62071    0.017
 5324.00    1.50059   1.60637    0.017
 5325.00    1.47731   1.59934    0.017
 5326.00    1.44237   1.59961    0.017
 5327.00    1.44963   1.60016    0.017
 5328.00    1.46458   1.60322    0.017
 5329.00    1.59111   1.60559    0.017
 5330.00    1.73328   1.61323    0.017
 5331.00    1.76548   1.62199    0.017
 5332.00    1.78659   1.63230    0.017
 5333.00    1.77798   1.64479    0.017
 5334.00    1.76747   1.65349    0.017
 5335.00    1.72625   1.66050    0.017
 5336.00    1.68411   1.66360    0.017
 5337.00    1.63435   1.66803    0.017
 5338.00    1.58581   1.67581    0.017
 5339.00    1.57213   1.67992    0.017
 5340.00    1.56425   1.68392    0.017
 5341.00    1.63953   1.68660    0.017
 5342.00    1.70676   1.68858    0.017
 5343.00    1.69858   1.69521    0.017
 5344.00    1.68938   1.70084    0.017
 5345.00    1.67317   1.70920    0.017
 5346.00    1.66084   1.71959    0.017
 5347.00    1.66900   1.73001    0.017
 5348.00    1.68341   1.74237    0.017
 5349.00    1.72436   1.75193    0.017
 5350.00    1.75511   1.76426    0.017
 5351.00    1.75013   1.77670    0.017
 5352.00    1.78240   1.78580    0.018
 5353.00    1.92444   1.79499    0.018
 5354.00    1.99307   1.80079    0.018
 5355.00    1.87723   1.80484    0.018
 5356.00    1.80714   1.80494    0.018
 5357.00    1.83608   1.80193    0.017
 5358.00    1.83938   1.79632    0.017
 5359.00    1.79452   1.78798    0.017
 5360.00    1.76238   1.77755    0.018
 5361.00    1.75110   1.76387    0.017
 5362.00    1.76002   1.75251    0.017
 5363.00    1.79799   1.73956    0.018
 5364.00    1.75700   1.72842    0.018
 5365.00    1.61610   1.71707    0.017
 5366.00    1.54661   1.70521    0.017
 5367.00    1.55675   1.69772    0.018
 5368.00    1.56470   1.69353   -2.000
 5369.00    1.57050   1.69722   -2.000
 5370.00    1.55717   1.69971   -2.000
 5371.00    1.52724   1.70356   -2.000
 5372.00    1.61749   1.70811   -2.000
 5373.00    1.79954   1.71230   -2.000
 5374.00    1.82101   1.72141   -2.000
 5375.00    1.73466   1.73032   -2.000
 5376.00    1.76115   1.73907   -2.000
 5377.00    1.85399   1.74407   -2.000
 5378.00    1.82741   1.74676   -2.000
 5379.00    1.73959   1.74733   -2.000
 5380.00    1.71230   1.74694   -2.000
 5381.00    1.71191   1.74712   -2.000
 5382.00    1.70196   1.74362   -2.000
 5383.00    1.68836   1.73779    0.017
 5384.00    1.69120   1.73023    0.017
 5385.00    1.69936   1.72065    0.016
 5386.00    1.69346   1.71009    0.016
 5387.00    1.68374   1.70020    0.016
 5388.00    1.69395   1.68976    0.016
 5389.00    1.70859   1.67940    0.016
 5390.00    1.64815   1.66823    0.016
 5391.00    1.57438   1.65844    0.016
 5392.00    1.54942   1.64789    0.016
 5393.00    1.53108   1.63464    0.016
 5394.00    1.54763   1.62799    0.016
 5395.00    1.56755   1.62256    0.016
 5396.00    1.53594   1.61562    0.016
 5397.00    1.50123   1.60924    0.016
 5398.00    1.50060   1.60452    0.016
 5399.00    1.50109   1.60069    0.016
 5400.00    1.53906   1.59440    0.016
 5401.00    1.57434   1.59033    0.016
 5402.00    1.54039   1.59064    0.016
 5403.00    1.50740   1.59431    0.016
 5404.00    1.48753   1.59811    0.016
 5405.00    1.47295   1.60089    0.017
 5406.00    1.50595   1.60466    0.017
 5407.00    1.53340   1.61423    0.017
 5408.00    1.52416   1.62681    0.017
 5409.00    1.51525   1.63940    0.017
 5410.00    1.50802   1.65271    0.017
 5411.00    1.52074   1.66469    0.017
 5412.00    1.61625   1.67797    0.017
 5413.00    1.67846   1.69048    0.017
 5414.00    1.62631   1.70184    0.017
 5415.00    1.59098   1.71163    0.017
 5416.00    1.60433   1.71803    0.017
 5417.00    1.62484   1.72297    0.017
 5418.00    1.66303   1.72672    0.017
 5419.00    1.67571   1.72795    0.017
 5420.00    1.63404   1.72396    0.017
 5421.00    1.63851   1.72101    0.017
 5422.00    1.72832   1.71931    0.017
 5423.00    1.76651   1.71509    0.017
 5424.00    1.72131   1.70977    0.017
 5425.00    1.68739   1.69838    0.017
 5426.00    1.66948   1.69107    0.017
 5427.00    1.67154   1.69011    0.016
 5428.00    1.69849   1.68616    0.016
 5429.00    1.71031   1.68494    0.016
 5430.00    1.70548   1.68154    0.016
 5431.00    1.72168   1.68068    0.016
 5432.00    1.75826   1.68412    0.016
 5433.00    1.74615   1.68768    0.016
 5434.00    1.69240   1.69815    0.016
 5435.00    1.66063   1.70453    0.016
 5436.00    1.64540   1.70946    0.016
 5437.00    1.66551   1.71450    0.015
 5438.00    1.70899   1.71809    0.015
 5439.00    1.71708   1.72625    0.015
 5440.00    1.70467   1.72901    0.016
 5441.00    1.72851   1.72891    0.016
 5442.00    1.77065   1.72531    0.016
 5443.00    1.81241   1.71944    0.016
 5444.00    1.85401   1.71863    0.016
 5445.00    1.83774   1.71503    0.016
 5446.00    1.79978   1.71004    0.016
 5447.00    1.73975   1.70387    0.016
 5448.00    1.67270   1.69796    0.016
 5449.00    1.65212   1.69439    0.016
 5450.00    1.64391   1.69059    0.016
 5451.00    1.64697   1.68629    0.016
 5452.00    1.65249   1.68402    0.016
 5453.00    1.61364   1.68465    0.016
 5454.00    1.56712   1.68384    0.016
 5455.00    1.56357   1.68475    0.016
 5456.00    1.56567   1.68445    0.016
 5457.00    1.55292   1.68453    0.016
 5458.00    1.53881   1.68566    0.016
 5459.00    1.57457   1.68462    0.016
 5460.00    1.61313   1.68816    0.016
 5461.00    1.67798   1.68981    0.016
 5462.00    1.74264   1.68836    0.016
 5463.00    1.72774   1.68747    0.016
 5464.00    1.71431   1.68472    0.016
 5465.00    1.73546   1.68364    0.016
 5466.00    1.75038   1.68066    0.016
 5467.00    1.68537   1.67520    0.016
 5468.00    1.62555   1.67178    0.016
 5469.00    1.61070   1.66603    0.016
 5470.00    1.60333   1.66123    0.016
 5471.00    1.64393   1.65711    0.016
 5472.00    1.67388   1.64837    0.016
 5473.00    1.65042   1.64342    0.016
 5474.00    1.61978   1.64208    0.016
 5475.00    1.55998   1.64266    0.016
 5476.00    1.52672   1.64382    0.015
 5477.00    1.58275   1.64066    0.015
 5478.00    1.63718   1.64149   -2.000
 5479.00    1.68704   1.64545   -2.000
 5480.00    1.72121   1.65181   -2.000
 5481.00    1.71728   1.65966   -2.000
 5482.00    1.71805   1.66472   -2.000
 5483.00    1.72865   1.66888   -2.000
 5484.00    1.63526   1.67192   -2.000
 5485.00    1.35252   1.67803   -2.000
 5486.00    1.16040   1.68493   -2.000
 5487.00    1.11254   1.69071   -2.000
 5488.00    1.16439   1.69333   -2.000
 5489.00    1.35554   1.69337   -2.000
 5490.00    1.61689   1.69602   -2.000
 5491.00    1.96454   1.69843   -2.000
 5492.00    2.06748   1.69958   -2.000
 5493.00    1.90524   1.69827   -2.000
 5494.00    1.81079   1.69704   -2.000
 5495.00    1.78116   1.69734   -2.000
 5496.00    1.76902   1.69582   -2.000
 5497.00    1.77163   1.69155   -2.000
 5498.00    1.78739   1.68765   -2.000
 5499.00    1.81293   1.68570   -2.000
 5500.00    1.80283   1.68296   -2.000
 5501.00    1.76950   1.68007   -2.000
 5502.00    1.71153   1.67450    0.016
 5503.00    1.63951   1.66992    0.016
 5504.00    1.67390   1.66849    0.016
 5505.00    1.76115   1.66535    0.016
 5506.00    1.71656   1.66483    0.016
 5507.00    1.61532   1.66373    0.016
 5508.00    1.57220   1.66131    0.016
 5509.00    1.55049   1.66325    0.016
 5510.00    1.54921   1.66501    0.016
 5511.00    1.55431   1.66923    0.016
 5512.00    1.60481   1.67402    0.016
 5513.00    1.66713   1.67667    0.016
 5514.00    1.63166   1.68305    0.016
 5515.00    1.57544   1.68867    0.016
 5516.00    1.60827   1.69425    0.016
 5517.00    1.65605   1.70003    0.016
 5518.00    1.72101   1.70261    0.016
 5519.00    1.78816   1.70531    0.016
 5520.00    1.77882   1.70800    0.016
 5521.00    1.76275   1.70969    0.015
 5522.00    1.72946   1.71072    0.015
 5523.00    1.69527   1.70874    0.015
 5524.00    1.63831   1.70538    0.015
 5525.00    1.58145   1.70497    0.015
 5526.00    1.56506   1.70444    0.015
 5527.00    1.55183   1.70488    0.015
 5528.00    1.60645   1.70449    0.015
 5529.00    1.65766   1.70265    0.015
 5530.00    1.66724   1.70468    0.015
 5531.00    1.67456   1.70643    0.015
 5532.00    1.66315   1.71078    0.015
 5533.00    1.65080   1.71505    0.015
 5534.00    1.63254   1.71690    0.015
 5535.00    1.62138   1.72195    0.015
 5536.00    1.64492   1.72617    0.015
 5537.00    1.66259   1.73153    0.015
 5538.00    1.65699   1.73693    0.015
 5539.00    1.66800   1.74056    0.017
 5540.00    1.73382   1.74560    0.039
 5541.00    1.77718   1.74980   -1.000
 5542.00    1.75791   1.75365   -1.000
 5543.00    1.73184   1.75765   -1.000
 5544.00    1.68952   1.76059   -1.000
 5545.00    1.67264   1.76291   -1.000
 5546.00    1.70822   1.76506   -1.000
 5547.00    1.73901   1.76661   -1.000
 5548.00    1.76123   1.76703   -1.000
 5549.00    1.77627   1.76638   -1.000
 5550.00    1.78007   1.76490   -1.000
 5551.00    1.74756   1.76301    0.072
 5552.00    1.66506   1.76097    0.021
 5553.00    1.63662   1.75683    0.016
 5554.00    1.67369   1.75196    0.016
 5555.00    1.69241   1.74793    0.016
 5556.00    1.69151   1.74245    0.015
 5557.00    1.68256   1.73769    0.015
 5558.00    1.66603   1.73161    0.015
 5559.00    1.63215   1.72534    0.015
 5560.00    1.58383   1.72108    0.015
 5561.00    1.58202   1.71527    0.015
 5562.00    1.61423   1.71177    0.015
 5563.00    1.62854   1.70718    0.015
 5564.00    1.63134   1.70253    0.015
 5565.00    1.66487   1.70133    0.015
 5566.00    1.71567   1.69907    0.015
 5567.00    1.71815   1.69935    0.015
 5568.00    1.69700   1.69871    0.015
 5569.00    1.67729   1.69752    0.015
 5570.00    1.65819   1.69968    0.015
 5571.00    1.66702   1.70086    0.014
 5572.00    1.68595   1.70221    0.014
 5573.00    1.66759   1.70276    0.014
 5574.00    1.63781   1.70177    0.014
 5575.00    1.63129   1.70117    0.014
 5576.00    1.63068   1.70010    0.014
 5577.00    1.68306   1.69627    0.014
 5578.00    1.74641   1.69102    0.014
 5579.00    1.71986   1.68526    0.015
 5580.00    1.67864   1.67709    0.015
 5581.00    1.64056   1.67077    0.015
 5582.00    1.60285   1.66296    0.015
 5583.00    1.61071   1.65315    0.015
 5584.00    1.62239   1.64600    0.015
 5585.00    1.63431   1.63721    0.015
 5586.00    1.64625   1.63272    0.015
 5587.00    1.61474   1.63078    0.015
 5588.00    1.58286   1.62648    0.015
 5589.00    1.56740   1.62547    0.015
 5590.00    1.55299   1.62449    0.015
 5591.00    1.55932   1.62667    0.015
 5592.00    1.56758   1.63264    0.015
 5593.00    1.59825   1.63582    0.016
 5594.00    1.62127   1.63953    0.016
 5595.00    1.58292   1.64487    0.016
 5596.00    1.55459   1.65037    0.016
 5597.00    1.58688   1.65869    0.016
 5598.00    1.61528   1.66603    0.016
 5599.00    1.62520   1.67176    0.016
 5600.00    1.62034   1.68029    0.016
 5601.00    1.55814   1.68701    0.016
 5602.00    1.51644   1.69544    0.015
 5603.00    1.54111   1.70403    0.015
 5604.00    1.57511   1.70958    0.015
 5605.00    1.63467   1.71560    0.015
 5606.00    1.68105   1.71729    0.015
 5607.00    1.69652   1.72003    0.015
 5608.00    1.70379   1.72249    0.015
 5609.00    1.69442   1.72155    0.015
 5610.00    1.69140   1.71918    0.015
 5611.00    1.69960   1.71158    0.014
 5612.00    1.69665   1.70670    0.014
 5613.00    1.67647   1.70333    0.014
 5614.00    1.64723   1.69849    0.014
 5615.00    1.60569   1.69345    0.014
 5616.00    1.59349   1.68542    0.014
 5617.00    1.61632   1.68157    0.014
 5618.00    1.62446   1.68063    0.014
 5619.00    1.61712   1.67995    0.014
 5620.00    1.62327   1.67956    0.014
 5621.00    1.64195   1.67815    0.014
 5622.00    1.64320   1.68009    0.014
 5623.00    1.63017   1.68355    0.014
 5624.00    1.61160   1.68732    0.014
 5625.00    1.58905   1.69085    0.014
 5626.00    1.60276   1.69315    0.014
 5627.00    1.63942   1.69665    0.014
 5628.00    1.64110   1.69973    0.014
 5629.00    1.62342   1.70208    0.015
 5630.00    1.60770   1.70387    0.015
 5631.00    1.59293   1.70432    0.015
 5632.00    1.59939   1.70377    0.015
 5633.00    1.61468   1.70300    0.015
 5634.00    1.59833   1.70160    0.015
 5635.00    1.57074   1.70026    0.014
 5636.00    1.57898   1.69934    0.014
 5637.00    1.59796   1.69682    0.015
 5638.00    1.62520   1.69587    0.015
 5639.00    1.65449   1.69532    0.015
 5640.00    1.65537   1.69474    0.015
 5641.00    1.65050   1.69597    0.015
 5642.00    1.65868   1.69567    0.015
 5643.00    1.66893   1.69688    0.015
 5644.00    1.62585   1.69840    0.015
 5645.00    1.57649   1.69810    0.015
 5646.00    1.57956   1.69855    0.014
 5647.00    1.58682   1.69852    0.014
 5648.00    1.61713   1.69810    0.014
 5649.00    1.64846   1.69665    0.014
 5650.00    1.64432   1.69324    0.014
 5651.00    1.64041   1.68940    0.014
 5652.00    1.66791   1.68721    0.014
 5653.00    1.69378   1.68443    0.014
 5654.00    1.68967   1.67951    0.014
 5655.00    1.68219   1.67537    0.014
 5656.00    1.63729   1.67256    0.014
 5657.00    1.59424   1.67225    0.014
 5658.00    1.56545   1.67238    0.014
 5659.00    1.54379   1.67111    0.014
 5660.00    1.56393   1.67220    0.014
 5661.00    1.57938   1.67628    0.014
 5662.00    1.57304   1.68173    0.014
 5663.00    1.57541   1.68674    0.014
 5664.00    1.61090   1.69186    0.014
 5665.00    1.64285   1.69827    0.014
 5666.00    1.66356   1.70603    0.014
 5667.00    1.67266   1.71387    0.014
 5668.00    1.65052   1.72007    0.014
 5669.00    1.63152   1.72648    0.014
 5670.00    1.61980   1.73245    0.014
 5671.00    1.61840   1.73731    0.014
 5672.00    1.63758   1.74162    0.014
 5673.00    1.66166   1.74402    0.015
 5674.00    1.69427   1.74574    0.015
 5675.00    1.68830   1.74608    0.015
 5676.00    1.62359   1.74511    0.015
 5677.00    1.59383   1.74411    0.015
 5678.00    1.61081   1.74157    0.015
 5679.00    1.60932   1.73851    0.015
 5680.00    1.58605   1.73542    0.015
 5681.00    1.59226   1.73293    0.015
 5682.00    1.62908   1.73120    0.015
 5683.00    1.65876   1.72910    0.015
 5684.00    1.68190   1.72698    0.014
 5685.00    1.65959   1.72641    0.014
 5686.00    1.60057   1.72710    0.014
 5687.00    1.58639   1.72751    0.014
 5688.00    1.60407   1.72828    0.014
 5689.00    1.64700   1.72751    0.014
 5690.00    1.70567   1.72774    0.014
 5691.00    1.72762   1.72767    0.014
 5692.00    1.72956   1.72562    0.014
 5693.00    1.75091   1.72412    0.014
 5694.00    1.78143   1.71887    0.014
 5695.00    1.78548   1.71428    0.014
 5696.00    1.77873   1.70942    0.014
 5697.00    1.75939   1.70166    0.014
 5698.00    1.73566   1.69599    0.014
 5699.00    1.72401   1.68699    0.014
 5700.00    1.71590   1.67915    0.014
 5701.00    1.67139   1.67435    0.014
 5702.00    1.61801   1.66622    0.014
 5703.00    1.60684   1.66171    0.014
 5704.00    1.60397   1.65794    0.014
 5705.00    1.59380   1.65419    0.014
 5706.00    1.58251   1.65684    0.014
 5707.00    1.60229   1.65750    0.014
 5708.00    1.62558   1.66006    0.014
 5709.00    1.61900   1.66761    0.014
 5710.00    1.61015   1.67354    0.014
 5711.00    1.63497   1.68420    0.014
 5712.00    1.66117   1.69534    0.015
 5713.00    1.65624   1.70438    0.014
 5714.00    1.65173   1.71733    0.014
 5715.00    1.67431   1.72868    0.014
 5716.00    1.69571   1.73972    0.014
 5717.00    1.69701   1.75128    0.015
 5718.00    1.69860   1.75933    0.015
 5719.00    1.70323   1.76707    0.014
 5720.00    1.70724   1.77395    0.014
 5721.00    1.70659   1.77950    0.014
 5722.00    1.70127   1.78390    0.014
 5723.00    1.66928   1.78584    0.014
 5724.00    1.64480   1.78684    0.014
 5725.00    1.65448   1.78778    0.014
 5726.00    1.66403   1.78944    0.014
 5727.00    1.67313   1.78922    0.014
 5728.00    1.68128   1.78767    0.014
 5729.00    1.68647   1.78744    0.014
 5730.00    1.70154   1.78734    0.014
 5731.00    1.74273   1.78835    0.014
 5732.00    1.77164   1.78782    0.014
 5733.00    1.77269   1.78646    0.014
 5734.00    1.77471   1.78743    0.014
 5735.00    1.77864   1.78760    0.014
 5736.00    1.77145   1.78736    0.014
 5737.00    1.74522   1.78729    0.014
 5738.00    1.72341   1.78639    0.014
 5739.00    1.70822   1.78616    0.014
 5740.00    1.70016   1.78517    0.000
 5741.00    1.70150   1.78286    0.000
 5742.00    1.71108   1.78202    0.000
 5743.00    1.73021   1.78086    0.000
 5744.00    1.75302   1.77788    0.000
 5745.00    1.77957   1.77515    0.000
 5746.00    1.79296   1.77247    0.000
 5747.00    1.79444   1.77068    0.000
 5748.00    1.79091   1.76909    0.000
 5749.00    1.78338   1.76552    0.000
 5750.00    1.78118   1.76228    0.000
 5751.00    1.78270   1.76149    0.000
 5752.00    1.79686   1.76133    0.000
 5753.00    1.81878   1.76031    0.000
 5754.00    1.79727   1.75894    0.000
 5755.00    1.75246   1.75781    0.000
 5756.00    1.73066   1.75921    0.000
 5757.00    1.71959   1.76229    0.000
 5758.00    1.71721   1.76341    0.000
 5759.00    1.71833   1.76434    0.000
 5760.00    1.73021   1.76663    0.000
 5761.00    1.74578   1.76986    0.000
 5762.00    1.75963   1.77373    0.000
 5763.00    1.77297   1.77604    0.000
 5764.00    1.76174   1.77754    0.000
 5765.00    1.74467   1.77977    0.000
 5766.00    1.72294   1.78204    0.000
 5767.00    1.70033   1.78240    0.000
 5768.00    1.73469   1.78035    0.000
 5769.00    1.77754   1.77836    0.000
 5770.00    1.77836   1.77533    0.000
 5771.00    1.77459   1.77159    0.000
 5772.00    1.77615   1.76632    0.000
 5773.00    1.77809   1.75724    0.000
 5774.00    1.78997   1.74956    0.000
 5775.00    1.80222   1.74263    0.000
 5776.00    1.79680   1.73401    0.000
 5777.00    1.79052   1.72634    0.000
 5778.00    1.75644   1.71674    0.000
 5779.00    1.72347   1.70942    0.000
 5780.00    1.70849   1.70674    0.000
 5781.00    1.69734   1.70153    0.000
 5782.00    1.72505   1.69912    0.000
 5783.00    1.74668   1.69913    0.000
 5784.00    1.72423   1.69997    0.000
 5785.00    1.71225   1.70632    0.000
 5786.00    1.75838   1.70938    0.000
 5787.00    1.79503   1.71444    0.000
 5788.00    1.78967   1.72468    0.000
 5789.00    1.78294   1.73173    0.000
 5790.00    1.77120   1.74148    0.000
 5791.00    1.76817   1.74890   -2.000
 5792.00    1.79177   1.75539   -2.000
 5793.00    1.80625   1.76622   -2.000
 5794.00    1.79704   1.77265   -2.000
 5795.00    1.79555   1.77938   -2.000
 5796.00    1.81127   1.78559   -2.000
 5797.00    1.81557   1.78871   -2.000
 5798.00    1.79774   1.79408   -2.000
 5799.00    1.76647   1.79663   -2.000
 5800.00    1.71250   1.79893   -2.000
 5801.00    1.69427   1.80232   -2.000
 5802.00    1.72887   1.80210   -2.000
 5803.00    1.76557   1.80287   -2.000
 5804.00    1.80502   1.80305   -2.000
 5805.00    1.82629   1.80232   -2.000
 5806.00    1.82675   1.80410   -2.000
 5807.00    1.83312   1.80392   -2.000
 5808.00    1.84544   1.80355   -2.000
 5809.00    1.83992   1.80400   -2.000
 5810.00    1.81851   1.80360   -2.000
 5811.00    1.79955   1.80561    0.000
 5812.00    1.78251   1.80716    0.000
 5813.00    1.79902   1.80828    0.000
 5814.00    1.83869   1.81071    0.000
 5815.00    1.83535   1.81255    0.000
 5816.00    1.80599   1.81540    0.000
 5817.00    1.79748   1.81799    0.000
 5818.00    1.80000   1.82061    0.000
 5819.00    1.81661   1.82409    0.000
 5820.00    1.83969   1.82660    0.000
 5821.00    1.83854   1.82886    0.000
 5822.00    1.82785   1.83055    0.000
 5823.00    1.82664   1.83218    0.000
 5824.00    1.82862   1.83395    0.000
 5825.00    1.81187   1.83502    0.000
 5826.00    1.78982   1.83555    0.000
 5827.00    1.80567   1.83506    0.000
 5828.00    1.83035   1.83455    0.000
 5829.00    1.82976   1.83467    0.000
 5830.00    1.82446   1.83439    0.000
 5831.00    1.78932   1.83316    0.000
 5832.00    1.74988   1.83184    0.000
 5833.00    1.73846   1.83116    0.000
 5834.00    1.72997   1.83065    0.000
 5835.00    1.75651   1.82943    0.000
 5836.00    1.78542   1.82739    0.000
 5837.00    1.78794   1.82605    0.000
 5838.00    1.78959   1.82488    0.000
 5839.00    1.78789   1.82222    0.000
 5840.00    1.78657   1.81812    0.000
 5841.00    1.79720   1.81398    0.000
 5842.00    1.80704   1.81034    0.000
 5843.00    1.80489   1.80572    0.000
 5844.00    1.80121   1.79945    0.000
 5845.00    1.78270   1.79139    0.000
 5846.00    1.76414   1.78341    0.000
 5847.00    1.74530   1.77700    0.000
 5848.00    1.73142   1.76994    0.000
 5849.00    1.74437   1.76224    0.000
 5850.00    1.75662   1.75318    0.000
 5851.00    1.76585   1.74531    0.000
 5852.00    1.78024   1.74106    0.000
 5853.00    1.81303   1.73604    0.000
 5854.00    1.83278   1.73117    0.000
 5855.00    1.81345   1.72704    0.000
 5856.00    1.78129   1.72526    0.000
 5857.00    1.71641   1.72712    0.000
 5858.00    1.67130   1.72689    0.000
 5859.00    1.66964   1.72642    0.000
 5860.00    1.68120   1.72890    0.000
 5861.00    1.71795   1.73325    0.000
 5862.00    1.73322   1.73861    0.000
 5863.00    1.71278   1.74124    0.000
 5864.00    1.71327   1.74324    0.000
 5865.00    1.74424   1.74768    0.000
 5866.00    1.77483   1.75174    0.000
 5867.00    1.80494   1.75471    0.000
 5868.00    1.82247   1.75554    0.000
 5869.00    1.82582   1.75505    0.000
 5870.00    1.81444   1.75528    0.000
 5871.00    1.78839   1.75374    0.000
 5872.00    1.77674   1.74941    0.000
 5873.00    1.77775   1.74273    0.000
 5874.00    1.77047   1.73480    0.000
 5875.00    1.75678   1.72707    0.000
 5876.00    1.73923   1.71607    0.000
 5877.00    1.71906   1.70023    0.000
 5878.00    1.67728   1.68318    0.000
 5879.00    1.62263   1.66615    0.000
 5880.00    1.60818   1.64748    0.000
 5881.00    1.61464   1.62585    0.000
 5882.00    1.61861   1.59957    0.000
 5883.00    1.62146   1.57172    0.000
 5884.00    1.60002   1.55125    0.000
 5885.00    1.56917   1.53063    0.000
 5886.00    1.53306   1.50677    0.000
 5887.00    1.49520   1.48887    0.000
 5888.00    1.47865   1.46922    0.000
 5889.00    1.46799   1.45441    0.000
 5890.00    1.47865   1.45058    0.000
 5891.00    1.49415   1.44536    0.000
 5892.00    1.49692   1.44802    0.000
 5893.00    1.49736   1.45688    0.000
 5894.00    1.50913   1.46461    0.000
 5895.00    1.52248   1.48087    0.000
 5896.00    1.55943   1.49672    0.000
 5897.00    1.59876   1.51378    0.000
 5898.00    1.61927   1.53992    0.000
 5899.00    1.63858   1.56334    0.000
 5900.00    1.62715   1.58491    0.000
 5901.00    1.61490   1.60534    0.013
 5902.00    1.63194   1.62199    0.013
 5903.00    1.64929   1.64100    0.013
 5904.00    1.67558   1.65909    0.013
 5905.00    1.70038   1.67278    0.013
 5906.00    1.70400   1.68310    0.013
 5907.00    1.70769   1.69087    0.013
 5908.00    1.71212   1.69893    0.013
 5909.00    1.71682   1.70468    0.013
 5910.00    1.72343   1.70952    0.013
 5911.00    1.72850   1.71310    0.013
 5912.00    1.72548   1.71382    0.013
 5913.00    1.72011   1.71796    0.013
 5914.00    1.70481   1.72019    0.013
 5915.00    1.69278   1.71941    0.013
 5916.00    1.69224   1.72258    0.013
 5917.00    1.68848   1.72413    0.013
 5918.00    1.67528   1.72596    0.013
 5919.00    1.66157   1.72923    0.013
 5920.00    1.64657   1.72838    0.014
 5921.00    1.65133   1.73081    0.014
 5922.00    1.69875   1.73293    0.014
 5923.00    1.73485   1.73121    0.014
 5924.00    1.74972   1.73442    0.014
 5925.00    1.75570   1.73604    0.013
 5926.00    1.74710   1.73562    0.013
 5927.00    1.72874   1.73645    0.013
 5928.00    1.69636   1.73417    0.013
 5929.00    1.68800   1.73630    0.013
 5930.00    1.70995   1.73820    0.013
 5931.00    1.73839   1.73585    0.013
 5932.00    1.77404   1.73808    0.013
 5933.00    1.78679   1.73874    0.013
 5934.00    1.77708   1.73817    0.013
 5935.00    1.76200   1.73933    0.013
 5936.00    1.74228   1.73817    0.013
 5937.00    1.72529   1.74016    0.013
 5938.00    1.71039   1.74202    0.013
 5939.00    1.68530   1.74071    0.013
 5940.00    1.65339   1.74163    0.013
 5941.00    1.64788   1.74087    0.013
 5942.00    1.65789   1.73889    0.013
 5943.00    1.69637   1.73986    0.013
 5944.00    1.74944   1.74044    0.013
 5945.00    1.76090   1.73918    0.013
 5946.00    1.75391   1.73707    0.013
 5947.00    1.71652   1.73617    0.013
 5948.00    1.66755   1.73710    0.013
 5949.00    1.64822   1.73678    0.013
 5950.00    1.63848   1.73478    0.013
 5951.00    1.64555   1.73468    0.013
 5952.00    1.65717   1.73794    0.013
 5953.00    1.66861   1.73973    0.013
 5954.00    1.68001   1.73956    0.013
 5955.00    1.69344   1.74182    0.013
 5956.00    1.70724   1.74544    0.013
 5957.00    1.70913   1.74968    0.013
 5958.00    1.70940   1.75223    0.013
 5959.00    1.70787   1.75395    0.013
 5960.00    1.70616   1.75946    0.013
 5961.00    1.70566   1.76352    0.013
 5962.00    1.70523   1.76590    0.013
 5963.00    1.69859   1.76871    0.013
 5964.00    1.69187   1.77012    0.013
 5965.00    1.69766   1.77296    0.013
 5966.00    1.70421   1.77417    0.013
 5967.00    1.72993   1.77336    0.012
 5968.00    1.75493   1.77371    0.012
 5969.00    1.77035   1.77180    0.012
 5970.00    1.78328   1.76993    0.013
 5971.00    1.77405   1.76793    0.013
 5972.00    1.76206   1.76421    0.013
 5973.00    1.73187   1.76177    0.013
 5974.00    1.70518   1.75777    0.013
 5975.00    1.69642   1.75421    0.013
 5976.00    1.68871   1.75107    0.013
 5977.00    1.68535   1.74529    0.013
 5978.00    1.67912   1.74347    0.013
 5979.00    1.66305   1.74255    0.013
 5980.00    1.65911   1.73957    0.013
 5981.00    1.69016   1.73877    0.013
 5982.00    1.70969   1.73678    0.013
 5983.00    1.70081   1.73736    0.013
 5984.00    1.69753   1.73891    0.013
 5985.00    1.70615   1.73700    0.013
 5986.00    1.72166   1.73953    0.013
 5987.00    1.74988   1.74249    0.013
 5988.00    1.76806   1.74305    0.013
 5989.00    1.77005   1.74441    0.013
 5990.00    1.77455   1.74355    0.013
 5991.00    1.78261   1.74532    0.013
 5992.00    1.79177   1.74673    0.013
 5993.00    1.80231   1.74415    0.013
 5994.00    1.80735   1.74524    0.013
 5995.00    1.80634   1.74408    0.013
 5996.00    1.78878   1.74066    0.013
 5997.00    1.75519   1.74034    0.012
 5998.00    1.73270   1.73619    0.012
 5999.00    1.71968   1.73407    0.012
 6000.00    1.71385   1.73325    0.012
 6001.00    1.71342   1.72696    0.012
 6002.00    1.72251   1.72629    0.012
 6003.00    1.73790   1.72528    0.013
 6004.00    1.73065   1.72024    0.013
 6005.00    1.71032   1.72001    0.013
 6006.00    1.69558   1.71601    0.013
 6007.00    1.68366   1.71389    0.013
 6008.00    1.68652   1.71629    0.013
 6009.00    1.69581   1.71148    0.013
 6010.00    1.69070   1.71019    0.013
 6011.00    1.68019   1.71223    0.013
 6012.00    1.65862   1.71040    0.013
 6013.00    1.63355   1.71139    0.013
 6014.00    1.60612   1.71019    0.013
 6015.00    1.57806   1.71032    0.013
 6016.00    1.60785   1.71579    0.013
 6017.00    1.65018   1.71588    0.013
 6018.00    1.68124   1.71751    0.013
 6019.00    1.71037   1.72311    0.013
 6020.00    1.69858   1.72602    0.013
 6021.00    1.68144   1.73136    0.013
 6022.00    1.65114   1.73633    0.013
 6023.00    1.61962   1.74169    0.013
 6024.00    1.63435   1.74942    0.013
 6025.00    1.65167   1.75402    0.013
 6026.00    1.70360   1.76050    0.013
 6027.00    1.75570   1.76794    0.012
 6028.00    1.74934   1.77264    0.012
 6029.00    1.74216   1.77832    0.012
 6030.00    1.71591   1.78367    0.013
 6031.00    1.69324   1.78884    0.013
 6032.00    1.71624   1.79273    0.013
 6033.00    1.73872   1.79560    0.013
 6034.00    1.75668   1.79987    0.013
 6035.00    1.77125   1.80232    0.013
 6036.00    1.76421   1.80475    0.013
 6037.00    1.76000   1.80724    0.013
 6038.00    1.76991   1.80815    0.013
 6039.00    1.77571   1.81051    0.013
 6040.00    1.76489   1.81162    0.013
 6041.00    1.75267   1.81198    0.013
 6042.00    1.73571   1.81355    0.013
 6043.00    1.72593   1.81328    0.013
 6044.00    1.73647   1.81347    0.013
 6045.00    1.75336   1.81401    0.013
 6046.00    1.78564   1.81198    0.013
 6047.00    1.81221   1.81042    0.013
 6048.00    1.82686   1.80965    0.013
 6049.00    1.83199   1.80736    0.013
 6050.00    1.81982   1.80460    0.013
 6051.00    1.79395   1.80205    0.013
 6052.00    1.74629   1.79963    0.013
 6053.00    1.71173   1.79736    0.013
 6054.00    1.69542   1.79433    0.013
 6055.00    1.70366   1.79078    0.013
 6056.00    1.74203   1.78942    0.013
 6057.00    1.76204   1.78913    0.013
 6058.00    1.76220   1.78660    0.013
 6059.00    1.75425   1.78631    0.013
 6060.00    1.73857   1.78783    0.013
 6061.00    1.72796   1.78798    0.013
 6062.00    1.72163   1.79023    0.012
 6063.00    1.72760   1.79065    0.013
 6064.00    1.74270   1.79203    0.013
 6065.00    1.76461   1.79746    0.013
 6066.00    1.79096   1.79808    0.013
 6067.00    1.79541   1.79956    0.013
 6068.00    1.78739   1.80317    0.013
 6069.00    1.78361   1.80301    0.013
 6070.00    1.78192   1.80469    0.013
 6071.00    1.78335   1.80340    0.013
 6072.00    1.78612   1.79992    0.013
 6073.00    1.78955   1.80061    0.013
 6074.00    1.79323   1.79699    0.013
 6075.00    1.77221   1.79170    0.013
 6076.00    1.74349   1.78862    0.013
 6077.00    1.71074   1.78308    0.013
 6078.00    1.67694   1.77976    0.013
 6079.00    1.68663   1.77519    0.013
 6080.00    1.70552   1.76751    0.013
 6081.00    1.72000   1.76607    0.013
 6082.00    1.73374   1.76412    0.013
 6083.00    1.71264   1.75755    0.013
 6084.00    1.68715   1.75560    0.013
 6085.00    1.67992   1.75528    0.013
 6086.00    1.67429   1.75321    0.012
 6087.00    1.68176   1.75191    0.012
 6088.00    1.68991   1.75019    0.012
 6089.00    1.68599   1.75028    0.012
 6090.00    1.68214   1.75145    0.012
 6091.00    1.69877   1.74969    0.012
 6092.00    1.71643   1.74770    0.012
 6093.00    1.75588   1.74880    0.012
 6094.00    1.79253   1.74989    0.012
 6095.00    1.79528   1.74717    0.012
 6096.00    1.79737   1.74665    0.013
 6097.00    1.79401   1.74810    0.013
 6098.00    1.79019   1.74615    0.013
 6099.00    1.78352   1.74754    0.013
 6100.00    1.77315   1.74728    0.013
 6101.00    1.74476   1.74424    0.013
 6102.00    1.72141   1.74964    0.013
 6103.00    1.71803   1.75048    0.013
 6104.00    1.71991   1.74813    0.013
 6105.00    1.73910   1.75401    0.013
 6106.00    1.74776   1.75452    0.013
 6107.00    1.72713   1.75555    0.013
 6108.00    1.71489   1.76028    0.013
 6109.00    1.72259   1.75659    0.013
 6110.00    1.73696   1.75791    0.013
 6111.00    1.76504   1.76132    0.013
 6112.00    1.78066   1.75530    0.012
 6113.00    1.77398   1.75530    0.012
 6114.00    1.75844   1.75564    0.012
 6115.00    1.72905   1.74960    0.012
 6116.00    1.69900   1.74953    0.012
 6117.00    1.66802   1.74570    0.012
 6118.00    1.65177   1.73957    0.012
 6119.00    1.65333   1.74038    0.012
 6120.00    1.66517   1.73521    0.012
 6121.00    1.68799   1.73128    0.012
 6122.00    1.69687   1.73333    0.012
 6123.00    1.69264   1.72849    0.012
 6124.00    1.68889   1.72591    0.013
 6125.00    1.68555   1.72757    0.013
 6126.00    1.69562   1.72342    0.013
 6127.00    1.71548   1.71950    0.013
 6128.00    1.72050   1.71930    0.013
 6129.00    1.71600   1.71774    0.013
 6130.00    1.71076   1.71522    0.013
 6131.00    1.70511   1.71315    0.013
 6132.00    1.71422   1.71055    0.013
 6133.00    1.73054   1.71073    0.013
 6134.00    1.72681   1.71070    0.013
 6135.00    1.71461   1.70679    0.013
 6136.00    1.68715   1.70835    0.013
 6137.00    1.65419   1.71249    0.013
 6138.00    1.63744   1.71221    0.014
 6139.00    1.62564   1.71419    0.016
 6140.00    1.63353   1.71821    0.017
 6141.00    1.64642   1.72230    0.016
 6142.00    1.64317   1.72530    0.016
 6143.00    1.63660   1.72574    0.016
 6144.00    1.67485   1.72762    0.015
 6145.00    1.72039   1.72920    0.013
 6146.00    1.77333   1.72819    0.013
 6147.00    1.82718   1.72579    0.012
 6148.00    1.82225   1.72252    0.012
 6149.00    1.81240   1.71956    0.012
 6150.00    1.76039   1.71354    0.012
 6151.00    1.70637   1.70465    0.012
 6152.00    1.68018   1.69611    0.012
 6153.00    1.65464   1.68695    0.012
 6154.00    1.64388   1.67908    0.013
 6155.00    1.63397   1.66939    0.013
 6156.00    1.64099   1.65614    0.013
 6157.00    1.64752   1.64865    0.013
 6158.00    1.64847   1.64219    0.013
 6159.00    1.64895   1.62909    0.013
 6160.00    1.64561   1.62106    0.013
 6161.00    1.64479   1.61913    0.013
 6162.00    1.65921   1.61477    0.013
 6163.00    1.67068   1.61125    0.013
 6164.00    1.66819   1.61007    0.013
 6165.00    1.66343   1.61290    0.013
 6166.00    1.64984   1.61808    0.013
 6167.00    1.64561   1.61789    0.012
 6168.00    1.67154   1.62179    0.012
 6169.00    1.70406   1.63260    0.012
 6170.00    1.75459   1.63647    0.012
 6171.00    1.78587   1.63973    0.012
 6172.00    1.77205   1.64958    0.012
 6173.00    1.74610   1.65708    0.012
 6174.00    1.69557   1.66213    0.012
 6175.00    1.65827   1.66645    0.012
 6176.00    1.64427   1.67110    0.012
 6177.00    1.63610   1.67672    0.012
 6178.00    1.63690   1.67603    0.012
 6179.00    1.63423   1.67660    0.012
 6180.00    1.62685   1.68168    0.012
 6181.00    1.62385   1.67764    0.012
 6182.00    1.62606   1.67484    0.012
 6183.00    1.62780   1.67754    0.012
 6184.00    1.62905   1.67268    0.013
 6185.00    1.64185   1.67001    0.013
 6186.00    1.66537   1.66896    0.013
 6187.00    1.68336   1.66524    0.013
 6188.00    1.69684   1.66703    0.013
 6189.00    1.69030   1.66338    0.013
 6190.00    1.66935   1.66042    0.013
 6191.00    1.65319   1.66747    0.013
 6192.00    1.64006   1.66651    0.013
 6193.00    1.61393   1.66571    0.013
 6194.00    1.58063   1.67235    0.013
 6195.00    1.56809   1.67410    0.013
 6196.00    1.56553   1.67711   -2.000
 6197.00    1.64422   1.67998   -2.000
 6198.00    1.75660   1.68064   -2.000
 6199.00    1.89274   1.68583   -2.000
 6200.00    2.03731   1.68629   -2.000
 6201.00    2.00090   1.68453   -2.000
 6202.00    1.91035   1.68728   -2.000
 6203.00    1.78316   1.68524   -2.000
 6204.00    1.64687   1.68230   -2.000
 6205.00    1.61111   1.68010   -2.000
 6206.00    1.59560   1.67369   -2.000
 6207.00    1.64017   1.67020   -2.000
 6208.00    1.69422   1.66469    0.013
 6209.00    1.68733   1.65546    0.013
 6210.00    1.67330   1.65141    0.013
 6211.00    1.63644   1.64388    0.013
 6212.00    1.59776   1.63544    0.013
 6213.00    1.57441   1.63243    0.012
 6214.00    1.55173   1.62428    0.012
 6215.00    1.57947   1.61905    0.012
 6216.00    1.60800   1.61825    0.012
 6217.00    1.64761   1.61120    0.012
 6218.00    1.68539   1.60909    0.012
 6219.00    1.68981   1.60943    0.012
 6220.00    1.69197   1.60454    0.012
 6221.00    1.66935   1.60476    0.012
 6222.00    1.64811   1.60431    0.012
 6223.00    1.63743   1.60180    0.012
 6224.00    1.62926   1.60432    0.012
 6225.00    1.63573   1.60268    0.012
 6226.00    1.64258   1.60134    0.012
 6227.00    1.65115   1.60415    0.012
 6228.00    1.65402   1.60138    0.012
 6229.00    1.63527   1.60052    0.012
 6230.00    1.61183   1.60253    0.012
 6231.00    1.57358   1.60051    0.012
 6232.00    1.54636   1.60067    0.012
 6233.00    1.54876   1.60092    0.012
 6234.00    1.55838   1.60001    0.012
 6235.00    1.58462   1.59986    0.012
 6236.00    1.60039   1.59812    0.012
 6237.00    1.59529   1.59807    0.012
 6238.00    1.59276   1.59540    0.012
 6239.00    1.59471   1.59288    0.012
 6240.00    1.59901   1.59434    0.012
 6241.00    1.60689   1.58906    0.012
 6242.00    1.60876   1.58674    0.012
 6243.00    1.60264   1.58947    0.012
 6244.00    1.59446   1.58316    0.012
 6245.00    1.58388   1.58077    0.012
 6246.00    1.59035   1.58299    0.012
 6247.00    1.61449   1.57786    0.012
 6248.00    1.62906   1.57550    0.012
 6249.00    1.63488   1.57604    0.012
 6250.00    1.62507   1.57306    0.012
 6251.00    1.60267   1.57166    0.012
 6252.00    1.59666   1.57159    0.012
 6253.00    1.60227   1.57127    0.012
 6254.00    1.61769   1.57233    0.012
 6255.00    1.63922   1.57429    0.012
 6256.00    1.62620   1.57609    0.012
 6257.00    1.59441   1.57958    0.012
 6258.00    1.60485   1.58592    0.012
 6259.00    1.63524   1.58964    0.013
 6260.00    1.69669   1.59388    0.014
 6261.00    1.77079   1.60285    0.015
 6262.00    1.80875   1.60885    0.015
 6263.00    1.83412   1.61248    0.016
 6264.00    1.80592   1.61962    0.015
 6265.00    1.76201   1.62705    0.015
 6266.00    1.68983   1.63077    0.014
 6267.00    1.61079   1.63415    0.014
 6268.00    1.58553   1.64053    0.013
 6269.00    1.57083   1.64438    0.012
 6270.00    1.57713   1.64609    0.012
 6271.00    1.58665   1.65088    0.012
 6272.00    1.60185   1.65273    0.012
 6273.00    1.61770   1.65426    0.012
 6274.00    1.64554   1.65859    0.012
 6275.00    1.67429   1.65842    0.012
 6276.00    1.69434   1.66064    0.012
 6277.00    1.71405   1.66462    0.012
 6278.00    1.68755   1.66325    0.012
 6279.00    1.66113   1.66639    0.012
 6280.00    1.65156   1.66938    0.000
 6281.00    1.64523   1.66864    0.000
 6282.00    1.69440   1.67268    0.000
 6283.00    1.74215   1.67304    0.000
 6284.00    1.77489   1.67259    0.000
 6285.00    1.79828   1.67588    0.000
 6286.00    1.75188   1.67409    0.000
 6287.00    1.70829   1.67386    0.000
 6288.00    1.68071   1.67378    0.000
 6289.00    1.66136   1.66986    0.000
 6290.00    1.67925   1.66982    0.000
 6291.00    1.69281   1.66711    0.000
 6292.00    1.69030   1.66266    0.000
 6293.00    1.68650   1.66251    0.000
 6294.00    1.67868   1.65895    0.000
 6295.00    1.67831   1.65551    0.000
 6296.00    1.69759   1.65540    0.000
 6297.00    1.71179   1.65328    0.000
 6298.00    1.71449   1.65196    0.000
 6299.00    1.71510   1.65152    0.000
 6300.00    1.71160   1.65104    0.000
 6301.00    1.71436   1.65215    0.000
 6302.00    1.72784   1.65240    0.000
 6303.00    1.73524   1.65242    0.000
 6304.00    1.73352   1.65330    0.000
 6305.00    1.71471   1.65399    0.000
 6306.00    1.67341   1.65449    0.000
 6307.00    1.63434   1.65386    0.000
 6308.00    1.59784   1.65383    0.000
 6309.00    1.58189   1.65377    0.000
 6310.00    1.58694   1.65122    0.000
 6311.00    1.59781   1.65162    0.000
 6312.00    1.61394   1.65235    0.000
 6313.00    1.61694   1.64836    0.000
 6314.00    1.60949   1.64950    0.000
 6315.00    1.59116   1.65301    0.000
 6316.00    1.56520   1.65017    0.000
 6317.00    1.57713   1.65141    0.000
 6318.00    1.61228   1.65730    0.000
 6319.00    1.64315   1.65807    0.000
 6320.00    1.67175   1.65936    0.000
 6321.00    1.68027   1.66533    0.012
 6322.00    1.67946   1.66828    0.012
 6323.00    1.68827   1.66945    0.012
 6324.00    1.70093   1.67434    0.012
 6325.00    1.69778   1.67610    0.012
 6326.00    1.68922   1.67672    0.012
 6327.00    1.67049   1.68055    0.012
 6328.00    1.64883   1.67918    0.012
 6329.00    1.64990   1.67868    0.012
 6330.00    1.65635   1.68083    0.012
 6331.00    1.67078   1.67734    0.012
 6332.00    1.68674   1.67714    0.012
 6333.00    1.69121   1.67726    0.012
 6334.00    1.69397   1.67228    0.012
 6335.00    1.70894   1.67364    0.012
 6336.00    1.72525   1.67394    0.012
 6337.00    1.73674   1.66914    0.012
 6338.00    1.74789   1.67127    0.012
 6339.00    1.75735   1.67222    0.012
 6340.00    1.76674   1.66989    0.012
 6341.00    1.73675   1.67182    0.012
 6342.00    1.70666   1.67073    0.012
 6343.00    1.67817   1.67066    0.012
 6344.00    1.65246   1.67288    0.012
 6345.00    1.67120   1.66949    0.012
 6346.00    1.69006   1.66908    0.012
 6347.00    1.71015   1.67005    0.012
 6348.00    1.72978   1.66538    0.012
 6349.00    1.74614   1.66309    0.012
 6350.00    1.75896   1.66102    0.012
 6351.00    1.75215   1.65612    0.012
 6352.00    1.74161   1.65277    0.012
 6353.00    1.71460   1.64751    0.012
 6354.00    1.68594   1.64318    0.012
 6355.00    1.65124   1.64172    0.012
 6356.00    1.62537   1.63620    0.012
 6357.00    1.62639   1.63284    0.012
 6358.00    1.62633   1.63476    0.012
 6359.00    1.62342   1.63321    0.012
 6360.00    1.61910   1.63265    0.012
 6361.00    1.61164   1.63720    0.012
 6362.00    1.61066   1.64037    0.012
 6363.00    1.62220   1.64457    0.012
 6364.00    1.64457   1.65110    0.012
 6365.00    1.68517   1.65652    0.012
 6366.00    1.71690   1.66411    0.013
 6367.00    1.73554   1.67163    0.013
 6368.00    1.73006   1.67674    0.013
 6369.00    1.69328   1.68418    0.013
 6370.00    1.67593   1.69088    0.012
 6371.00    1.68079   1.69513    0.012
 6372.00    1.69666   1.70050    0.012
 6373.00    1.72364   1.70406    0.012
 6374.00    1.73060   1.70686    0.012
 6375.00    1.71975   1.71079    0.012
 6376.00    1.71172   1.71091    0.012
 6377.00    1.70590   1.71125    0.012
 6378.00    1.71095   1.71417    0.012
 6379.00    1.72351   1.71268    0.012
 6380.00    1.72832   1.71138    0.012
 6381.00    1.72846   1.71328    0.012
 6382.00    1.73640   1.71122    0.012
 6383.00    1.74847   1.70861    0.012
 6384.00    1.74122   1.70910    0.012
 6385.00    1.72514   1.70736    0.012
 6386.00    1.71586   1.70431    0.012
 6387.00    1.70927   1.70362    0.012
 6388.00    1.71931   1.70183    0.012
 6389.00    1.73493   1.69890    0.012
 6390.00    1.72310   1.69855    0.012
 6391.00    1.70354   1.69602    0.012
 6392.00    1.69631   1.69236    0.012
 6393.00    1.69193   1.69472    0.012
 6394.00    1.69244   1.69384    0.013
 6395.00    1.69385   1.68868    0.013
 6396.00    1.67475   1.69300    0.013
 6397.00    1.65269   1.69451    0.013
 6398.00    1.65158   1.68779    0.012
 6399.00    1.65265   1.69254    0.012
 6400.00    1.67200   1.69596    0.012
 6401.00    1.69257   1.69037    0.012
 6402.00    1.70374   1.69423    0.012
 6403.00    1.71459   1.69597    0.012
 6404.00    1.69931   1.69319    0.012
 6405.00    1.68424   1.69660    0.012
 6406.00    1.67583   1.69397    0.012
 6407.00    1.66856   1.69334    0.012
 6408.00    1.67819   1.69819    0.012
 6409.00    1.68674   1.69289    0.012
 6410.00    1.68484   1.69225    0.012
 6411.00    1.68349   1.69800    0.012
 6412.00    1.68602   1.69359    0.012
 6413.00    1.68848   1.69274    0.012
 6414.00    1.69048   1.69753    0.012
 6415.00    1.69031   1.69557    0.012
 6416.00    1.68080   1.69542    0.012
 6417.00    1.67596   1.69860    0.012
 6418.00    1.68773   1.69893    0.012
 6419.00    1.69866   1.69919    0.012
 6420.00    1.70708   1.70067    0.012
 6421.00    1.71985   1.70357    0.012
 6422.00    1.74367   1.70431    0.012
 6423.00    1.76767   1.70362    0.012
 6424.00    1.79206   1.70744    0.012
 6425.00    1.80654   1.70848    0.012
 6426.00    1.80217   1.70670    0.012
 6427.00    1.78811   1.71030    0.012
 6428.00    1.75797   1.71044    0.012
 6429.00    1.72510   1.70847    0.012
 6430.00    1.68827   1.71215    0.012
 6431.00    1.67308   1.71200    0.012
 6432.00    1.68556   1.71159    0.012
 6433.00    1.69314   1.71462    0.012
 6434.00    1.69521   1.71364    0.012
 6435.00    1.70488   1.71578    0.012
 6436.00    1.72211   1.71760    0.012
 6437.00    1.75055   1.71455    0.012
 6438.00    1.78881   1.71786    0.012
 6439.00    1.80623   1.71933    0.012
 6440.00    1.80755   1.71594    0.012
 6441.00    1.79998   1.71772    0.012
 6442.00    1.78639   1.71715    0.012
 6443.00    1.76744   1.71511    0.012
 6444.00    1.74531   1.71487    0.012
 6445.00    1.73370   1.71175    0.012
 6446.00    1.72754   1.71204    0.012
 6447.00    1.71648   1.71043    0.012
 6448.00    1.70321   1.70529    0.012
 6449.00    1.69664   1.70830    0.012
 6450.00    1.69266   1.70809    0.012
 6451.00    1.67768   1.70355    0.012
 6452.00    1.65908   1.70754    0.012
 6453.00    1.64835   1.70888    0.012
 6454.00    1.63979   1.70577    0.012
 6455.00    1.65779   1.70930    0.012
 6456.00    1.68182   1.71256    0.012
 6457.00    1.68644   1.71066    0.012
 6458.00    1.68754   1.71247    0.012
 6459.00    1.66200   1.71738    0.012
 6460.00    1.63275   1.71601    0.012
 6461.00    1.65684   1.71504    0.012
 6462.00    1.68625   1.72094    0.012
 6463.00    1.70657   1.72111    0.012
 6464.00    1.72632   1.71844    0.012
 6465.00    1.69350   1.72347    0.012
 6466.00    1.65930   1.72451    0.012
 6467.00    1.66674   1.72115    0.012
 6468.00    1.67588   1.72446    0.012
 6469.00    1.73236   1.72506    0.012
 6470.00    1.78783   1.72097    0.012
 6471.00    1.82908   1.72280    0.012
 6472.00    1.86565   1.72308    0.012
 6473.00    1.85889   1.71800    0.012
 6474.00    1.84780   1.71715    0.012
 6475.00    1.80744   1.71716    0.012
 6476.00    1.77095   1.71189    0.012
 6477.00    1.75475   1.70778    0.012
 6478.00    1.73872   1.70631    0.012
 6479.00    1.72342   1.70113    0.012
 6480.00    1.70702   1.69412    0.012
 6481.00    1.68674   1.68992    0.012
 6482.00    1.67287   1.68457    0.012
 6483.00    1.67780   1.67603    0.012
 6484.00    1.68800   1.66937    0.012
 6485.00    1.71139   1.66279    0.012
 6486.00    1.73099   1.65308    0.012
 6487.00    1.74243   1.64579    0.012
 6488.00    1.73411   1.63877    0.012
 6489.00    1.68883   1.62847    0.012
 6490.00    1.64941   1.62325    0.012
 6491.00    1.61955   1.61866    0.012
 6492.00    1.58296   1.61006    0.012
 6493.00    1.53671   1.60864    0.012
 6494.00    1.50151   1.60853    0.012
 6495.00    1.48026   1.60572    0.012
 6496.00    1.48440   1.60998    0.012
 6497.00    1.51673   1.61360    0.012
 6498.00    1.56147   1.61677    0.012
 6499.00    1.61837   1.62581    0.012
 6500.00    1.65687   1.63193    0.012
 6501.00    1.67947   1.63851    0.012
 6502.00    1.69294   1.64877    0.012
 6503.00    1.69947   1.65555    0.012
 6504.00    1.70875   1.66249    0.012
 6505.00    1.71989   1.67106    0.012
 6506.00    1.72260   1.67676    0.012
 6507.00    1.72038   1.68134    0.012
 6508.00    1.72379   1.68692    0.012
 6509.00    1.73009   1.69164    0.012
 6510.00    1.71390   1.69331    0.012
 6511.00    1.68775   1.69563    0.012
 6512.00    1.67968   1.69973    0.012
 6513.00    1.67849   1.69952    0.012
 6514.00    1.69035   1.69959    0.012
 6515.00    1.70643   1.70332    0.012
 6516.00    1.70364   1.70259    0.012
 6517.00    1.69575   1.70202    0.012
 6518.00    1.69358   1.70533    0.012
 6519.00    1.69267   1.70497    0.012
 6520.00    1.69894   1.70519    0.012
 6521.00    1.70648   1.70731    0.012
 6522.00    1.70946   1.70688    0.012
 6523.00    1.71183   1.70844    0.012
 6524.00    1.70716   1.70960    0.012
 6525.00    1.70181   1.70861    0.011
 6526.00    1.71934   1.71057    0.011
 6527.00    1.73823   1.71146    0.012
 6528.00    1.74291   1.71074    0.000
 6529.00    1.74717   1.71206    0.000
 6530.00    1.74319   1.71217    0.000
 6531.00    1.74035   1.71173    0.000
 6532.00    1.76634   1.71182    0.000
 6533.00    1.79092   1.71118    0.000
 6534.00    1.79652   1.71089    0.000
 6535.00    1.79814   1.70893    0.000
 6536.00    1.76426   1.70662    0.000
 6537.00    1.73477   1.70572    0.000
 6538.00    1.73408   1.70177    0.000
 6539.00    1.72968   1.69774    0.000
 6540.00    1.70630   1.69502    0.000
 6541.00    1.68910   1.68854    0.000
 6542.00    1.69741   1.68330    0.000
 6543.00    1.71304   1.67868    0.000
 6544.00    1.75370   1.66967    0.000
 6545.00    1.78859   1.66299    0.000
 6546.00    1.80688   1.65632    0.000
 6547.00    1.82262   1.64630    0.000
 6548.00    1.83209   1.63807    0.000
 6549.00    1.82431   1.62827    0.000
 6550.00    1.77993   1.61808    0.000
 6551.00    1.73797   1.60867    0.000
 6552.00    1.70045   1.59625    0.000
 6553.00    1.68015   1.58751    0.000
 6554.00    1.68758   1.57770    0.000
 6555.00    1.69335   1.56416    0.000
 6556.00    1.69676   1.56012    0.000
 6557.00    1.70569   1.55219    0.000
 6558.00    1.72146   1.53873    0.000
 6559.00    1.74090   1.54180    0.000
 6560.00    1.76435   1.53883    0.000
 6561.00    1.76508   1.52615    0.000
 6562.00    1.74384   1.53610    0.000
 6563.00    1.71409   1.54242    0.000
 6564.00    1.67707   1.53459    0.000
 6565.00    1.66071   1.54690    0.000
 6566.00    1.65983   1.55878    0.000
 6567.00    1.66175   1.55635    0.000
 6568.00    1.66551   1.56850    0.000
 6569.00    1.67426   1.58214    0.000
 6570.00    1.68589   1.58360    0.000
 6571.00    1.69137   1.59445    0.000
 6572.00    1.69376   1.60665    0.000
 6573.00    1.69318   1.60942    0.000
 6574.00    1.69132   1.61899    0.000
 6575.00    1.71397   1.62860    0.000
 6576.00    1.74577   1.63086    0.000
 6577.00    1.79368   1.63867    0.000
 6578.00    1.84670   1.64487    0.000
 6579.00    1.88176   1.64545    0.000
 6580.00    1.91207   1.65152    0.000
 6581.00    1.93864   1.65471    0.000
 6582.00    1.96439   1.65363    0.000
 6583.00    1.95014   1.65800    0.000
 6584.00    1.92904   1.65837    0.000
 6585.00    1.87300   1.65555    0.000
 6586.00    1.81241   1.65886    0.000
 6587.00    1.77906   1.65801    0.000
 6588.00    1.74819   1.65368    0.000
 6589.00    1.75104   1.65624    0.000
 6590.00    1.75575   1.65585    0.000
 6591.00    1.73033   1.65066    0.000
 6592.00    1.70438   1.65269    0.000
 6593.00    1.68907   1.65434    0.000
 6594.00    1.67474   1.65046    0.000
 6595.00    1.68301   1.65207    0.000
 6596.00    1.69307   1.65441    0.000
 6597.00    1.72589   1.65194    0.000
 6598.00    1.75645   1.65354    0.000
 6599.00    1.76759   1.65628    0.000
 6600.00    1.77630   1.65511    0.000
 6601.00    1.76951   1.65620    0.000
 6602.00    1.75233   1.65864    0.000
 6603.00    1.68340   1.65866    0.000
 6604.00    1.62191   1.65950    0.000
 6605.00    1.59044   1.66172    0.000
 6606.00    1.57525   1.66299    0.000
 6607.00    1.61462   1.66394    0.000
 6608.00    1.65767   1.66586    0.000
 6609.00    1.71112   1.66811    0.014
 6610.00    1.75039   1.67007    0.014
 6611.00    1.75542   1.67134    0.014
 6612.00    1.75364   1.67275    0.014
 6613.00    1.73763   1.67491    0.014
 6614.00    1.72838   1.67564    0.013
 6615.00    1.73137   1.67596    0.012
 6616.00    1.72496   1.67657    0.012
 6617.00    1.70363   1.67571    0.012
 6618.00    1.67767   1.67538    0.012
 6619.00    1.64527   1.67404    0.012
 6620.00    1.62224   1.67095    0.012
 6621.00    1.61066   1.67029    0.012
 6622.00    1.61868   1.66727    0.012
 6623.00    1.64785   1.66218    0.012
 6624.00    1.67105   1.66194    0.012
 6625.00    1.68856   1.65870    0.012
 6626.00    1.68643   1.65294    0.012
 6627.00    1.66781   1.65317    0.012
 6628.00    1.67133   1.65039    0.012
 6629.00    1.69121   1.64507    0.012
 6630.00    1.69164   1.64631    0.012
 6631.00    1.67943   1.64480    0.012
 6632.00    1.65284   1.64010    0.012
 6633.00    1.61808   1.64235    0.012
 6634.00    1.62447   1.64292    0.012
 6635.00    1.65123   1.63915    0.012
 6636.00    1.67893   1.64156    0.012
 6637.00    1.70704   1.64354    0.012
 6638.00    1.69690   1.64034    0.012
 6639.00    1.67273   1.64235    0.012
 6640.00    1.67351   1.64541    0.012
 6641.00    1.68204   1.64302    0.012
 6642.00    1.69957   1.64361    0.012
 6643.00    1.71944   1.64640    0.012
 6644.00    1.71916   1.64562    0.012
 6645.00    1.71462   1.64530    0.012
 6646.00    1.72062   1.64608    0.012
 6647.00    1.72837   1.64621    0.012
 6648.00    1.71355   1.64571    0.012
 6649.00    1.69590   1.64421    0.012
 6650.00    1.68128   1.64434    0.012
 6651.00    1.66693   1.64382    0.012
 6652.00    1.67347   1.64025    0.012
 6653.00    1.68109   1.64007    0.012
 6654.00    1.67338   1.63986    0.012
 6655.00    1.66579   1.63470    0.012
 6656.00    1.68599   1.63405    0.012
 6657.00    1.70461   1.63469    0.012
 6658.00    1.69027   1.62902    0.012
 6659.00    1.67483   1.62812    0.012
 6660.00    1.64628   1.62987    0.012
 6661.00    1.62020   1.62473    0.012
 6662.00    1.61468   1.62414    0.012
 6663.00    1.60947   1.62683    0.012
 6664.00    1.60617   1.62303    0.012
 6665.00    1.60335   1.62329    0.012
 6666.00    1.60285   1.62592    0.012
 6667.00    1.60590   1.62282    0.012
 6668.00    1.62294   1.62422    0.012
 6669.00    1.64081   1.62659    0.012
 6670.00    1.66134   1.62309    0.012
 6671.00    1.67338   1.62513    0.012
 6672.00    1.66184   1.62740    0.012
 6673.00    1.64923   1.62310    0.012
 6674.00    1.63404   1.62553    0.012
 6675.00    1.62545   1.62829    0.012
 6676.00    1.63038   1.62339    0.012
 6677.00    1.63996   1.62565    0.012
 6678.00    1.65784   1.62954    0.012
 6679.00    1.66876   1.62555    0.012
 6680.00    1.66881   1.62711    0.012
 6681.00    1.66085   1.63099    0.012
 6682.00    1.64191   1.62825    0.012
 6683.00    1.62789   1.62925    0.012
 6684.00    1.61983   1.63233    0.012
 6685.00    1.63120   1.63019    0.012
 6686.00    1.66327   1.63065    0.012
 6687.00    1.67972   1.63241    0.012
 6688.00    1.68150   1.63007    0.012
 6689.00    1.66229   1.63031    0.012
 6690.00    1.62572   1.63071    0.012
 6691.00    1.59673   1.62766    0.012
 6692.00    1.57326   1.62803    0.012
 6693.00    1.56524   1.62750    0.012
 6694.00    1.56709   1.62395    0.012
 6695.00    1.57696   1.62468    0.012
 6696.00    1.59132   1.62350    0.000
 6697.00    1.60452   1.62004    0.000
 6698.00    1.61716   1.62118    0.000
 6699.00    1.63066   1.61919    0.000
 6700.00    1.64450   1.61587    0.000
 6701.00    1.65249   1.61712    0.000
 6702.00    1.65838   1.61417    0.000
 6703.00    1.65265   1.61077    0.000
 6704.00    1.64338   1.61180    0.000
 6705.00    1.62655   1.60814    0.000
 6706.00    1.60782   1.60444    0.000
 6707.00    1.61884   1.60490    0.000
 6708.00    1.63599   1.60119    0.000
 6709.00    1.66140   1.59745    0.000
 6710.00    1.68814   1.59749    0.000
 6711.00    1.70096   1.59483    0.000
 6712.00    1.71208   1.59175    0.000
 6713.00    1.74105   1.59184    0.000
 6714.00    1.77151   1.59110    0.000
 6715.00    1.76976   1.58946    0.000
 6716.00    1.76648   1.59028    0.000
 6717.00    1.73691   1.59137    0.000
 6718.00    1.70705   1.59129    0.000
 6719.00    1.68193   1.59322    0.000
 6720.00    1.65785   1.59544    0.000
 6721.00    1.65400   1.59610    0.000
 6722.00    1.65151   1.59874    0.000
 6723.00    1.66458   1.60133    0.000
 6724.00    1.67587   1.60193    0.000
 6725.00    1.67308   1.60433    0.000
 6726.00    1.67361   1.60636    0.000
 6727.00    1.69405   1.60637    0.000
 6728.00    1.71657   1.60774    0.000
 6729.00    1.74897   1.60854    0.000
 6730.00    1.77596   1.60780    0.000
 6731.00    1.78199   1.60798    0.000
 6732.00    1.78070   1.60731    0.000
 6733.00    1.75581   1.60596    0.000
 6734.00    1.72214   1.60521    0.000
 6735.00    1.66449   1.60326    0.000
 6736.00    1.62154   1.60173    0.000
 6737.00    1.61295   1.60089    0.000
 6738.00    1.60552   1.59813    0.000
 6739.00    1.60043   1.59642    0.000
 6740.00    1.59130   1.59657    0.000
 6741.00    1.57504   1.59400    0.000
 6742.00    1.57555   1.59196    0.000
 6743.00    1.60188   1.59375    0.000
 6744.00    1.61451   1.59242    0.000
 6745.00    1.60863   1.59005    0.000
 6746.00    1.60584   1.59373    0.000
 6747.00    1.60675   1.59428    0.000
 6748.00    1.60378   1.59176    0.000
 6749.00    1.59673   1.59694    0.000
 6750.00    1.59605   1.59930    0.000
 6751.00    1.60127   1.59687    0.000
 6752.00    1.62225   1.60267    0.000
 6753.00    1.65611   1.60605    0.013
 6754.00    1.67718   1.60370    0.013
 6755.00    1.68906   1.60911    0.014
 6756.00    1.66438   1.61242    0.014
 6757.00    1.61664   1.60995    0.014
 6758.00    1.57170   1.61427    0.014
 6759.00    1.52831   1.61673    0.014
 6760.00    1.58419   1.61398    0.014
 6761.00    1.68765   1.61715    0.014
 6762.00    1.78016   1.61884    0.014
 6763.00    1.86813   1.61589    0.015
 6764.00    1.89507   1.61819    0.014
 6765.00    1.90041   1.61975    0.014
 6766.00    1.90097   1.61692    0.014
 6767.00    1.90009   1.61868    0.014
 6768.00    1.86546   1.62070    0.014
 6769.00    1.82247   1.61812    0.013
 6770.00    1.78546   1.61919    0.013
 6771.00    1.74964   1.62176    0.013
 6772.00    1.74903   1.61921    0.013
 6773.00    1.75395   1.61909    0.013
 6774.00    1.77068   1.62179    0.013
 6775.00    1.78879   1.61898    0.013
 6776.00    1.73383   1.61724    0.013
 6777.00    1.67312   1.61969    0.013
 6778.00    1.69076   1.61662    0.013
 6779.00    1.71183   1.61335    0.014
 6780.00    1.71545   1.61558    0.014
 6781.00    1.71792   1.61278    0.014
 6782.00    1.67550   1.60860    0.014
 6783.00    1.63574   1.61093    0.013
 6784.00    1.64422   1.60914    0.013
 6785.00    1.65532   1.60487    0.013
 6786.00    1.69520   1.60749    0.013
 6787.00    1.73198   1.60714    0.013
 6788.00    1.74486   1.60348    0.013
 6789.00    1.75751   1.60624    0.013
 6790.00    1.76888   1.60714    0.013
 6791.00    1.77024   1.60458    0.013
 6792.00    1.72536   1.60707    0.013
 6793.00    1.69322   1.60845    0.013
 6794.00    1.70929   1.60730    0.013
 6795.00    1.71787   1.60921    0.013
 6796.00    1.70282   1.61011    0.013
 6797.00    1.69172   1.61041    0.013
 6798.00    1.69117   1.61172    0.013
 6799.00    1.69342   1.61144    0.013
 6800.00    1.70213   1.61296    0.013
 6801.00    1.72163   1.61383    0.013
 6802.00    1.76261   1.61227    0.013
 6803.00    1.78284   1.61458    0.013
 6804.00    1.76714   1.61525    0.013
 6805.00    1.74647   1.61296    0.013
 6806.00    1.71829   1.61559    0.013
 6807.00    1.68232   1.61622    0.012
 6808.00    1.63598   1.61406    0.012
 6809.00    1.61428   1.61670    0.012
 6810.00    1.62150   1.61735    0.012
 6811.00    1.64116   1.61600    0.013
 6812.00    1.67370   1.61851    0.013
 6813.00    1.69518   1.61913    0.013
 6814.00    1.70658   1.61876    0.013
 6815.00    1.69434   1.62105    0.013
 6816.00    1.66309   1.62156    0.013
 6817.00    1.65618   1.62182    0.013
 6818.00    1.66648   1.62372    0.013
 6819.00    1.70056   1.62402    0.013
 6820.00    1.74940   1.62429    0.013
 6821.00    1.76880   1.62559    0.013
 6822.00    1.77223   1.62546    0.013
 6823.00    1.78995   1.62525    0.013
 6824.00    1.81441   1.62578    0.013
 6825.00    1.78295   1.62497    0.013
 6826.00    1.72876   1.62400    0.012
 6827.00    1.69452   1.62374    0.012
 6828.00    1.66719   1.62207    0.013
 6829.00    1.68194   1.62034    0.013
 6830.00    1.70900   1.61952    0.013
 6831.00    1.73789   1.61705    0.013
 6832.00    1.76724   1.61478    0.013
 6833.00    1.74221   1.61386    0.013
 6834.00    1.70654   1.61107    0.012
 6835.00    1.67874   1.60863    0.013
 6836.00    1.65213   1.60812    0.013
 6837.00    1.67360   1.60576    0.013
 6838.00    1.70046   1.60349    0.014
 6839.00    1.69008   1.60378    0.014
 6840.00    1.67692   1.60239    0.014
 6841.00    1.68598   1.60029    0.014
 6842.00    1.69593   1.60138    0.014
 6843.00    1.66701   1.60103    0.013
 6844.00    1.63970   1.59860    0.013
 6845.00    1.68679   1.60010    0.013
 6846.00    1.72947   1.60050    0.012
 6847.00    1.69760   1.59704    0.012
 6848.00    1.66950   1.59839    0.013
 6849.00    1.68088   1.59933    0.012
 6850.00    1.68764   1.59453    0.012
 6851.00    1.66009   1.59528    0.012
 6852.00    1.63535   1.59690    0.012
 6853.00    1.62654   1.59126    0.012
 6854.00    1.61988   1.59114    0.012
 6855.00    1.62290   1.59372    0.012
 6856.00    1.62198   1.58840    0.012
 6857.00    1.60652   1.58730    0.013
 6858.00    1.59168   1.59073    0.013
 6859.00    1.57872   1.58699    0.013
 6860.00    1.57828   1.58504    0.013
 6861.00    1.61079   1.58871    0.013
 6862.00    1.63444   1.58724    0.013
 6863.00    1.63806   1.58491    0.013
 6864.00    1.64295   1.58802    0.013
 6865.00    1.65032   1.58872    0.013
 6866.00    1.65552   1.58676    0.013
 6867.00    1.65702   1.58886    0.013
 6868.00    1.64742   1.59089    0.013
 6869.00    1.62124   1.58997    0.013
 6870.00    1.59088   1.59140    0.013
 6871.00    1.55501   1.59377    0.012
 6872.00    1.55097   1.59401    0.012
 6873.00    1.58375   1.59561    0.012
 6874.00    1.61902   1.59778    0.012
 6875.00    1.65685   1.59868    0.013
 6876.00    1.66515   1.60120    0.013
 6877.00    1.64686   1.60342    0.013
 6878.00    1.62544   1.60415    0.013
 6879.00    1.60153   1.60774    0.013
 6880.00    1.58709   1.61078    0.013
 6881.00    1.57926   1.61072    0.013
 6882.00    1.57713   1.61475    0.013
 6883.00    1.57849   1.61926    0.013
 6884.00    1.58640   1.61848    0.013
 6885.00    1.59779   1.62183    0.013
 6886.00    1.62090   1.62761    0.013
 6887.00    1.64943   1.62670    0.013
 6888.00    1.67278   1.62863    0.013
 6889.00    1.69405   1.63477    0.013
 6890.00    1.68391   1.63439    0.012
 6891.00    1.66306   1.63474    0.012
 6892.00    1.63823   1.64001    0.012
 6893.00    1.61225   1.64052    0.012
 6894.00    1.62413   1.63994    0.012
 6895.00    1.64498   1.64353    0.012
 6896.00    1.67861   1.64474    0.012
 6897.00    1.71467   1.64393    0.013
 6898.00    1.71118   1.64579    0.013
 6899.00    1.70184   1.64724    0.013
 6900.00    1.67532   1.64643    0.013
 6901.00    1.64695   1.64698    0.013
 6902.00    1.67447   1.64825    0.013
 6903.00    1.70594   1.64709    0.013
 6904.00    1.67782   1.64688    0.013
 6905.00    1.64757   1.64780    0.013
 6906.00    1.62838   1.64569    0.013
 6907.00    1.61050   1.64519    0.013
 6908.00    1.63640   1.64612    0.013
 6909.00    1.65984   1.64279    0.013
 6910.00    1.64448   1.64204    0.013
 6911.00    1.62914   1.64333    0.012
 6912.00    1.61411   1.63935    0.012
 6913.00    1.60073   1.63833    0.012
 6914.00    1.59927   1.63993    0.012
 6915.00    1.60452   1.63606    0.013
 6916.00    1.64672   1.63482    0.013
 6917.00    1.67428   1.63654    0.013
 6918.00    1.63727   1.63343    0.013
 6919.00    1.60767   1.63206    0.013
 6920.00    1.60498   1.63367    0.013
 6921.00    1.59714   1.63176    0.013
 6922.00    1.57369   1.63033    0.013
 6923.00    1.56204   1.63170    0.013
 6924.00    1.58090   1.63105    0.013
 6925.00    1.58911   1.62966    0.013
 6926.00    1.57367   1.63091    0.013
 6927.00    1.57983   1.63133    0.013
 6928.00    1.62761   1.62996    0.013
 6929.00    1.67100   1.63127    0.013
 6930.00    1.70703   1.63252    0.013
 6931.00    1.71365   1.63091    0.013
 6932.00    1.67697   1.63218    0.013
 6933.00    1.65509   1.63398    0.013
 6934.00    1.65236   1.63173    0.013
 6935.00    1.65287   1.63265    0.013
 6936.00    1.65706   1.63476    0.013
 6937.00    1.65609   1.63185    0.013
 6938.00    1.64992   1.63239    0.013
 6939.00    1.63497   1.63459    0.013
 6940.00    1.61222   1.63107    0.013
 6941.00    1.59554   1.63150    0.013
 6942.00    1.58360   1.63404    0.013
 6943.00    1.61016   1.63005    0.013
 6944.00    1.66320   1.63057    0.013
 6945.00    1.69760   1.63394    0.013
 6946.00    1.72077   1.63002    0.013
 6947.00    1.71164   1.63077    0.013
 6948.00    1.68551   1.63518    0.013
 6949.00    1.67146   1.63214    0.013
 6950.00    1.66292   1.63316    0.013
 6951.00    1.66776   1.63821    0.013
 6952.00    1.67785   1.63645    0.013
 6953.00    1.66815   1.63777    0.013
 6954.00    1.65183   1.64268    0.013
 6955.00    1.65028   1.64208    0.013
 6956.00    1.65287   1.64377    0.013
 6957.00    1.64463   1.64778    0.013
 6958.00    1.63388   1.64762    0.013
 6959.00    1.63350   1.64957    0.013
 6960.00    1.63505   1.65204    0.013
 6961.00    1.64090   1.65109    0.013
 6962.00    1.64737   1.65309    0.014
 6963.00    1.63360   1.65390    0.014
 6964.00    1.61773   1.65123    0.013
 6965.00    1.63377   1.65287    0.013
 6966.00    1.65194   1.65250    0.013
 6967.00    1.64264   1.64787    0.013
 6968.00    1.63246   1.64882    0.013
 6969.00    1.63948   1.64830    0.013
 6970.00    1.64624   1.64256    0.013
 6971.00    1.64506   1.64276    0.013
 6972.00    1.64282   1.64316    0.013
 6973.00    1.62494   1.63762    0.013
 6974.00    1.60909   1.63750    0.013
 6975.00    1.61268   1.63998    0.013
 6976.00    1.61736   1.63602    0.013
 6977.00    1.62958   1.63558    0.013
 6978.00    1.64082   1.64016    0.013
 6979.00    1.64674   1.63880    0.013
 6980.00    1.65229   1.63825    0.013
 6981.00    1.65621   1.64358    0.013
 6982.00    1.65678   1.64489    0.014
 6983.00    1.64541   1.64479    0.014
 6984.00    1.64156   1.64895    0.014
 6985.00    1.66016   1.65113    0.014
 6986.00    1.67596   1.65136    0.014
 6987.00    1.68461   1.65362    0.013
 6988.00    1.67831   1.65514    0.013
 6989.00    1.63933   1.65511    0.013
 6990.00    1.61985   1.65566    0.013
 6991.00    1.63738   1.65597    0.013
 6992.00    1.65535   1.65510    0.013
 6993.00    1.67405   1.65465    0.013
 6994.00    1.68299   1.65420    0.013
 6995.00    1.67776   1.65223    0.013
 6996.00    1.67096   1.65098    0.013
 6997.00    1.66213   1.65038    0.013
 6998.00    1.64995   1.64802    0.013
 6999.00    1.63398   1.64630    0.013
 7000.00    1.61612   1.64577    0.013
 7001.00    1.59638   1.64364    0.014
 7002.00    1.62540   1.64155    0.014
 7003.00    1.69707   1.64137    0.014
 7004.00    1.70331   1.64037    0.014
 7005.00    1.65911   1.63784    0.014
 7006.00    1.63906   1.63736    0.014
 7007.00    1.63537   1.63763    0.014
 7008.00    1.60235   1.63525    0.014
 7009.00    1.55192   1.63442    0.014
 7010.00    1.56105   1.63586    0.014
 7011.00    1.60103   1.63382    0.014
 7012.00    1.58408   1.63269    0.014
 7013.00    1.54158   1.63509    0.014
 7014.00    1.57810   1.63365    0.014
 7015.00    1.64512   1.63260    0.014
 7016.00    1.65822   1.63592    0.014
 7017.00    1.65362   1.63511    0.014
 7018.00    1.60949   1.63401    0.014
 7019.00    1.55449   1.63813    0.014
 7020.00    1.57016   1.63910    0.014
 7021.00    1.60181   1.63841    0.015
 7022.00    1.61280   1.64202    0.015
 7023.00    1.62005   1.64410    0.015
 7024.00    1.60789   1.64420    0.014
 7025.00    1.59305   1.64744    0.014
 7026.00    1.56841   1.65016    0.014
 7027.00    1.54281   1.65099    0.014
 7028.00    1.51833   1.65483    0.014
 7029.00    1.49392   1.65823    0.014
 7030.00    1.52045   1.65844    0.014
 7031.00    1.54844   1.66276    0.014
 7032.00    1.58102   1.66761    0.014
 7033.00    1.61399   1.66677    0.014
 7034.00    1.65799   1.67050    0.014
 7035.00    1.69877   1.67687    0.014
 7036.00    1.69435   1.67531    0.014
 7037.00    1.68495   1.67724    0.014
 7038.00    1.62964   1.68402    0.014
 7039.00    1.58592   1.68198    0.015
 7040.00    1.62028   1.68075    0.015
 7041.00    1.65279   1.68583    0.015
 7042.00    1.67563   1.68398    0.015
 7043.00    1.69876   1.68003    0.015
 7044.00    1.72313   1.68084    0.015
 7045.00    1.73582   1.67736    0.015
 7046.00    1.70787   1.67143    0.015
 7047.00    1.69208   1.66812    0.015
 7048.00    1.71186   1.66228    0.015
 7049.00    1.72279   1.65570    0.015
 7050.00    1.71165   1.64985   -2.000
 7051.00    1.67774   1.64153   -2.000
 7052.00    1.59489   1.63457   -2.000
 7053.00    1.53723   1.62839   -2.000
 7054.00    1.52663   1.61927   -2.000
 7055.00    1.54125   1.61218   -2.000
 7056.00    1.59702   1.60778   -2.000
 7057.00    1.63736   1.60056   -2.000
 7058.00    1.65563   1.59389   -2.000
 7059.00    1.67981   1.59193   -2.000
 7060.00    1.71143   1.58759   -2.000
 7061.00    1.73480   1.58142   -2.000
 7062.00    1.74904   1.58167   -2.000
 7063.00    1.74776   1.58089   -2.000
 7064.00    1.73129   1.57616   -2.000
 7065.00    1.71927   1.57782   -2.000
 7066.00    1.71109   1.57938   -2.000
 7067.00    1.71330   1.57591   -2.000
 7068.00    1.72342   1.57780   -2.000
 7069.00    1.77534   1.58007   -2.000
 7070.00    1.85517   1.57721   -2.000
 7071.00    1.86886   1.57845   -2.000
 7072.00    1.84387   1.58060   -2.000
 7073.00    1.82222   1.57740   -2.000
 7074.00    1.80227   1.57610   -2.000
 7075.00    1.81283   1.57637   -2.000
 7076.00    1.83686   1.57229   -2.000
 7077.00    1.82342   1.56841   -2.000
 7078.00    1.79576   1.56653   -2.000
 7079.00    1.73829   1.56119   -2.000
 7080.00    1.67122   1.55531   -2.000
 7081.00    1.72084   1.55232   -2.000
 7082.00    1.80191   1.54592   -2.000
 7083.00    1.78680   1.53908   -2.000
 7084.00    1.75045   1.53649   -2.000
 7085.00    1.68345   1.52981   -2.000
 7086.00    1.61106   1.52302   -2.000
 7087.00    1.65841   1.52237   -2.000
 7088.00    1.72181   1.51759   -2.000
 7089.00    1.75481   1.51216   -2.000
 7090.00    1.78493   1.51271   -2.000
 7091.00    1.75422   1.51005   -2.000
 7092.00    1.71994   1.50685   -2.000
 7093.00    1.71097   1.50839   -2.000
 7094.00    1.70266   1.50789   -2.000
 7095.00    1.70082   1.50649   -2.000
 7096.00    1.69776   1.50792   -2.000
 7097.00    1.66417   1.50919   -2.000
 7098.00    1.63232   1.50887   -2.000
 7099.00    1.62359   1.50955   -2.000
 7100.00    1.61319   1.51170   -2.000
 7101.00    1.58812   1.51192   -2.000
 7102.00    1.55963   1.51177   -2.000
 7103.00    1.50885   1.51345   -2.000
 7104.00    1.47355   1.51380   -2.000
 7105.00    1.51705   1.51313   -2.000
 7106.00    1.54652   1.51428   -2.000
 7107.00    1.51824   1.51487   -2.000
 7108.00    1.50048   1.51373   -2.000
 7109.00    1.51858   1.51348   -2.000
 7110.00    1.54294   1.51400   -2.000
 7111.00    1.58525   1.51335   -2.000
 7112.00    1.59856   1.51207   -2.000
 7113.00    1.54070   1.51150   -2.000
 7114.00    1.51454   1.51091   -2.000
 7115.00    1.55546   1.50955   -2.000
 7116.00    1.58825   1.50832   -2.000
 7117.00    1.60611   1.50678   -2.000
 7118.00    1.64061   1.50473   -2.000
 7119.00    1.70187   1.50362   -2.000
 7120.00    1.70237   1.50142   -2.000
 7121.00    1.61723   1.49861   -2.000
 7122.00    1.60595   1.49795   -2.000
 7123.00    1.68627   1.49613   -2.000
 7124.00    1.74878   1.49310   -2.000
 7125.00    1.79180   1.49253   -2.000
 7126.00    1.76550   1.49255   -2.000
 7127.00    1.67235   1.49032   -2.000
 7128.00    1.63285   1.48863   -2.000
 7129.00    1.63897   1.49079   -2.000
 7130.00    1.65088   1.49103   -2.000
 7131.00    1.66711   1.48846   -2.000
 7132.00    1.72002   1.49124   -2.000
 7133.00    1.79707   1.49356   -2.000
 7134.00    1.73992   1.49097   -2.000
 7135.00    1.60548   1.49439   -2.000
 7136.00    1.59149   1.49791   -2.000
 7137.00    1.63795   1.49443   -2.000
 7138.00    1.63509   1.49733   -2.000
 7139.00    1.61080   1.50211   -2.000
 7140.00    1.66370   1.49819   -2.000
 7141.00    1.74535   1.49964   -2.000
 7142.00    1.66514   1.50536   -2.000
 7143.00    1.53381   1.50202   -2.000
 7144.00    1.54962   1.50255   -2.000
 7145.00    1.60423   1.50844   -2.000
 7146.00    1.58511   1.50544   -2.000
 7147.00    1.55010   1.50541   -2.000
 7148.00    1.54163   1.51170   -2.000
 7149.00    1.53770   1.50958   -2.000
 7150.00    1.59596   1.50822   -2.000
 7151.00    1.66227   1.51437   -2.000
 7152.00    1.64673   1.51483   -2.000
 7153.00    1.62375   1.51221   -2.000
 7154.00    1.64336   1.51652   -2.000
 7155.00    1.66529   1.51937   -2.000
 7156.00    1.59403   1.51618   -2.000
 7157.00    1.51993   1.51783   -2.000
 7158.00    1.36520   1.52206   -2.000
 7159.00    1.22897   1.52016   -2.000
 7160.00    1.51248   1.52060   -2.000
 7161.00    1.77553   1.52409   -2.000
 7162.00    1.78085   1.52299   -2.000
 7163.00    1.80314   1.52373   -2.000
 7164.00    1.97010   1.52719   -2.000
 7165.00    2.06457   1.52649   -2.000
 7166.00    1.69957   1.52650   -2.000
 7167.00    1.43211   1.52957   -2.000
 7168.00    1.64904   1.52981   -2.000
 7169.00    1.82487   1.52996   -2.000
 7170.00    1.83529   1.53207   -2.000
 7171.00    1.83321   1.53123   -2.000
 7172.00    1.78936   1.53020   -2.000
 7173.00    1.73503   1.53193   -2.000
 7174.00    1.65107   1.53094   -2.000
 7175.00    1.60711   1.52851   -2.000
 7176.00    1.65961   1.52876   -2.000
 7177.00    1.68959   1.52764   -2.000
 7178.00    1.67270   1.52477   -2.000
 7179.00    1.66651   1.52362   -2.000
 7180.00    1.67973   1.52335   -2.000
 7181.00    1.67431   1.52139   -2.000
 7182.00    1.63942   1.51770   -2.000
 7183.00    1.58458   1.51749   -2.000
 7184.00    1.50202   1.51860   -2.000
 7185.00    1.43475   1.51495   -2.000
 7186.00    1.38617   1.51433   -2.000
 7187.00    1.43793   1.51669   -2.000
 7188.00    1.59785   1.51334   -2.000
 7189.00    1.65883   1.51247   -2.000
 7190.00    1.62575   1.51613   -2.000
 7191.00    1.59178   1.51459   -2.000
 7192.00    1.55706   1.51360   -2.000
 7193.00    1.54075   1.51776   -2.000
 7194.00    1.53804   1.51767   -2.000
 7195.00    1.49850   1.51528   -2.000
 7196.00    1.43507   1.51935   -2.000
 7197.00    1.38498   1.52165   -2.000
 7198.00    1.34246   1.51838   -2.000
 7199.00    1.40675   1.52046   -2.000
 7200.00    1.52381   1.52426   -2.000
 7201.00    1.60986   1.52224   -2.000
 7202.00    1.68268   1.52239   -2.000
 7203.00    1.71773   1.52649   -2.000
 7204.00    1.73895   1.52607   -2.000
 7205.00    1.61768   1.52486   -2.000
 7206.00    1.45227   1.52984   -2.000
 7207.00    1.43560   1.53140   -2.000
 7208.00    1.45731   1.52836   -2.000
 7209.00    1.41913   1.53319   -2.000
 7210.00    1.36835   1.53751   -2.000
 7211.00    1.39654   1.53542   -2.000
 7212.00    1.43784   1.54000   -2.000
 7213.00    1.52443   1.54571   -2.000
 7214.00    1.61667   1.54423   -2.000
 7215.00    1.59268   1.54708   -2.000
 7216.00    1.55862   1.55397   -2.000
 7217.00    1.53011   1.55466   -2.000
 7218.00    1.50189   1.55613   -2.000
