###################################################################
## OUTPUT of StarlightChains_v04.for    [Cid@UFSC - 01/Apr/2007] ##
###################################################################

## Some input info
KUG0210-078._39_45.txt                   [arq_obs]
Base.CB07.vall.4m                        [arq_base]
Masks.EmLines.NEW.gm                     [arq_masks]
StCv04.C11.config                        [arq_config]
   66                                    [N_base]
    0                                    [N_YAV_components = # of components with extra extinction!]
    0                                    [i_FitPowerLaw (1/0 = Yes/No)]
-9.99                                    [alpha_PowerLaw]
CCM                                      [red_law_option]
 1.458241                                [q_norm = A(l_norm)/A(V)]

## (Re)Sampling Parameters
 3741.00                                 [l_ini (A)]
 7218.00                                 [l_fin (A)]
    1.00                                 [dl    (A)]     (OBS: dl_cushion =    50.00 A)

## Normalization info
 4020.00                                 [l_norm (A) - for base]
 4010.00                                 [llow_norm (A) - window for f_obs]
 4060.00                                 [lupp_norm (A) - window for f_obs]
4.566985E-18                             [fobs_norm (in input units)]

## S/N
 3691.00                                 [llow_SN (A) - window for S/N]
 7268.00                                 [lupp_SN (A) - window for S/N]
   3.831                                 [S/N in S/N window]
   1.603                                 [S/N in norm. window]
   0.014                                 [S/N_err in S/N window]
   0.006                                 [S/N_err in norm. window]
  1.0000                                 [fscale_chi2]

## etc...
    -2007701                             [idum_orig]
  2324                                   [NOl_eff]
  2312                                   [Nl_eff]
    12    NSIGMA                         [Ntot_cliped & clip_method]
  1128120                                [Nglobal_steps]
   7                                     [N_chains]
  40                                     [NEX0s_base = N_base in EX0s-fits]
 0   0   1       12   2.0   6.678E+02    [Clip-Bug, RC-Crash & Burn-In warning-flags, n_censored_weights, wei_nsig_threshold & wei_limit]
    41     40.460     39.657      0.802  [idt_all, wdt_TotTime, wdt_UsrTime & wdt_SysTime (sec)]

## Synthesis Results - Best model ##

 1.34461E-05                             [chi2/Nl_eff]
    32.51728                             [adev (%)]

   130.00000                             [sum-of-x (%)]
 1.60169E-17                             [Flux_tot (units of input spectrum!)]
 1.09881E-12                             [Mini_tot (???)]
 5.60380E-13                             [Mcor_tot (???)]

 -37.38                                  [v0_min  (km/s)]
 263.19                                  [vd_min  (km/s)]
 0.7389                                  [AV_min  (mag)]
 0.0000                                  [YAV_min (mag)]

# j     x_j(%)      Mini_j(%)     Mcor_j(%)     age_j(yr)     Z_j      (L/M)_j    YAV?  Mstars   component_j        a/Fe...       SSP_chi2r SSP_adev(%)   SSP_AV   SSP_x(%)
  1      0.0000     0.0000E+00    0.0000E+00    1.000000E+06  0.00400  1.094E-02    0   1.0000   age020_m42            0.0000     1.2843E-05    56.5854   3.9689   155.8022
  2      0.0000     0.0000E+00    0.0000E+00    3.160000E+06  0.00400  4.007E-02    0   0.9999   age045_m42            0.0000     1.2513E-05    54.6089   3.2572   165.3512
  3      0.0000     0.0000E+00    0.0000E+00    5.010000E+06  0.00400  2.539E-02    0   0.9488   age055_m42            0.0000     1.2697E-05    56.1978   3.5706   161.8264
  4      0.0000     0.0000E+00    0.0000E+00    6.610000E+06  0.00400  2.620E-02    0   0.9220   age061_m42            0.0000     1.2639E-05    55.3497   3.1829   165.7114
  5      0.0000     0.0000E+00    0.0000E+00    1.000000E+07  0.00400  1.322E-02    0   0.8862   age070_m42            0.0000     1.3810E-05    58.3582   2.8973   169.3197
  6      0.0000     0.0000E+00    0.0000E+00    1.445000E+07  0.00400  7.883E-03    0   0.8571   age078_m42            0.0000     1.3713E-05    58.6236   3.2203   165.3863
  7      0.0000     0.0000E+00    0.0000E+00    2.512000E+07  0.00400  5.251E-03    0   0.8174   age090_m42            0.0000     1.4046E-05    58.7017   2.7694   170.1104
  8      2.9339     9.0154E-03    1.3879E-02    4.000000E+07  0.00400  3.649E-03    0   0.7851   age104_m42            0.0000     1.3828E-05    57.5516   2.5447   171.3533
  9      0.0000     0.0000E+00    0.0000E+00    5.500000E+07  0.00400  3.098E-03    0   0.7629   age110_m42            0.0000     1.3254E-05    56.4765   2.7014   171.1847
 10      0.6083     3.0612E-03    4.3260E-03    1.015200E+08  0.00400  2.228E-03    0   0.7207   age116_m42            0.0000     1.2922E-05    55.7382   2.7237   171.3609
 11      0.0000     0.0000E+00    0.0000E+00    2.861200E+08  0.00400  1.093E-03    0   0.6648   age125_m42            0.0000     1.3419E-05    55.2489   2.1523   176.1816
 12      0.0000     0.0000E+00    0.0000E+00    5.088000E+08  0.00400  6.597E-04    0   0.6365   age130_m42            0.0000     1.2718E-05    53.1081   2.1464   177.5063
 13      0.0000     0.0000E+00    0.0000E+00    1.434000E+09  0.00400  2.132E-04    0   0.5798   age139_m42            0.0000     1.1905E-05    47.6760   1.1885   180.3228
 14      9.5238     1.8115E+00    1.9099E+00    4.250000E+09  0.00400  5.895E-05    0   0.5377   age158_m42            0.0000     1.0830E-05    40.7529   0.7495   173.5461
 15      0.0000     0.0000E+00    0.0000E+00    7.500000E+09  0.00400  3.510E-05    0   0.5212   age171_m42            0.0000     1.0460E-05    38.5942   0.5623   172.3639
 16      8.0749     4.5158E+00    4.4575E+00    1.300000E+10  0.00400  2.005E-05    0   0.5034   age193_m42            0.0000     1.0214E-05    37.0310   0.3970   171.4270
 17      0.0000     0.0000E+00    0.0000E+00    1.800000E+10  0.00400  1.525E-05    0   0.4967   age213_m42            0.0000     1.0271E-05    37.2900   0.3733   170.7270
 18      0.0000     0.0000E+00    0.0000E+00    1.000000E+06  0.00800  1.238E-02    0   1.0000   age020_m52            0.0000     1.2818E-05    56.5287   3.9653   156.1253
 19      0.0000     0.0000E+00    0.0000E+00    3.160000E+06  0.00800  3.074E-02    0   0.9966   age045_m52            0.0000     1.2725E-05    56.4411   3.8876   157.5945
 20      0.0000     0.0000E+00    0.0000E+00    5.010000E+06  0.00800  2.668E-02    0   0.9443   age055_m52            0.0000     1.2730E-05    56.3710   3.6499   160.6330
 21      0.0000     0.0000E+00    0.0000E+00    6.610000E+06  0.00800  2.136E-02    0   0.9177   age061_m52            0.0000     1.3354E-05    55.1865   2.4013   171.1853
 22      0.0000     0.0000E+00    0.0000E+00    1.000000E+07  0.00800  1.215E-02    0   0.8827   age070_m52            0.0000     1.4185E-05    59.2820   3.0700   169.3252
 23      0.0000     0.0000E+00    0.0000E+00    1.445000E+07  0.00800  8.717E-03    0   0.8552   age078_m52            0.0000     1.3700E-05    58.3901   3.1858   167.6754
 24      0.0000     0.0000E+00    0.0000E+00    2.512000E+07  0.00800  5.592E-03    0   0.8162   age090_m52            0.0000     1.4082E-05    58.5560   2.8315   172.1988
 25      0.0000     0.0000E+00    0.0000E+00    4.000000E+07  0.00800  3.896E-03    0   0.7841   age104_m52            0.0000     1.3750E-05    57.3307   2.7443   173.4387
 26      0.0000     0.0000E+00    0.0000E+00    1.015200E+08  0.00800  2.148E-03    0   0.7226   age116_m52            0.0000     1.3130E-05    55.0897   2.6895   172.7534
 27      0.0000     0.0000E+00    0.0000E+00    2.861200E+08  0.00800  9.925E-04    0   0.6683   age125_m52            0.0000     1.2726E-05    52.7607   2.2121   179.1009
 28      0.0000     0.0000E+00    0.0000E+00    9.047900E+08  0.00800  3.141E-04    0   0.6138   age135_m52            0.0000     1.1365E-05    43.3066   1.4183   186.3546
 29      0.0000     0.0000E+00    0.0000E+00    1.434000E+09  0.00800  1.719E-04    0   0.5853   age139_m52            0.0000     1.1131E-05    42.2043   0.8395   182.4555
 30      0.0000     0.0000E+00    0.0000E+00    2.500000E+09  0.00800  7.872E-05    0   0.5600   age150_m52            0.0000     1.0137E-05    38.4500   0.5773   177.5357
 31      0.0000     0.0000E+00    0.0000E+00    4.250000E+09  0.00800  4.336E-05    0   0.5426   age158_m52            0.0000     1.0058E-05    37.4069   0.5626   175.8659
 32     10.9842     3.8988E+00    4.0663E+00    6.250000E+09  0.00800  3.159E-05    0   0.5319   age166_m52            0.0000     9.6344E-06    35.5483   0.3644   175.6483
 33     30.2203     2.4897E+01    2.4766E+01    1.300000E+10  0.00800  1.361E-05    0   0.5073   age193_m52            0.0000     9.1350E-06    33.6188  -0.1009   174.4333
 34      2.6096     2.9598E+00    2.8960E+00    1.800000E+10  0.00800  9.886E-06    0   0.4990   age213_m52            0.0000     8.7544E-06    32.2271  -0.2086   173.6341
 35      0.0000     0.0000E+00    0.0000E+00    1.000000E+06  0.02000  1.544E-02    0   1.0000   age020_m62            0.0000     1.2819E-05    56.5531   3.9593   156.6161
 36      0.0000     0.0000E+00    0.0000E+00    3.160000E+06  0.02000  3.762E-02    0   0.9858   age045_m62            0.0000     1.2751E-05    56.6103   3.8972   158.0956
 37      1.8370     6.2494E-04    1.1448E-03    5.010000E+06  0.02000  3.296E-02    0   0.9342   age055_m62            0.0000     1.2508E-05    55.6280   3.5322   163.7231
 38      0.0000     0.0000E+00    0.0000E+00    8.710000E+06  0.02000  1.154E-02    0   0.8861   age067_m62            0.0000     1.7334E-05    65.2600   2.5026   174.9021
 39      0.0000     0.0000E+00    0.0000E+00    1.445000E+07  0.02000  7.663E-03    0   0.8472   age078_m62            0.0000     1.5017E-05    60.1882   2.7096   173.3876
 40      0.1551     3.8367E-04    6.0930E-04    2.512000E+07  0.02000  4.532E-03    0   0.8099   age090_m62            0.0000     1.5271E-05    61.1451   2.7022   172.7570
 41      0.0000     0.0000E+00    0.0000E+00    5.500000E+07  0.02000  2.733E-03    0   0.7595   age110_m62            0.0000     1.3746E-05    57.7848   2.7288   172.1002
 42      4.2982     3.5205E-02    4.8218E-02    1.609000E+08  0.02000  1.369E-03    0   0.6985   age120_m62            0.0000     1.3045E-05    55.4142   2.5743   176.3349
 43      0.0000     0.0000E+00    0.0000E+00    2.861200E+08  0.02000  9.013E-04    0   0.6714   age125_m62            0.0000     1.2634E-05    53.0424   2.3290   181.0941
 44      0.0000     0.0000E+00    0.0000E+00    5.088000E+08  0.02000  5.028E-04    0   0.6449   age130_m62            0.0000     1.1528E-05    46.6761   1.9549   185.8065
 45      0.0000     0.0000E+00    0.0000E+00    9.047900E+08  0.02000  2.428E-04    0   0.6179   age135_m62            0.0000     1.0590E-05    40.8734   1.3680   184.8645
 46      0.0000     0.0000E+00    0.0000E+00    1.434000E+09  0.02000  1.263E-04    0   0.5908   age139_m62            0.0000     1.0175E-05    38.3507   0.9271   182.0454
 47      8.9082     1.6689E+00    1.8565E+00    2.500000E+09  0.02000  5.985E-05    0   0.5673   age150_m62            0.0000     9.5113E-06    35.8426   0.5637   179.5479
 48      0.3325     1.1397E-01    1.2220E-01    4.250000E+09  0.02000  3.271E-05    0   0.5468   age158_m62            0.0000     8.9376E-06    33.9462   0.2622   177.9056
 49      2.0260     1.6704E+00    1.6924E+00    1.000000E+10  0.02000  1.360E-05    0   0.5167   age181_m62            0.0000     8.3367E-06    31.5317  -0.0871   177.3501
 50     26.8859     4.2317E+01    4.1596E+01    1.800000E+10  0.02000  7.124E-06    0   0.5013   age213_m62            0.0000     7.9306E-06    30.3086  -0.2983   176.1359
 51      0.0000     0.0000E+00    0.0000E+00    1.000000E+06  0.05000  2.592E-02    0   0.9998   age020_m72            0.0000     1.2868E-05    56.5149   3.9503   156.7355
 52      0.0000     0.0000E+00    0.0000E+00    3.160000E+06  0.05000  4.845E-02    0   0.9577   age045_m72            0.0000     1.2572E-05    56.1709   3.7857   159.8029
 53      0.0000     0.0000E+00    0.0000E+00    5.010000E+06  0.05000  3.072E-02    0   0.9147   age055_m72            0.0000     1.4144E-05    59.2353   3.2860   167.4221
 54      0.0000     0.0000E+00    0.0000E+00    6.610000E+06  0.05000  1.455E-02    0   0.8877   age061_m72            0.0000     1.9856E-05    68.7816   2.5145   177.3760
 55      0.0000     0.0000E+00    0.0000E+00    1.000000E+07  0.05000  9.074E-03    0   0.8524   age070_m72            0.0000     1.4656E-05    60.2376   3.4487   167.5136
 56      0.0000     0.0000E+00    0.0000E+00    2.512000E+07  0.05000  4.250E-03    0   0.7902   age090_m72            0.0000     1.4419E-05    59.6353   3.1687   169.6957
 57      0.0000     0.0000E+00    0.0000E+00    4.000000E+07  0.05000  3.087E-03    0   0.7618   age104_m72            0.0000     1.4683E-05    59.8941   2.9439   172.2425
 58      0.0000     0.0000E+00    0.0000E+00    1.015200E+08  0.05000  1.700E-03    0   0.7096   age116_m72            0.0000     1.3572E-05    56.6586   2.7110   175.8107
 59      0.0000     0.0000E+00    0.0000E+00    2.861200E+08  0.05000  7.384E-04    0   0.6633   age125_m72            0.0000     1.1964E-05    49.8777   2.1966   183.7145
 60      0.0000     0.0000E+00    0.0000E+00    5.088000E+08  0.05000  3.819E-04    0   0.6372   age130_m72            0.0000     1.0740E-05    43.4996   1.7074   186.8094
 61      0.0000     0.0000E+00    0.0000E+00    9.047900E+08  0.05000  1.676E-04    0   0.6110   age135_m72            0.0000     9.4460E-06    36.8813   1.0177   183.4146
 62      0.0000     0.0000E+00    0.0000E+00    1.434000E+09  0.05000  8.837E-05    0   0.5874   age139_m72            0.0000     9.3272E-06    35.0524   0.5593   182.4846
 63      0.0000     0.0000E+00    0.0000E+00    2.500000E+09  0.05000  4.233E-05    0   0.5598   age150_m72            0.0000     8.6920E-06    33.0978   0.2580   179.7741
 64     20.6022     1.6098E+01    1.6569E+01    6.250000E+09  0.05000  1.435E-05    0   0.5249   age166_m72            0.0000     8.1756E-06    31.9769  -0.1848   176.7633
 65      0.0000     0.0000E+00    0.0000E+00    1.300000E+10  0.05000  6.513E-06    0   0.5036   age193_m72            0.0000     7.7860E-06    30.2437  -0.4683   178.7367
 66      0.0000     0.0000E+00    0.0000E+00    1.800000E+10  0.05000  4.527E-06    0   0.4945   age213_m72            0.0000     7.5828E-06    29.4052  -0.6331   178.6496


## Synthesis Results - Average & Chains ##

# j      x_j: min, <> & last-chain-values for 1 ...  7 chains
  1      0.0000      0.9888      3.8984      0.6681      5.6347      2.7049      2.0638      0.0000      1.5811
  2      0.0000      1.1580      1.5475      3.1004      2.7985      3.4376      2.4945      0.0000      4.0506
  3      0.0000      2.2381      3.8723      2.0566      4.4373      7.3086      0.0000     10.6474      5.7802
  4      0.0000      1.5931      0.9056      0.0000      0.4827      7.3585      0.8252      0.1840      2.0707
  5      0.0000      1.4925      0.3145      9.1270      4.0328      1.8573      4.4062      6.0979      5.5211
  6      0.0000      1.3623      0.0000      0.0000      0.0000      1.6359      2.6615      0.5682      0.5339
  7      0.0000      1.4929      0.0000      2.9446      0.1431      1.0373      0.0000      6.8468      0.9199
  8      2.9339      1.5684      2.2966      2.3698      4.3968      0.5734      0.0000      0.0000      4.1198
  9      0.0000      1.5381      2.5267      6.3833      0.0014      3.3586      0.0000      0.0000      1.4402
 10      0.6083      0.9617      0.0479      2.4623      0.0000      0.2101      0.2018      1.1829      0.2596
 11      0.0000      1.0764      3.5219      0.0000      0.0000      0.6277      0.0000      0.3776      0.3956
 12      0.0000      1.5692      2.3090      0.0000      4.8161      0.2138      2.2420      1.2885      1.0503
 13      0.0000      1.4197      6.0756      4.0900      0.0000      5.4403      0.4766      0.0000      0.0000
 14      9.5238      1.6407      0.8287      1.5957      0.3510      0.0000      0.0000      1.3492      0.4479
 15      0.0000      1.7989      3.2155      0.0000      2.6693      5.8264      0.6350      0.0000      2.2660
 16      8.0749      1.9797      3.3390      4.0758      1.7357      5.0069      1.1339      1.3652      0.0677
 17      0.0000      1.4861      0.8731      0.2974      1.2481      0.0000      0.4981      0.6081      3.7583
 18      0.0000      1.6268      5.3079      7.6265      4.5904      0.0000      0.1170      0.0000      1.4177
 19      0.0000      1.4239      3.3490      1.5300      0.0000      0.5888      8.4614      1.9801      1.2175
 20      0.0000      1.5664      6.4287      6.5790      0.0000      0.0000      0.1636      2.9323      0.7551
 21      0.0000      1.5260      6.9987      1.1355      0.0000      3.5155      0.2652      3.8084      0.6259
 22      0.0000      1.3631      4.4783      0.0000      0.0000      6.9187      0.0000      0.8745      2.2183
 23      0.0000      1.5549      1.4943      1.2456      2.1877      4.0128      8.8862      4.6962      0.4763
 24      0.0000      1.0662      1.1048      0.0000      0.1870      1.9895      1.0368      0.8839      1.6801
 25      0.0000      1.2598      1.8886      0.0000      0.7378      2.0884      4.8647      1.8982      0.4158
 26      0.0000      1.5125      0.4133      0.0000      2.4476      0.0000      3.9298      1.5446      0.0000
 27      0.0000      1.4490      1.7051      2.4581      0.0000      1.1810      1.0269      0.0000      0.6560
 28      0.0000      1.3530      2.7866      0.8904      1.6257      4.1491      0.3062      0.2287      1.8076
 29      0.0000      1.3670      1.7627      1.0579      0.0000      0.0000      1.1233      1.0875      0.0000
 30      0.0000      1.1745      0.8029      0.0000      1.2325      1.6016      1.1609      1.9442      0.8377
 31      0.0000      1.0587      1.7233      0.0534      0.0000      0.0000      2.1339      4.2652      2.6183
 32     10.9842      1.2997      0.4784      2.7641      3.0793      4.4482      0.0000      2.4482      0.0000
 33     30.2203      1.4309      0.0584      1.1214      0.0000      0.0000      3.5282      0.0666      1.5026
 34      2.6096      2.0219      0.0000      1.2156      0.0000      2.0043      1.9740      0.3750      3.8048
 35      0.0000      1.8406      0.0000      0.7393      4.2475      1.7063      1.0221      6.9247      4.3744
 36      0.0000      2.4332     10.9431      3.1141      3.6608     10.1585      8.1924     10.3963      6.8928
 37      1.8370      1.5587      3.0416      2.5632      4.9508      0.9190      4.0827      0.7406      0.3152
 38      0.0000      1.3735      0.4427      0.0000      2.2354      0.2786      6.7363      0.0000      0.0000
 39      0.0000      1.3401      5.2685      1.9474      3.8922      0.0000      4.7339      0.0000      0.6868
 40      0.1551      1.5357      0.0000      2.7040      3.7852      1.6795      0.0000      1.4552      0.0000
 41      0.0000      1.6434      0.0000      0.3796      1.5903      0.0000      3.0108      0.0000      0.9636
 42      4.2982      1.0443      0.0000      2.7004      3.3990      0.6809      0.0000      0.3638      1.2829
 43      0.0000      1.3106      0.0000      1.7979      1.9575      0.0000      0.0000      3.0640      4.3014
 44      0.0000      1.0341      0.0000      0.0000      0.0000      0.1446      0.7279      0.0000      4.0064
 45      0.0000      0.7714      0.0000      0.6755      1.9189      0.6544      0.0000      1.3737      2.4729
 46      0.0000      1.3451      0.0000      0.0000      6.5864      0.6281      1.8007      0.0000      4.3608
 47      8.9082      1.9659      0.0000      1.0635      2.7285      0.9032      4.7398      0.8560      0.0000
 48      0.3325      1.7130      0.0000      1.6759      3.7148      1.5916      0.0000      0.0000      1.7289
 49      2.0260      1.2158      0.0000      1.6225      0.0000      0.5218      1.3667      2.2960      1.2119
 50     26.8859      7.9578      0.0799      6.6335      3.1882      0.6019      0.0000      4.9140      7.1350
 51      0.0000      1.5726      1.7030      0.0000      5.5047      0.0000      1.0235      0.0000      0.0000
 52      0.0000      1.6665      5.9813      6.0637      2.2255      0.4194      0.9634      5.4168      0.0000
 53      0.0000      0.9321      1.2060      3.3292      3.1664      1.1384      5.3590      0.0000      0.8563
 54      0.0000      1.3711      0.0000      1.9773      0.7870      0.3040      3.9992      0.0000      1.1289
 55      0.0000      1.3712      0.0000      3.2128      3.3216      2.4984      1.6556      1.6113      1.7977
 56      0.0000      1.3702      4.2390      0.0000      0.5880      0.0000      3.4884      0.0000      1.7341
 57      0.0000      2.1229      5.4561     10.7695      0.0000      1.9701      0.0454      1.0033      7.0688
 58      0.0000      1.4119      5.8709      0.0000      0.0000      5.3782      5.2386      0.2498      4.8071
 59      0.0000      1.4408      1.5185      0.0000      2.6563      0.0000      1.3922      0.8604      3.1983
 60      0.0000      1.9152      1.5420      1.4610      9.1305      1.1446      0.4482      4.8201      0.7257
 61      0.0000      1.5173      1.4025      0.0000      0.4471      0.8932      0.0000      3.3600      3.7513
 62      0.0000      1.2653      1.4538      1.5217      0.0000      5.9958      2.0878      7.1202      0.6992
 63      0.0000      0.8539      0.0000      0.0000      0.7664      0.8912      0.0830      0.9831      2.6366
 64     20.6022      1.4111      0.6182      1.1508      0.0000      3.4719      2.5154      1.7178      1.9069
 65      0.0000      1.3408      0.0000      0.0000      3.2902      0.0000      0.0000      0.0351      1.0898
 66      0.0000     27.5866      2.7079      0.0000      0.6239      1.0245      8.6701      5.8902      0.0000

# j      m_j: min, <> & last-chain-values for 1 ...  7 chains
  1  0.0000E+00  2.1408E-03  6.0290E-02  6.5653E-03  5.6894E-02  2.9787E-02  1.2565E-02  0.0000E+00  1.1237E-02
  2  0.0000E+00  6.8444E-04  6.5336E-03  8.3171E-03  7.7140E-03  1.0334E-02  4.1461E-03  0.0000E+00  7.8589E-03
  3  0.0000E+00  1.9809E-03  2.4482E-02  8.2620E-03  1.8316E-02  3.2904E-02  0.0000E+00  2.7533E-02  1.6794E-02
  4  0.0000E+00  1.3279E-03  5.3917E-03  0.0000E+00  1.8764E-03  3.1197E-02  1.9343E-03  4.4802E-04  5.6656E-03
  5  0.0000E+00  2.3697E-03  3.5669E-03  6.5773E-02  2.9862E-02  1.5000E-02  1.9674E-02  2.8286E-02  2.8776E-02
  6  0.0000E+00  3.5084E-03  0.0000E+00  0.0000E+00  0.0000E+00  2.1428E-02  1.9275E-02  4.2751E-03  4.5137E-03
  7  0.0000E+00  5.5042E-03  0.0000E+00  4.9277E-02  2.4608E-03  1.9454E-02  0.0000E+00  7.3752E-02  1.1133E-02
  8  1.3879E-02  7.9926E-03  8.3602E-02  5.4814E-02  1.0450E-01  1.4862E-02  0.0000E+00  0.0000E+00  6.8916E-02
  9  0.0000E+00  8.9710E-03  1.0527E-01  1.6898E-01  3.9019E-05  9.9642E-02  0.0000E+00  0.0000E+00  2.7575E-02
 10  4.3260E-03  7.3685E-03  2.6226E-03  8.5624E-02  0.0000E+00  8.1896E-03  4.3480E-03  2.6478E-02  6.5287E-03
 11  0.0000E+00  1.5506E-02  3.6243E-01  0.0000E+00  0.0000E+00  4.5999E-02  0.0000E+00  1.5891E-02  1.8706E-02
 12  0.0000E+00  3.5861E-02  3.7693E-01  0.0000E+00  5.1329E-01  2.4857E-02  1.4408E-01  8.6026E-02  7.8786E-02
 13  0.0000E+00  9.1445E-02  2.7955E+00  1.1957E+00  0.0000E+00  1.7824E+00  8.6339E-02  0.0000E+00  0.0000E+00
 14  1.9099E+00  3.5446E-01  1.2788E+00  1.5646E+00  3.5363E-01  0.0000E+00  0.0000E+00  8.5162E-01  3.1763E-01
 15  0.0000E+00  6.3268E-01  8.0783E+00  0.0000E+00  4.3783E+00  1.0423E+01  6.2806E-01  0.0000E+00  2.6161E+00
 16  4.4575E+00  1.1773E+00  1.4184E+01  1.1001E+01  4.8138E+00  1.5145E+01  1.8963E+00  2.3720E+00  1.3209E-01
 17  0.0000E+00  1.1464E+00  4.8113E+00  1.0412E+00  4.4903E+00  0.0000E+00  1.0805E+00  1.3706E+00  9.5173E+00
 18  0.0000E+00  3.1123E-03  7.2541E-02  6.6225E-02  4.0959E-02  0.0000E+00  6.2972E-04  0.0000E+00  8.9036E-03
 19  0.0000E+00  1.0934E-03  1.8370E-02  5.3323E-03  0.0000E+00  2.2997E-03  1.8272E-02  4.4422E-03  3.0689E-03
 20  0.0000E+00  1.3131E-03  3.8497E-02  2.5032E-02  0.0000E+00  0.0000E+00  3.8559E-04  7.1818E-03  2.0779E-03
 21  0.0000E+00  1.5529E-03  5.0874E-02  5.2444E-03  0.0000E+00  1.8196E-02  7.5903E-04  1.1322E-02  2.0909E-03
 22  0.0000E+00  2.3455E-03  5.5046E-02  0.0000E+00  0.0000E+00  6.0556E-02  0.0000E+00  4.3965E-03  1.2530E-02
 23  0.0000E+00  3.6131E-03  2.4804E-02  1.3137E-02  2.3709E-02  4.7429E-02  5.8068E-02  3.1882E-02  3.6334E-03
 24  0.0000E+00  3.6860E-03  2.7284E-02  0.0000E+00  3.0143E-03  3.4983E-02  1.0079E-02  8.9270E-03  1.9066E-02
 25  0.0000E+00  6.0052E-03  6.4310E-02  0.0000E+00  1.6401E-02  5.0637E-02  6.5212E-02  2.6436E-02  6.5055E-03
 26  0.0000E+00  1.2052E-02  2.3526E-02  0.0000E+00  9.0954E-02  0.0000E+00  8.8055E-02  3.5957E-02  0.0000E+00
 27  0.0000E+00  2.3109E-02  1.9426E-01  1.7793E-01  0.0000E+00  9.5801E-02  4.6057E-02  0.0000E+00  3.4343E-02
 28  0.0000E+00  6.2621E-02  9.2131E-01  1.8706E-01  3.5093E-01  9.7681E-01  3.9859E-02  3.0931E-02  2.7463E-01
 29  0.0000E+00  1.1024E-01  1.0155E+00  3.8724E-01  0.0000E+00  0.0000E+00  2.5476E-01  2.5623E-01  0.0000E+00
 30  0.0000E+00  1.9790E-01  9.6641E-01  0.0000E+00  9.6848E-01  1.3727E+00  5.5006E-01  9.5709E-01  4.6336E-01
 31  0.0000E+00  3.1380E-01  3.6485E+00  7.1796E-02  0.0000E+00  0.0000E+00  1.7786E+00  3.6934E+00  2.5475E+00
 32  4.0663E+00  5.1831E-01  1.3628E+00  5.0032E+00  5.7273E+00  9.0232E+00  0.0000E+00  2.8525E+00  0.0000E+00
 33  2.4766E+01  1.2633E+00  3.6839E-01  4.4937E+00  0.0000E+00  0.0000E+00  8.7594E+00  1.7185E-01  4.3546E+00
 34  2.8960E+00  2.4173E+00  0.0000E+00  6.5962E+00  0.0000E+00  1.2188E+01  6.6367E+00  1.3098E+00  1.4932E+01
 35  0.0000E+00  2.8236E-03  0.0000E+00  5.1472E-03  3.0388E-02  1.3314E-02  4.4093E-03  3.1035E-02  2.2028E-02
 36  0.0000E+00  1.5102E-03  4.8516E-02  8.7724E-03  1.0596E-02  3.2070E-02  1.4299E-02  1.8851E-02  1.4043E-02
 37  1.1448E-03  1.0464E-03  1.4586E-02  7.8100E-03  1.5500E-02  3.1382E-03  7.7076E-03  1.4526E-03  6.9471E-04
 38  0.0000E+00  2.4980E-03  5.7511E-03  0.0000E+00  1.8960E-02  2.5776E-03  3.4452E-02  0.0000E+00  0.0000E+00
 39  0.0000E+00  3.5092E-03  9.8550E-02  2.3145E-02  4.7533E-02  0.0000E+00  3.4859E-02  0.0000E+00  5.9032E-03
 40  6.0930E-04  6.5001E-03  0.0000E+00  5.1948E-02  7.4722E-02  3.6159E-02  0.0000E+00  1.7996E-02  0.0000E+00
 41  0.0000E+00  1.0817E-02  0.0000E+00  1.1342E-02  4.8818E-02  0.0000E+00  5.5730E-02  0.0000E+00  2.0821E-02
 42  4.8218E-02  1.2620E-02  0.0000E+00  1.4812E-01  1.9157E-01  4.1854E-02  0.0000E+00  1.2846E-02  5.0894E-02
 43  0.0000E+00  2.3123E-02  0.0000E+00  1.4398E-01  1.6108E-01  0.0000E+00  0.0000E+00  1.5794E-01  2.4913E-01
 44  0.0000E+00  3.1414E-02  0.0000E+00  0.0000E+00  0.0000E+00  2.2349E-02  6.2183E-02  0.0000E+00  3.9953E-01
 45  0.0000E+00  4.6494E-02  0.0000E+00  1.8479E-01  5.3942E-01  2.0062E-01  0.0000E+00  2.4191E-01  4.8931E-01
 46  0.0000E+00  1.4902E-01  0.0000E+00  0.0000E+00  3.4033E+00  3.5395E-01  5.6104E-01  0.0000E+00  1.5860E+00
 47  1.8565E+00  4.4135E-01  0.0000E+00  1.0836E+00  2.8568E+00  1.0314E+00  2.9925E+00  5.6149E-01  0.0000E+00
 48  1.2220E-01  6.7826E-01  0.0000E+00  3.0117E+00  6.8596E+00  3.2054E+00  0.0000E+00  0.0000E+00  2.2471E+00
 49  1.6924E+00  1.0940E+00  0.0000E+00  6.6270E+00  0.0000E+00  2.3884E+00  3.4585E+00  6.0364E+00  3.5799E+00
 50  4.1596E+01  1.3263E+01  9.5141E-01  5.0181E+01  2.4782E+01  5.1029E+00  0.0000E+00  2.3928E+01  3.9036E+01
 51  0.0000E+00  1.4368E-03  1.1114E-02  0.0000E+00  2.3454E-02  0.0000E+00  2.6294E-03  0.0000E+00  0.0000E+00
 52  0.0000E+00  7.8024E-04  2.0004E-02  1.2885E-02  4.8594E-03  9.9875E-04  1.2685E-03  7.4093E-03  0.0000E+00
 53  0.0000E+00  6.5732E-04  6.0757E-03  1.0656E-02  1.0414E-02  4.0837E-03  1.0628E-02  0.0000E+00  1.9824E-03
 54  0.0000E+00  1.9813E-03  0.0000E+00  1.2969E-02  5.3040E-03  2.2344E-03  1.6252E-02  0.0000E+00  5.3550E-03
 55  0.0000E+00  3.0509E-03  0.0000E+00  3.2445E-02  3.4467E-02  2.8275E-02  1.0359E-02  1.0474E-02  1.3130E-02
 56  0.0000E+00  6.0341E-03  1.3335E-01  0.0000E+00  1.2077E-02  0.0000E+00  4.3201E-02  0.0000E+00  2.5068E-02
 57  0.0000E+00  1.2408E-02  2.2781E-01  2.8571E-01  0.0000E+00  5.8572E-02  7.4705E-04  1.7133E-02  1.3563E-01
 58  0.0000E+00  1.3958E-02  4.1461E-01  0.0000E+00  0.0000E+00  2.7046E-01  1.4565E-01  7.2142E-03  1.5601E-01
 59  0.0000E+00  3.0654E-02  2.3079E-01  0.0000E+00  2.6358E-01  0.0000E+00  8.3297E-02  5.3481E-02  2.2337E-01
 60  0.0000E+00  7.5688E-02  4.3530E-01  2.6206E-01  1.6828E+00  2.3007E-01  4.9805E-02  5.5652E-01  9.4145E-02
 61  0.0000E+00  1.3101E-01  8.6508E-01  0.0000E+00  1.8003E-01  3.9229E-01  0.0000E+00  8.4762E-01  1.0633E+00
 62  0.0000E+00  1.9921E-01  1.6349E+00  1.0874E+00  0.0000E+00  4.8015E+00  9.2434E-01  3.2750E+00  3.6133E-01
 63  0.0000E+00  2.6748E-01  0.0000E+00  0.0000E+00  1.1196E+00  1.4199E+00  7.3118E-02  8.9970E-01  2.7110E+00
 64  1.6569E+01  1.2225E+00  3.8257E+00  4.5255E+00  0.0000E+00  1.5300E+01  6.1284E+00  4.3481E+00  5.4231E+00
 65  0.0000E+00  2.4556E+00  0.0000E+00  0.0000E+00  2.8102E+01  0.0000E+00  0.0000E+00  1.8763E-01  6.5516E+00
 66  0.0000E+00  7.1373E+01  5.0045E+01  0.0000E+00  7.5283E+00  1.3483E+01  6.3081E+01  4.4523E+01  0.0000E+00

# AV, chi2 & Mass for <> & i_chain = 1 ...  7 solutions
AV       0.7389      3.6307      3.5521      3.2427      3.5297      3.6131      3.4271      3.4906      3.2831
chi2 1.3446E-05  6.7495E-04  5.4357E-05  4.4765E-05  9.7416E-05  1.3224E-04  1.0856E-04  1.3202E-04  9.2439E-05
Mass 5.6038E-13  2.5290E-11  3.1855E-12  3.3087E-12  4.7348E-12  4.8553E-12  6.8415E-12  7.1714E-12  4.8299E-12
 -37.38                                  [v0_min (km/s) before EX0s...]
 263.19                                  [vd_min (km/s) before EX0s...]


## Synthetic spectrum (Best Model) ##l_obs f_obs f_syn wei
 3478    [Nl_obs]
 3741.00    0.98269   0.59184    0.000
 3742.00    0.90760   0.58549    0.000
 3743.00    0.60384   0.56976    0.000
 3744.00    0.21970   0.55021    0.000
 3745.00   -0.21127   0.53044    0.000
 3746.00   -0.37294   0.51331    0.000
 3747.00   -0.39786   0.50575    0.000
 3748.00   -0.72333   0.51270    0.000
 3749.00   -1.18095   0.52986    0.000
 3750.00   -1.10973   0.55268    0.000
 3751.00   -0.83885   0.58277    0.000
 3752.00   -0.65960   0.61784    0.000
 3753.00   -0.50972   0.64739    0.000
 3754.00   -0.71833   0.66372    0.000
 3755.00   -1.02300   0.66949    0.000
 3756.00   -0.62170   0.67035    0.000
 3757.00   -0.06544   0.66667    0.000
 3758.00    0.28389   0.65758    0.011
 3759.00    0.59710   0.64730    0.011
 3760.00    0.13020   0.64115    0.015
 3761.00   -0.44033   0.64019    0.000
 3762.00   -0.61419   0.64229    0.000
 3763.00   -0.75077   0.64344    0.000
 3764.00    0.16665   0.64262    0.011
 3765.00    1.14488   0.64539    0.010
 3766.00    1.38323   0.65361    0.011
 3767.00    1.59908   0.66094    0.011
 3768.00    1.21583   0.66782    0.011
 3769.00    0.83343   0.68198    0.010
 3770.00    0.47194   0.70166    0.010
 3771.00    0.15732   0.71890    0.010
 3772.00    0.45709   0.73475    0.010
 3773.00    0.67599   0.75394    0.010
 3774.00    0.18502   0.77356    0.010
 3775.00   -0.34045   0.78902    0.000
 3776.00   -1.08953   0.80297    0.000
 3777.00   -1.59962   0.81892    0.000
 3778.00   -0.90012   0.83353    0.000
 3779.00   -0.43606   0.84265    0.000
 3780.00   -0.93568   0.84826    0.000
 3781.00   -1.57237   0.85150    0.000
 3782.00   -2.67397   0.84683    0.000
 3783.00   -3.23298   0.83126    0.000
 3784.00   -2.24016   0.81069    0.000
 3785.00   -1.56411   0.78935    0.000
 3786.00   -1.66203   0.76428    0.000
 3787.00   -1.75750   0.73645    0.000
 3788.00   -1.84780   0.71349    0.000
 3789.00   -1.53914   0.69633    0.000
 3790.00   -0.49971   0.67916    0.000
 3791.00    0.26733   0.66139    0.010
 3792.00    0.59834   0.64663    0.010
 3793.00    0.52727   0.63415    0.010
 3794.00   -0.10855   0.62079    0.000
 3795.00   -0.24728   0.60813    0.000
 3796.00    0.22840   0.60256    0.010
 3797.00    0.08902   0.60770    0.010
 3798.00   -0.72047   0.62027    0.000
 3799.00   -1.34867   0.63773    0.000
 3800.00   -1.80265   0.66207    0.000
 3801.00   -1.91707   0.69195    0.000
 3802.00   -1.74375   0.72041    0.000
 3803.00   -1.43886   0.74295    0.000
 3804.00   -1.03578   0.76034    0.000
 3805.00   -0.56520   0.77402    0.000
 3806.00   -0.05038   0.78328    0.000
 3807.00    0.32150   0.78663    0.010
 3808.00    0.61134   0.78495    0.010
 3809.00    0.72018   0.77993    0.010
 3810.00    0.73855   0.77059    0.010
 3811.00    0.29135   0.75600    0.010
 3812.00   -0.35717   0.73684    0.000
 3813.00   -0.26070   0.71427    0.000
 3814.00    0.11206   0.69176    0.010
 3815.00    0.63181   0.67234    0.010
 3816.00    1.19778   0.65339    0.010
 3817.00    0.61316   0.63375    0.011
 3818.00   -0.27327   0.61828    0.000
 3819.00   -1.07307   0.60805    0.000
 3820.00   -1.85430   0.59669    0.000
 3821.00   -1.81203   0.58157    0.000
 3822.00   -1.62999   0.56791    0.000
 3823.00   -1.24507   0.55833    0.000
 3824.00   -0.83411   0.54842    0.000
 3825.00   -0.25351   0.53549    0.000
 3826.00    0.34232   0.52327    0.010
 3827.00    0.20255   0.51473    0.010
 3828.00    0.02325   0.50703    0.010
 3829.00    0.47828   0.49701    0.010
 3830.00    0.94024   0.48661    0.010
 3831.00    0.91473   0.47822    0.010
 3832.00    0.87634   0.47094    0.011
 3833.00    0.55152   0.46494    0.010
 3834.00    0.23761   0.46218    0.010
 3835.00    0.05924   0.46349    0.010
 3836.00   -0.06505   0.47025    0.000
 3837.00    0.26774   0.48296    0.010
 3838.00    0.56202   0.50014    0.010
 3839.00    0.61404   0.52233    0.010
 3840.00    0.65792   0.55008    0.010
 3841.00    0.66164   0.58005    0.010
 3842.00    0.57687   0.60931    0.010
 3843.00    0.13791   0.63678    0.010
 3844.00   -0.21179   0.66082    0.000
 3845.00   -0.26467   0.68004    0.000
 3846.00   -0.33556   0.69234    0.000
 3847.00   -0.45702   0.69790    0.000
 3848.00   -0.68305   0.70146    0.000
 3849.00   -1.16028   0.70397    0.000
 3850.00   -1.41626   0.70132    0.000
 3851.00   -1.21341   0.69511    0.000
 3852.00   -1.01098   0.68968    0.000
 3853.00   -0.80929   0.68254    0.000
 3854.00   -0.49462   0.67200    0.000
 3855.00   -0.00180   0.66166    0.000
 3856.00    0.28270   0.65233    0.000
 3857.00    0.27880   0.64432    0.000
 3858.00    0.10590   0.64211    0.000
 3859.00   -0.27293   0.64654    0.000
 3860.00   -0.36266   0.65419    0.000
 3861.00   -0.14186   0.66418    0.000
 3862.00    0.13403   0.67675    0.000
 3863.00    0.46213   0.68895    0.000
 3864.00    0.92139   0.69683    0.000
 3865.00    1.49022   0.69921    0.000
 3866.00    1.57104   0.69714    0.000
 3867.00    1.29293   0.69231    0.000
 3868.00    1.37717   0.68554    0.000
 3869.00    1.69546   0.67790    0.000
 3870.00    1.80214   0.67173    0.000
 3871.00    1.78922   0.66895    0.000
 3872.00    1.60553   0.66915    0.000
 3873.00    1.33785   0.67097    0.000
 3874.00    0.93342   0.67313    0.000
 3875.00    0.47084   0.67340    0.000
 3876.00    0.63859   0.67179    0.000
 3877.00    1.03595   0.67054    0.000
 3878.00    0.73967   0.66694    0.000
 3879.00    0.22956   0.65815    0.000
 3880.00   -0.02422   0.65109    0.000
 3881.00   -0.21220   0.64954    0.000
 3882.00   -0.07752   0.64482    0.000
 3883.00    0.12461   0.63421    0.009
 3884.00   -0.04967   0.62874    0.000
 3885.00   -0.28602   0.63074    0.000
 3886.00   -0.90427   0.63145    0.000
 3887.00   -1.56980   0.63412    0.000
 3888.00   -0.89254   0.64815    0.000
 3889.00   -0.10037   0.66926    0.000
 3890.00   -0.53623   0.69102    0.000
 3891.00   -1.03330   0.71490    0.000
 3892.00   -0.74963   0.73898    0.000
 3893.00   -0.45732   0.75909    0.000
 3894.00   -0.43323   0.77630    0.000
 3895.00   -0.41849   0.79053    0.000
 3896.00   -0.59493   0.79793    0.000
 3897.00   -0.69228   0.80275    0.000
 3898.00    0.14566   0.80967    0.009
 3899.00    0.90822   0.81320    0.009
 3900.00    1.05675   0.81113    0.008
 3901.00    1.21441   0.81168    0.008
 3902.00    1.42791   0.81644    0.008
 3903.00    1.59632   0.81777    0.008
 3904.00    1.54780   0.82009    0.008
 3905.00    1.45694   0.83145    0.008
 3906.00    1.20029   0.84612    0.008
 3907.00    0.99663   0.85965    0.008
 3908.00    0.96574   0.87664    0.008
 3909.00    0.94078   0.89626    0.008
 3910.00    0.93218   0.91051    0.008
 3911.00    0.89934   0.91791    0.009
 3912.00    0.80927   0.92221    0.009
 3913.00    0.73604   0.92111    0.009
 3914.00    0.69714   0.91109    0.009
 3915.00    0.62498   0.89614    0.009
 3916.00    0.49372   0.87918    0.010
 3917.00    0.49039   0.85792    0.010
 3918.00    0.68582   0.83452    0.010
 3919.00    0.78439   0.81250    0.010
 3920.00    0.75079   0.79111    0.010
 3921.00    0.70462   0.76893    0.010
 3922.00    0.64333   0.74660    0.010
 3923.00    0.28102   0.72257    0.010
 3924.00   -0.40007   0.69439    0.000
 3925.00   -0.72984   0.66127    0.000
 3926.00   -0.73141   0.62248    0.000
 3927.00   -0.32136   0.57982    0.000
 3928.00    0.42768   0.53581    0.010
 3929.00    0.18060   0.49299    0.010
 3930.00   -0.78861   0.45515    0.000
 3931.00   -1.03159   0.42581    0.000
 3932.00   -0.81240   0.40776    0.000
 3933.00   -0.44578   0.40289    0.000
 3934.00    0.00287   0.41139    0.010
 3935.00    0.51871   0.43173    0.010
 3936.00    1.06707   0.46241    0.010
 3937.00    0.83774   0.50011    0.010
 3938.00    0.28328   0.53986    0.010
 3939.00   -0.16901   0.58009    0.000
 3940.00   -0.58476   0.62016    0.000
 3941.00   -0.49818   0.65567    0.000
 3942.00   -0.25976   0.68688    0.000
 3943.00   -0.85151   0.71961    0.000
 3944.00   -1.65178   0.75176    0.000
 3945.00   -1.03029   0.77866    0.000
 3946.00   -0.11888   0.80461    0.000
 3947.00    0.26835   0.83280    0.009
 3948.00    0.57165   0.85800    0.009
 3949.00    0.09305   0.87594    0.010
 3950.00   -0.47890   0.88924    0.000
 3951.00   -0.46447   0.90223    0.000
 3952.00   -0.40229   0.91173    0.000
 3953.00   -0.65405   0.91083    0.000
 3954.00   -0.92023   0.90329    0.000
 3955.00   -0.84741   0.89443    0.000
 3956.00   -0.76226   0.87877    0.000
 3957.00   -0.25917   0.85264    0.000
 3958.00    0.23778   0.81893    0.009
 3959.00    0.61849   0.77922    0.009
 3960.00    0.94257   0.73437    0.000
 3961.00    0.62848   0.68440    0.000
 3962.00    0.28902   0.62972    0.000
 3963.00   -0.24987   0.57571    0.000
 3964.00   -0.64402   0.52672    0.000
 3965.00   -0.17935   0.48318    0.000
 3966.00    0.05620   0.44776    0.000
 3967.00   -0.78409   0.42519    0.000
 3968.00   -1.31296   0.41835    0.000
 3969.00   -0.64836   0.42769    0.000
 3970.00    0.01979   0.45226    0.000
 3971.00    0.69925   0.49059    0.000
 3972.00    1.11391   0.54101    0.000
 3973.00    0.81141   0.59955    0.000
 3974.00    0.61251   0.66076    0.000
 3975.00    0.65416   0.72228    0.000
 3976.00    0.63105   0.78225    0.000
 3977.00    0.47787   0.83674    0.000
 3978.00    0.10975   0.88413    0.000
 3979.00   -0.63434   0.92410    0.000
 3980.00   -0.65108   0.95660    0.000
 3981.00    0.44570   0.98340    0.010
 3982.00    0.81252   1.00577    0.010
 3983.00    0.19765   1.02422    0.010
 3984.00   -0.33171   1.03969    0.000
 3985.00   -0.75980   1.05554    0.000
 3986.00   -0.61960   1.07246    0.000
 3987.00    0.11401   1.08485    0.010
 3988.00    0.67474   1.09484    0.009
 3989.00    1.07625   1.10713    0.010
 3990.00    1.25743   1.11581    0.009
 3991.00    1.25972   1.11898    0.009
 3992.00    1.51649   1.12140    0.009
 3993.00    1.95507   1.12443    0.009
 3994.00    1.81525   1.12589    0.009
 3995.00    1.31277   1.12527    0.009
 3996.00    0.88215   1.12789    0.009
 3997.00    0.49093   1.13604    0.009
 3998.00    0.52355   1.14304    0.009
 3999.00    0.75806   1.14694    0.009
 4000.00    1.03812   1.15411    0.009
 4001.00    1.33689   1.16113    0.009
 4002.00    1.43982   1.15919    0.009
 4003.00    1.47397   1.15358    0.009
 4004.00    1.24449   1.15382    0.009
 4005.00    0.93689   1.15563    0.009
 4006.00    0.75060   1.15529    0.009
 4007.00    0.59411   1.16091    0.009
 4008.00    0.45706   1.17411    0.009
 4009.00    0.32387   1.18792    0.009
 4010.00    0.55205   1.20073    0.009
 4011.00    0.83637   1.21403    0.009
 4012.00    1.00000   1.22604    0.009
 4013.00    1.14975   1.23696    0.009
 4014.00    1.14356   1.24537    0.009
 4015.00    1.12532   1.24878    0.009
 4016.00    0.67700   1.25332    0.009
 4017.00    0.21057   1.25903    0.010
 4018.00    0.86732   1.25834    0.009
 4019.00    1.51547   1.25631    0.009
 4020.00    1.33704   1.25853    0.009
 4021.00    1.18535   1.25820    0.009
 4022.00    1.50511   1.25359    0.009
 4023.00    1.77796   1.25189    0.009
 4024.00    1.54609   1.25088    0.010
 4025.00    1.30281   1.24405    0.010
 4026.00    0.97295   1.23569    0.010
 4027.00    0.56650   1.22549    0.009
 4028.00   -0.28171   1.20771    0.000
 4029.00   -0.82606   1.18967    0.000
 4030.00    0.02212   1.17578    0.010
 4031.00    0.77516   1.16221    0.009
 4032.00    1.17130   1.15623    0.009
 4033.00    1.48589   1.16282    0.009
 4034.00    1.54480   1.17640    0.009
 4035.00    1.27723   1.19428    0.009
 4036.00    0.14113   1.21475    0.009
 4037.00   -0.50240   1.23294    0.000
 4038.00   -0.02120   1.24282    0.000
 4039.00    0.50857   1.24283    0.009
 4040.00    1.13436   1.23540    0.009
 4041.00    1.38282   1.21996    0.009
 4042.00    0.98123   1.19788    0.009
 4043.00    0.89357   1.17584    0.009
 4044.00    1.27946   1.16134    0.009
 4045.00    1.38436   1.15664    0.009
 4046.00    1.11679   1.15696    0.009
 4047.00    0.75313   1.16523    0.009
 4048.00    0.27730   1.18485    0.009
 4049.00    0.14876   1.20322    0.009
 4050.00    0.37777   1.21442    0.009
 4051.00    0.71211   1.22397    0.009
 4052.00    1.14210   1.22701    0.009
 4053.00    1.38027   1.22130    0.009
 4054.00    1.46492   1.21431    0.009
 4055.00    1.40366   1.20427    0.009
 4056.00    1.23966   1.19159    0.009
 4057.00    1.04729   1.18229    0.009
 4058.00    0.83739   1.17304    0.009
 4059.00    0.42762   1.16316    0.009
 4060.00   -0.09002   1.15443    0.000
 4061.00   -0.35681   1.14441    0.000
 4062.00   -0.50604   1.13861    0.000
 4063.00   -0.02012   1.13986    0.000
 4064.00    0.72241   1.13974    0.009
 4065.00    1.08771   1.14207    0.009
 4066.00    1.32294   1.15440    0.009
 4067.00    0.92413   1.16766    0.009
 4068.00    0.34121   1.17406    0.009
 4069.00    0.35020   1.17720    0.009
 4070.00    0.50137   1.18219    0.009
 4071.00    1.30880   1.18472    0.009
 4072.00    2.24338   1.17852    0.009
 4073.00    2.26610   1.17224    0.009
 4074.00    2.15142   1.17102    0.009
 4075.00    1.82188   1.16931    0.009
 4076.00    1.46859   1.17101    0.009
 4077.00    0.93302   1.17924    0.009
 4078.00    0.38410   1.19190    0.009
 4079.00    0.36041   1.21012    0.009
 4080.00    0.35683   1.22989    0.009
 4081.00    0.55957   1.24889    0.009
 4082.00    0.76299   1.26972    0.009
 4083.00    0.94894   1.28845    0.009
 4084.00    1.09653   1.30373    0.009
 4085.00    0.61186   1.32026    0.009
 4086.00    0.21332   1.33546    0.009
 4087.00    0.70109   1.34516    0.009
 4088.00    1.13540   1.35231    0.009
 4089.00    1.17744   1.35523    0.009
 4090.00    1.09851   1.34790    0.009
 4091.00    0.34096   1.33517    0.009
 4092.00   -0.08321   1.31840    0.000
 4093.00    0.98450   1.29069    0.000
 4094.00    1.61400   1.25933    0.000
 4095.00    0.63407   1.22877    0.000
 4096.00   -0.04626   1.19338    0.000
 4097.00    0.19477   1.15972    0.000
 4098.00    0.34523   1.13200    0.000
 4099.00    0.25893   1.10754    0.000
 4100.00    0.29263   1.09442    0.000
 4101.00    0.59581   1.09377    0.000
 4102.00    0.94246   1.09846    0.000
 4103.00    1.37372   1.11378    0.000
 4104.00    1.36586   1.13912    0.000
 4105.00    0.61292   1.16330    0.000
 4106.00    0.45469   1.18674    0.000
 4107.00    1.18050   1.21038    0.000
 4108.00    1.41837   1.22945    0.000
 4109.00    1.01867   1.24452    0.000
 4110.00    0.86732   1.25747    0.000
 4111.00    1.00183   1.26990    0.000
 4112.00    0.96407   1.28055    0.000
 4113.00    0.75143   1.28746    0.009
 4114.00    0.75399   1.29462    0.009
 4115.00    0.94921   1.30043    0.009
 4116.00    1.13223   1.29906    0.009
 4117.00    1.30563   1.29649    0.009
 4118.00    1.19175   1.29699    0.009
 4119.00    0.87852   1.29390    0.009
 4120.00    0.94904   1.28938    0.012
 4121.00    1.25305   1.28931    0.048
 4122.00    1.60785   1.29007   -1.000
 4123.00    1.98961   1.28838   -1.000
 4124.00    2.23411   1.28484   -1.000
 4125.00    2.41531   1.28028   -1.000
 4126.00    2.21677   1.27261   -1.000
 4127.00    1.86743   1.26130   -1.000
 4128.00    1.51074   1.24971    0.022
 4129.00    1.15157   1.23779    0.010
 4130.00    1.11113   1.22740    0.008
 4131.00    1.16139   1.22365    0.008
 4132.00    1.41180   1.22347    0.008
 4133.00    1.70920   1.22898    0.008
 4134.00    1.81826   1.24176    0.008
 4135.00    1.89176   1.25268    0.008
 4136.00    1.43096   1.26440    0.008
 4137.00    0.89214   1.27435    0.008
 4138.00    1.00815   1.27383    0.008
 4139.00    1.19375   1.26988    0.008
 4140.00    1.34125   1.26134    0.008
 4141.00    1.48611   1.24471    0.009
 4142.00    1.51995   1.23254    0.008
 4143.00    1.54996   1.22618    0.008
 4144.00    2.18913   1.21816    0.009
 4145.00    2.79964   1.21641    0.009
 4146.00    2.42334   1.22289    0.009
 4147.00    2.05748   1.22629    0.009
 4148.00    1.85313   1.22840    0.009
 4149.00    1.65300   1.23318    0.008
 4150.00    1.49453   1.23449    0.009
 4151.00    1.28789   1.23320    0.009
 4152.00    0.73928   1.23354    0.009
 4153.00    0.35599   1.23641    0.009
 4154.00    0.87521   1.24080    0.009
 4155.00    1.32486   1.24724    0.009
 4156.00    1.47039   1.25930    0.008
 4157.00    1.45596   1.27463    0.008
 4158.00    0.86621   1.28873    0.008
 4159.00    0.44676   1.30229    0.008
 4160.00    0.54117   1.31738    0.008
 4161.00    0.76569   1.32776    0.008
 4162.00    1.32431   1.32925    0.008
 4163.00    1.81112   1.33033    0.009
 4164.00    2.13931   1.32842    0.009
 4165.00    2.27926   1.31642    0.009
 4166.00    2.05861   1.30395    0.009
 4167.00    1.77051   1.29214    0.009
 4168.00    1.36966   1.27478    0.009
 4169.00    1.21533   1.25727    0.009
 4170.00    1.42210   1.24072    0.009
 4171.00    1.43346   1.22526    0.009
 4172.00    1.19313   1.21376    0.009
 4173.00    1.16189   1.20458    0.009
 4174.00    1.36793   1.20077    0.009
 4175.00    1.57600   1.20224    0.009
 4176.00    1.78612   1.20547    0.009
 4177.00    2.16311   1.21364    0.009
 4178.00    2.68741   1.22402    0.009
 4179.00    2.50236   1.23173    0.009
 4180.00    1.76561   1.24174    0.009
 4181.00    1.52875   1.25212    0.009
 4182.00    1.63374   1.25732    0.009
 4183.00    1.80438   1.26449    0.009
 4184.00    2.01435   1.27162    0.009
 4185.00    1.81774   1.27220    0.009
 4186.00    1.40846   1.27608    0.009
 4187.00    1.78754   1.28367    0.009
 4188.00    2.52420   1.28608    0.009
 4189.00    2.82985   1.28738    0.009
 4190.00    2.96732   1.29181    0.009
 4191.00    2.66968   1.29408    0.009
 4192.00    2.22753   1.28885    0.009
 4193.00    1.84636   1.27884    0.009
 4194.00    1.48218   1.26922    0.009
 4195.00    1.36037   1.25667    0.008
 4196.00    1.29417   1.23808    0.008
 4197.00    1.15817   1.22428    0.008
 4198.00    1.00935   1.21946    0.008
 4199.00    1.17088   1.21331    0.008
 4200.00    1.37630   1.21283    0.008
 4201.00    1.68832   1.22636    0.008
 4202.00    2.01120   1.24067    0.008
 4203.00    1.83516   1.25625    0.008
 4204.00    1.62662   1.27976    0.008
 4205.00    1.80182   1.30108    0.008
 4206.00    1.98842   1.31941    0.008
 4207.00    1.91842   1.33625    0.008
 4208.00    1.84658   1.34656    0.008
 4209.00    1.72032   1.35398    0.008
 4210.00    1.60835   1.35665    0.008
 4211.00    1.70430   1.35402    0.008
 4212.00    1.76962   1.35371    0.008
 4213.00    1.54531   1.35115    0.008
 4214.00    1.38526   1.34857    0.008
 4215.00    1.66694   1.35449    0.008
 4216.00    1.88370   1.35878    0.008
 4217.00    1.75546   1.35873    0.008
 4218.00    1.59007   1.36046    0.008
 4219.00    1.26597   1.35513    0.008
 4220.00    1.12368   1.33669    0.008
 4221.00    1.62191   1.31007    0.008
 4222.00    1.88449   1.27916    0.008
 4223.00    1.44926   1.24627    0.008
 4224.00    1.09025   1.21248    0.008
 4225.00    0.92357   1.18807    0.008
 4226.00    1.07730   1.18380    0.008
 4227.00    1.92729   1.18686    0.008
 4228.00    2.45650   1.19633    0.008
 4229.00    2.38076   1.22500    0.008
 4230.00    2.26874   1.25169    0.008
 4231.00    2.09699   1.26718    0.008
 4232.00    1.95364   1.29020    0.007
 4233.00    1.85131   1.30665    0.008
 4234.00    1.83683   1.30814    0.008
 4235.00    1.93391   1.31756    0.008
 4236.00    1.97201   1.32996    0.008
 4237.00    1.94411   1.33443    0.008
 4238.00    1.88113   1.34656    0.008
 4239.00    1.78352   1.36749    0.007
 4240.00    1.98438   1.38184    0.007
 4241.00    2.44501   1.39379    0.008
 4242.00    2.71869   1.40934    0.008
 4243.00    2.84905   1.41620    0.008
 4244.00    2.74147   1.41267    0.008
 4245.00    2.47352   1.40548    0.008
 4246.00    2.47372   1.39353    0.008
 4247.00    2.63223   1.37746    0.008
 4248.00    2.72779   1.35771    0.008
 4249.00    2.79094   1.34080    0.008
 4250.00    2.53750   1.33120    0.008
 4251.00    2.14281   1.32159    0.008
 4252.00    1.76651   1.31512    0.008
 4253.00    1.39725   1.31616    0.008
 4254.00    1.59519   1.31899    0.008
 4255.00    1.97797   1.32142    0.008
 4256.00    1.72197   1.32434    0.008
 4257.00    1.29160   1.33167    0.008
 4258.00    1.40121   1.34062    0.008
 4259.00    1.63182   1.34785    0.008
 4260.00    1.99455   1.36258    0.008
 4261.00    2.38092   1.38094    0.008
 4262.00    2.13248   1.39333    0.008
 4263.00    1.79719   1.40620    0.008
 4264.00    1.85454   1.41644    0.008
 4265.00    1.95024   1.41178    0.008
 4266.00    1.92229   1.39636    0.008
 4267.00    1.88677   1.37725    0.008
 4268.00    1.56312   1.34966    0.008
 4269.00    1.23181   1.31395    0.008
 4270.00    0.92411   1.28620    0.008
 4271.00    0.63750   1.27044    0.008
 4272.00    0.90880   1.25574    0.008
 4273.00    1.19624   1.25457    0.008
 4274.00    1.70560   1.27225    0.008
 4275.00    2.17759   1.28847    0.008
 4276.00    2.31007   1.30887    0.008
 4277.00    2.38573   1.33522    0.009
 4278.00    2.08282   1.35094    0.009
 4279.00    1.82604   1.36383    0.009
 4280.00    1.80804   1.37185    0.009
 4281.00    1.69855   1.36796    0.008
 4282.00    1.20714   1.36425   -2.000
 4283.00    0.83981   1.35433   -2.000
 4284.00    0.90085   1.33652   -2.000
 4285.00    0.77972   1.32328   -2.000
 4286.00    0.12909   1.30761   -2.000
 4287.00    0.09369   1.28897   -2.000
 4288.00    1.58428   1.27800   -2.000
 4289.00    2.43440   1.26927   -2.000
 4290.00    1.91532   1.26135   -2.000
 4291.00    1.48690   1.25831   -2.000
 4292.00    1.22680   1.25251   -2.000
 4293.00    0.77449   1.24546   -2.000
 4294.00    0.01044   1.23499   -2.000
 4295.00    0.10086   1.21383   -2.000
 4296.00    1.40687   1.19210   -2.000
 4297.00    2.09276   1.16536   -2.000
 4298.00    2.00252   1.13252    0.008
 4299.00    1.94734   1.10811    0.008
 4300.00    1.93082   1.08253    0.009
 4301.00    2.02796   1.05837    0.009
 4302.00    2.23567   1.04699    0.009
 4303.00    2.04818   1.03431    0.008
 4304.00    1.52159   1.02489    0.008
 4305.00    1.34345   1.02679    0.008
 4306.00    1.42862   1.02914    0.008
 4307.00    1.72439   1.03999    0.008
 4308.00    2.16000   1.06487    0.008
 4309.00    2.15505   1.09573    0.008
 4310.00    1.89390   1.13923    0.008
 4311.00    1.78761   1.19779    0.008
 4312.00    1.75981   1.25907    0.008
 4313.00    2.07500   1.32365    0.008
 4314.00    2.54069   1.39407    0.008
 4315.00    2.65047   1.45288    0.008
 4316.00    2.62617   1.49690    0.008
 4317.00    2.45942   1.53407    0.008
 4318.00    2.24713   1.54933    0.008
 4319.00    1.99187   1.54285    0.008
 4320.00    1.72514   1.52972    0.008
 4321.00    1.32884   1.50354    0.008
 4322.00    0.90419   1.47128    0.008
 4323.00    1.23700   1.44777    0.008
 4324.00    1.70157   1.43001    0.008
 4325.00    1.91077   1.42498    0.008
 4326.00    2.08619   1.43568    0.008
 4327.00    2.02023   1.45514    0.008
 4328.00    1.93171   1.48238    0.008
 4329.00    2.53486   1.51188    0.008
 4330.00    3.17756   1.53762    0.000
 4331.00    2.57561   1.55313    0.000
 4332.00    1.94846   1.55532    0.000
 4333.00    1.75384   1.54851    0.000
 4334.00    1.59634   1.52844    0.000
 4335.00    2.32985   1.49239    0.000
 4336.00    2.96718   1.45689    0.000
 4337.00    2.35246   1.42570    0.000
 4338.00    1.83053   1.38972    0.000
 4339.00    2.11917   1.36829    0.000
 4340.00    2.40414   1.37001    0.000
 4341.00    2.66535   1.37477    0.000
 4342.00    2.86148   1.39074    0.000
 4343.00    2.72924   1.42650    0.000
 4344.00    2.52891   1.45851    0.000
 4345.00    2.05067   1.48373    0.000
 4346.00    1.64450   1.51189    0.000
 4347.00    1.48213   1.53152    0.000
 4348.00    1.41108   1.53861    0.000
 4349.00    1.60059   1.54038    0.000
 4350.00    1.73847   1.54041    0.000
 4351.00    1.75045   1.54068    0.008
 4352.00    1.83318   1.53921    0.008
 4353.00    2.06473   1.54081    0.008
 4354.00    2.45222   1.55278    0.009
 4355.00    3.12482   1.56797    0.025
 4356.00    3.38340   1.58162   -1.000
 4357.00    2.98046   1.59970   -1.000
 4358.00    2.66862   1.62127   -1.000
 4359.00    2.48453   1.63969   -1.000
 4360.00    2.32985   1.65497   -1.000
 4361.00    2.21147   1.66941   -1.000
 4362.00    2.12885   1.68179    0.033
 4363.00    2.08513   1.68858    0.011
 4364.00    1.91081   1.68778    0.008
 4365.00    1.61121   1.68235    0.008
 4366.00    1.39986   1.67412    0.008
 4367.00    1.26317   1.66059    0.008
 4368.00    1.43321   1.64133    0.008
 4369.00    1.83171   1.62276    0.008
 4370.00    2.11331   1.60708    0.008
 4371.00    2.31842   1.58928    0.008
 4372.00    2.37373   1.57316    0.008
 4373.00    2.34324   1.56259    0.008
 4374.00    2.24557   1.55331    0.008
 4375.00    2.11438   1.54379    0.008
 4376.00    2.13116   1.53439    0.008
 4377.00    2.21181   1.52285    0.008
 4378.00    2.01043   1.50571    0.008
 4379.00    1.70469   1.48425    0.008
 4380.00    1.54120   1.45869    0.008
 4381.00    1.42232   1.42891    0.008
 4382.00    1.77736   1.40494    0.008
 4383.00    2.25638   1.38969    0.008
 4384.00    2.35318   1.37975    0.008
 4385.00    2.36833   1.38059    0.008
 4386.00    2.18853   1.39510    0.008
 4387.00    1.97575   1.41765    0.008
 4388.00    2.02837   1.44066    0.008
 4389.00    2.11489   1.46578    0.008
 4390.00    1.98697   1.49363    0.008
 4391.00    1.83992   1.51787    0.008
 4392.00    1.77361   1.53924    0.008
 4393.00    1.71160   1.55907    0.008
 4394.00    2.19316   1.57703    0.008
 4395.00    2.68329   1.59003    0.008
 4396.00    3.00534   1.59487    0.008
 4397.00    3.29128   1.59847    0.008
 4398.00    2.78358   1.59627    0.008
 4399.00    2.28017   1.58291    0.008
 4400.00    1.82974   1.57014    0.008
 4401.00    1.47040   1.55420    0.008
 4402.00    1.87729   1.53278    0.008
 4403.00    2.27321   1.52184    0.008
 4404.00    2.60037   1.51879    0.008
 4405.00    2.80847   1.51446    0.008
 4406.00    2.43105   1.52030    0.008
 4407.00    2.11449   1.54128    0.008
 4408.00    2.04093   1.56382    0.008
 4409.00    1.96704   1.58247    0.008
 4410.00    1.89206   1.60416    0.008
 4411.00    1.82874   1.62685    0.008
 4412.00    1.79808   1.63865    0.008
 4413.00    1.85412   1.64466    0.008
 4414.00    2.11796   1.65595    0.008
 4415.00    2.32480   1.66075    0.008
 4416.00    2.41367   1.66116    0.008
 4417.00    2.55852   1.67132    0.008
 4418.00    2.80414   1.67969    0.008
 4419.00    2.87967   1.68363    0.008
 4420.00    2.68743   1.68944    0.008
 4421.00    2.45392   1.69313    0.008
 4422.00    2.16338   1.69400    0.008
 4423.00    2.07677   1.69142    0.008
 4424.00    2.23820   1.68955    0.008
 4425.00    2.39248   1.68853    0.008
 4426.00    2.53908   1.68535    0.008
 4427.00    2.32027   1.68272    0.008
 4428.00    1.75584   1.67650    0.008
 4429.00    1.86355   1.67261    0.008
 4430.00    2.53176   1.67122    0.008
 4431.00    2.67746   1.66299    0.008
 4432.00    2.43956   1.66035    0.008
 4433.00    2.56043   1.66358    0.008
 4434.00    2.91260   1.66574    0.008
 4435.00    3.02987   1.67259    0.008
 4436.00    3.01464   1.68069    0.008
 4437.00    3.02509   1.69108    0.008
 4438.00    3.04814   1.70359    0.008
 4439.00    2.85142   1.71160    0.008
 4440.00    2.56146   1.71936    0.008
 4441.00    2.45899   1.72736    0.008
 4442.00    2.42467   1.73294    0.008
 4443.00    2.60922   1.74126    0.008
 4444.00    2.86107   1.75121    0.008
 4445.00    2.94384   1.75799    0.008
 4446.00    2.98332   1.76756    0.008
 4447.00    2.79257   1.77389    0.008
 4448.00    2.55384   1.76749    0.008
 4449.00    2.24597   1.76096    0.008
 4450.00    1.92674   1.75029    0.008
 4451.00    1.78812   1.72695    0.008
 4452.00    1.67176   1.70356    0.008
 4453.00    1.66385   1.67999    0.008
 4454.00    1.66516   1.65463    0.008
 4455.00    1.81650   1.63274    0.008
 4456.00    1.97523   1.61392    0.008
 4457.00    2.45162   1.60224    0.008
 4458.00    2.92684   1.59989    0.008
 4459.00    3.01163   1.60020    0.008
 4460.00    3.07336   1.60477    0.008
 4461.00    2.66784   1.62052    0.000
 4462.00    2.32085   1.63596    0.000
 4463.00    2.66176   1.64999    0.000
 4464.00    2.96031   1.67216    0.000
 4465.00    2.91537   1.69204    0.000
 4466.00    2.87145   1.70847    0.000
 4467.00    2.83374   1.72681    0.000
 4468.00    2.82244   1.74645    0.000
 4469.00    2.93787   1.76748    0.000
 4470.00    2.98245   1.78730    0.000
 4471.00    2.75033   1.80950    0.000
 4472.00    2.59536   1.83251    0.000
 4473.00    2.69123   1.85041    0.000
 4474.00    2.80563   1.86562    0.000
 4475.00    2.97099   1.87673    0.000
 4476.00    3.03395   1.87930    0.000
 4477.00    2.85558   1.87645    0.000
 4478.00    2.68561   1.87207    0.000
 4479.00    2.53276   1.86615    0.000
 4480.00    2.51387   1.85864    0.000
 4481.00    2.73247   1.85443    0.000
 4482.00    2.71744   1.85464    0.008
 4483.00    2.34008   1.85567    0.008
 4484.00    2.09642   1.86012    0.008
 4485.00    2.03484   1.86415    0.008
 4486.00    2.38273   1.86343    0.008
 4487.00    3.22163   1.86084    0.008
 4488.00    3.38610   1.85627    0.008
 4489.00    2.83758   1.84888    0.008
 4490.00    2.58589   1.84098    0.008
 4491.00    2.61101   1.83515    0.008
 4492.00    2.42852   1.83149    0.008
 4493.00    2.07535   1.83297    0.008
 4494.00    2.14241   1.83786    0.008
 4495.00    2.51357   1.84464    0.008
 4496.00    2.77863   1.85919    0.008
 4497.00    2.97630   1.87756    0.008
 4498.00    3.00646   1.89917    0.008
 4499.00    2.94358   1.92330    0.008
 4500.00    3.01486   1.94730    0.008
 4501.00    3.15097   1.97334    0.008
 4502.00    3.23264   1.99345    0.008
 4503.00    3.29160   2.01072    0.008
 4504.00    2.89110   2.02864    0.008
 4505.00    2.32661   2.03779    0.008
 4506.00    2.40058   2.04153    0.008
 4507.00    2.66704   2.04144    0.008
 4508.00    2.80217   2.03606    0.008
 4509.00    2.90439   2.02858    0.008
 4510.00    2.83439   2.01702    0.008
 4511.00    2.72938   2.00485    0.008
 4512.00    2.81698   1.99339    0.008
 4513.00    2.93532   1.97983    0.008
 4514.00    2.91544   1.97029    0.008
 4515.00    2.87912   1.96157    0.008
 4516.00    3.46858   1.95279    0.008
 4517.00    4.10867   1.95012    0.008
 4518.00    3.31097   1.94299    0.008
 4519.00    2.44789   1.93293    0.008
 4520.00    2.87310   1.92304    0.008
 4521.00    3.29711   1.90554    0.008
 4522.00    2.85201   1.88721    0.008
 4523.00    2.44195   1.86229    0.008
 4524.00    2.68942   1.83165    0.008
 4525.00    2.89570   1.80763    0.008
 4526.00    2.64044   1.78214    0.008
 4527.00    2.41897   1.75892    0.008
 4528.00    2.46202   1.74492    0.008
 4529.00    2.56238   1.73485    0.008
 4530.00    3.00153   1.73507    0.008
 4531.00    3.29267   1.74129    0.008
 4532.00    2.89091   1.75044    0.008
 4533.00    2.43477   1.76923    0.008
 4534.00    1.77078   1.78866    0.008
 4535.00    1.53489   1.81098    0.008
 4536.00    2.66403   1.83353    0.008
 4537.00    3.46653   1.85281    0.008
 4538.00    3.38636   1.87505    0.008
 4539.00    3.29489   1.88980    0.008
 4540.00    3.17725   1.89779    0.008
 4541.00    3.04657   1.90411    0.008
 4542.00    2.88976   1.90302    0.008
 4543.00    2.79578   1.90112    0.008
 4544.00    2.81148   1.90007    0.008
 4545.00    2.66730   1.89191    0.008
 4546.00    2.27878   1.88442    0.008
 4547.00    2.12828   1.87945    0.008
 4548.00    2.29731   1.87423    0.008
 4549.00    2.66811   1.87365    0.008
 4550.00    3.27744   1.87121    0.000
 4551.00    3.27444   1.87318    0.000
 4552.00    2.63317   1.88375    0.000
 4553.00    2.55357   1.89268    0.000
 4554.00    2.99038   1.90613    0.000
 4555.00    3.06057   1.92426    0.000
 4556.00    2.83364   1.93990    0.000
 4557.00    2.68113   1.95741    0.000
 4558.00    2.58169   1.97366    0.000
 4559.00    3.02335   1.98387    0.000
 4560.00    3.80366   1.99232    0.000
 4561.00    3.34210   1.99455    0.000
 4562.00    2.20129   1.99433    0.000
 4563.00    2.05118   1.99667    0.000
 4564.00    2.37201   1.99400    0.000
 4565.00    2.78018   1.99390    0.000
 4566.00    3.22417   1.99788    0.000
 4567.00    3.19802   1.99940    0.000
 4568.00    3.00713   2.00569    0.000
 4569.00    3.06271   2.01005    0.000
 4570.00    3.19112   2.01134    0.000
 4571.00    2.98875   2.01703    0.000
 4572.00    2.70535   2.01510    0.000
 4573.00    3.08009   2.01069    0.000
 4574.00    3.58526   2.01122    0.000
 4575.00    3.22517   2.00419    0.000
 4576.00    2.73114   1.99208    0.000
 4577.00    2.77609   1.98053    0.000
 4578.00    2.88273   1.96769    0.000
 4579.00    3.07285   1.95528    0.000
 4580.00    3.26938   1.94546    0.000
 4581.00    2.49385   1.93766    0.000
 4582.00    1.67785   1.93423    0.000
 4583.00    2.23206   1.93826    0.000
 4584.00    2.78015   1.94287    0.000
 4585.00    2.55452   1.94959    0.000
 4586.00    2.38036   1.95944    0.000
 4587.00    3.10561   1.96562    0.000
 4588.00    3.69980   1.97144    0.000
 4589.00    2.89171   1.97550    0.000
 4590.00    2.19715   1.97443    0.000
 4591.00    2.36078   1.97120    0.000
 4592.00    2.52135   1.96628    0.000
 4593.00    2.66432   1.95868    0.000
 4594.00    2.73246   1.95425    0.000
 4595.00    2.45868   1.95228    0.000
 4596.00    2.29827   1.94806    0.000
 4597.00    2.56197   1.94943    0.000
 4598.00    2.72209   1.95161    0.000
 4599.00    2.55825   1.95445    0.000
 4600.00    2.46598   1.96439    0.000
 4601.00    2.56366   1.97125    0.000
 4602.00    2.74729   1.98207    0.000
 4603.00    3.12677   1.99762    0.000
 4604.00    3.26871   2.01242    0.000
 4605.00    2.94196   2.03135    0.000
 4606.00    2.75970   2.04799    0.000
 4607.00    2.82584   2.06443    0.000
 4608.00    2.80620   2.08087    0.000
 4609.00    2.65738   2.09224    0.000
 4610.00    2.76353   2.10320    0.000
 4611.00    3.20704   2.10947    0.000
 4612.00    3.60441   2.11067    0.000
 4613.00    3.94801   2.11540    0.000
 4614.00    3.62349   2.11654    0.000
 4615.00    2.61233   2.11701    0.000
 4616.00    2.52797   2.12146    0.000
 4617.00    3.28374   2.12141    0.000
 4618.00    3.37923   2.12334    0.000
 4619.00    2.94720   2.12743    0.000
 4620.00    2.69784   2.12678    0.000
 4621.00    2.57686   2.12776    0.000
 4622.00    2.65407   2.12999    0.000
 4623.00    2.85348   2.12813    0.000
 4624.00    2.75690   2.12700    0.000
 4625.00    2.50093   2.12537    0.000
 4626.00    2.56212   2.12106    0.000
 4627.00    2.77167   2.11758    0.000
 4628.00    2.94814   2.11338    0.000
 4629.00    3.11126   2.10807    0.000
 4630.00    3.40928   2.09980    0.000
 4631.00    3.75371   2.08966    0.000
 4632.00    3.25034   2.08200    0.000
 4633.00    2.50140   2.07055    0.000
 4634.00    2.62639   2.05709    0.000
 4635.00    2.96068   2.04564    0.000
 4636.00    3.06050   2.03355    0.000
 4637.00    3.11503   2.02514    0.000
 4638.00    2.47320   2.01587    0.000
 4639.00    1.72686   2.00607    0.000
 4640.00    1.92094   1.99957    0.000
 4641.00    2.21852   1.99063    0.000
 4642.00    2.02550   1.98278    0.000
 4643.00    1.79680   1.97627    0.000
 4644.00    2.12789   1.96710    0.000
 4645.00    2.48015   1.96125    0.000
 4646.00    2.52182   1.95997    0.000
 4647.00    2.57400   1.95882    0.000
 4648.00    3.07403   1.96339    0.000
 4649.00    3.52883   1.97279    0.000
 4650.00    3.24421   1.98255    0.000
 4651.00    3.00165   1.99687    0.000
 4652.00    3.18945   2.00976    0.000
 4653.00    3.34734   2.02266    0.000
 4654.00    3.28654   2.03918    0.000
 4655.00    3.23245   2.05139    0.000
 4656.00    3.21589   2.06356    0.000
 4657.00    3.14265   2.07357    0.000
 4658.00    2.81657   2.07816    0.000
 4659.00    2.59739   2.07910    0.000
 4660.00    2.76979   2.07249    0.000
 4661.00    2.98582   2.05970    0.000
 4662.00    3.33569   2.04034    0.000
 4663.00    3.52093   2.01634    0.000
 4664.00    3.27683   1.99281    0.000
 4665.00    3.05378   1.97259    0.000
 4666.00    2.87792   1.95877    0.000
 4667.00    2.80175   1.95083    0.000
 4668.00    2.91920   1.94765    0.000
 4669.00    2.95412   1.95426    0.000
 4670.00    2.84928   1.96826    0.000
 4671.00    2.76392   1.98420    0.000
 4672.00    2.70745   2.00222    0.000
 4673.00    2.77894   2.01629    0.000
 4674.00    3.01732   2.02711    0.000
 4675.00    3.32003   2.03561    0.000
 4676.00    3.69663   2.03935    0.000
 4677.00    3.49888   2.04164    0.000
 4678.00    2.71913   2.04047    0.000
 4679.00    2.54514   2.03776    0.000
 4680.00    2.91254   2.03595    0.000
 4681.00    2.82252   2.03544    0.000
 4682.00    2.37224   2.03739    0.000
 4683.00    2.32113   2.03908    0.000
 4684.00    2.54651   2.04294    0.000
 4685.00    2.77096   2.04754    0.000
 4686.00    2.99484   2.05054    0.000
 4687.00    2.90457   2.05441    0.000
 4688.00    2.64773   2.05776    0.000
 4689.00    2.46408   2.06071    0.000
 4690.00    2.31412   2.06495    0.000
 4691.00    2.52045   2.06823    0.000
 4692.00    2.86795   2.06967    0.000
 4693.00    3.14985   2.07095    0.000
 4694.00    3.40959   2.06833    0.000
 4695.00    3.47185   2.06321    0.000
 4696.00    3.47806   2.05698    0.000
 4697.00    3.10419   2.04715    0.000
 4698.00    2.64135   2.03624    0.000
 4699.00    2.51378   2.02237    0.000
 4700.00    2.44930   2.01067    0.000
 4701.00    2.78721   2.00368    0.000
 4702.00    3.18364   1.99759    0.000
 4703.00    3.13805   1.99320    0.000
 4704.00    3.04573   1.99073    0.000
 4705.00    2.66100   1.99204    0.000
 4706.00    2.25618   1.99764    0.000
 4707.00    1.98204   2.00524    0.000
 4708.00    1.71234   2.01206    0.000
 4709.00    1.91127   2.02237    0.000
 4710.00    2.11594   2.03342    0.000
 4711.00    2.48358   2.04660    0.000
 4712.00    2.82412   2.06491    0.000
 4713.00    2.74875   2.08105    0.000
 4714.00    2.68917   2.09886    0.000
 4715.00    2.78437   2.11704    0.000
 4716.00    2.90107   2.13461    0.000
 4717.00    3.16970   2.15484    0.000
 4718.00    3.36052   2.16982    0.000
 4719.00    3.12804   2.18009    0.000
 4720.00    2.86149   2.18754    0.000
 4721.00    2.44648   2.18902    0.000
 4722.00    2.19890   2.18574    0.000
 4723.00    2.55194   2.17438    0.000
 4724.00    2.86722   2.15825    0.000
 4725.00    3.06884   2.14185    0.000
 4726.00    3.14602   2.12418    0.000
 4727.00    2.90435   2.10681    0.000
 4728.00    2.86796   2.09108    0.000
 4729.00    3.28411   2.07968    0.000
 4730.00    3.39631   2.07509    0.000
 4731.00    2.92741   2.07712    0.000
 4732.00    2.56713   2.08018    0.000
 4733.00    2.38806   2.08724    0.000
 4734.00    2.41132   2.09869    0.000
 4735.00    2.73043   2.10911    0.000
 4736.00    3.03482   2.12176    0.000
 4737.00    3.32030   2.13155    0.000
 4738.00    3.28291   2.14027    0.000
 4739.00    2.87979   2.15313    0.000
 4740.00    2.74503   2.16329    0.000
 4741.00    2.87838   2.17132    0.000
 4742.00    3.02867   2.18050    0.000
 4743.00    3.19389   2.18846    0.000
 4744.00    3.17376   2.19700    0.000
 4745.00    3.00973   2.20363    0.000
 4746.00    3.10167   2.20650    0.000
 4747.00    3.36834   2.20911    0.000
 4748.00    3.21673   2.20845    0.000
 4749.00    2.81486   2.20508    0.000
 4750.00    2.61862   2.19885    0.000
 4751.00    2.52972   2.19163    0.000
 4752.00    2.88851   2.18319    0.000
 4753.00    3.44996   2.17333    0.000
 4754.00    3.70029   2.16448    0.000
 4755.00    3.82948   2.15481    0.000
 4756.00    3.47787   2.14704    0.000
 4757.00    2.96695   2.13748    0.000
 4758.00    2.88903   2.12659    0.000
 4759.00    2.93149   2.11654    0.000
 4760.00    3.14898   2.10561    0.000
 4761.00    3.40651   2.09563    0.007
 4762.00    3.19973   2.08519    0.007
 4763.00    2.90791   2.07733    0.007
 4764.00    2.79147   2.07437    0.007
 4765.00    2.69972   2.07660    0.007
 4766.00    3.10189   2.08335    0.007
 4767.00    3.55415   2.09155    0.007
 4768.00    3.33054   2.10528    0.007
 4769.00    3.06324   2.12150    0.007
 4770.00    2.84628   2.14015    0.007
 4771.00    2.63156   2.15896    0.007
 4772.00    2.77697   2.17269    0.007
 4773.00    2.91087   2.18713    0.007
 4774.00    2.71117   2.19847    0.007
 4775.00    2.53554   2.20711    0.007
 4776.00    2.70780   2.21260    0.007
 4777.00    2.85033   2.21138    0.007
 4778.00    2.71312   2.20853    0.007
 4779.00    2.60130   2.20121    0.007
 4780.00    2.66334   2.19177    0.007
 4781.00    2.74111   2.18291    0.007
 4782.00    2.90220   2.17042    0.007
 4783.00    2.97530   2.16110    0.007
 4784.00    2.67361   2.15367    0.007
 4785.00    2.56757   2.14811    0.007
 4786.00    3.14905   2.14967    0.007
 4787.00    3.59358   2.15164    0.007
 4788.00    3.63349   2.15893    0.007
 4789.00    3.54408   2.17152    0.007
 4790.00    3.12900   2.18437    0.007
 4791.00    2.91063   2.20037    0.007
 4792.00    3.11882   2.21453    0.007
 4793.00    3.27904   2.22679    0.007
 4794.00    3.34895   2.23695    0.007
 4795.00    3.42786   2.24313    0.007
 4796.00    3.52156   2.24632    0.007
 4797.00    3.39600   2.24707    0.007
 4798.00    2.95452   2.24612    0.007
 4799.00    2.66663   2.24292    0.007
 4800.00    2.57338   2.23884    0.007
 4801.00    2.49645   2.23369    0.007
 4802.00    2.43776   2.23105    0.007
 4803.00    2.47369   2.22780    0.007
 4804.00    2.60283   2.22355    0.007
 4805.00    2.54834   2.22088    0.007
 4806.00    2.33434   2.21769    0.007
 4807.00    2.53073   2.21783    0.007
 4808.00    3.04117   2.21928    0.007
 4809.00    3.08218   2.22220    0.007
 4810.00    2.80742   2.22911    0.007
 4811.00    2.66085   2.23711    0.007
 4812.00    2.58981   2.24667    0.007
 4813.00    2.81954   2.25724    0.007
 4814.00    3.20382   2.26579    0.007
 4815.00    3.33389   2.27488    0.007
 4816.00    3.35079   2.28094    0.007
 4817.00    3.22880   2.28401    0.007
 4818.00    3.05368   2.28485    0.007
 4819.00    2.84922   2.27865    0.007
 4820.00    2.63524   2.27227    0.007
 4821.00    2.64828   2.26551    0.007
 4822.00    2.72312   2.25663    0.007
 4823.00    2.91074   2.24798    0.007
 4824.00    3.12356   2.23721    0.007
 4825.00    2.84140   2.22917    0.007
 4826.00    2.47101   2.22588    0.007
 4827.00    2.18842   2.22161    0.007
 4828.00    1.91779   2.21759    0.007
 4829.00    2.24499   2.21598    0.007
 4830.00    2.63028   2.21481    0.007
 4831.00    2.58367   2.21544    0.007
 4832.00    2.51086   2.21439    0.007
 4833.00    2.84524   2.21375    0.007
 4834.00    3.18931   2.21377    0.008
 4835.00    3.33508   2.21182    0.007
 4836.00    3.47570   2.20988    0.007
 4837.00    3.48180   2.20755    0.007
 4838.00    3.49575   2.20600    0.007
 4839.00    3.61691   2.20216    0.007
 4840.00    3.70247   2.20005    0.007
 4841.00    3.46621   2.20077    0.007
 4842.00    3.26286   2.20176    0.007
 4843.00    3.27789   2.20368    0.007
 4844.00    3.21085   2.20264    0.007
 4845.00    2.72034   2.20249    0.007
 4846.00    2.40431   2.20383    0.007
 4847.00    2.81460   2.20043    0.007
 4848.00    3.12476   2.19395    0.000
 4849.00    3.09011   2.18327    0.000
 4850.00    3.01655   2.16718    0.000
 4851.00    2.83017   2.14722    0.000
 4852.00    2.79071   2.12305    0.000
 4853.00    3.11485   2.09697    0.000
 4854.00    3.21861   2.06620    0.000
 4855.00    2.85221   2.03009    0.000
 4856.00    2.81966   1.99202    0.000
 4857.00    3.40577   1.95521    0.000
 4858.00    3.72451   1.92801    0.000
 4859.00    3.61045   1.90864    0.000
 4860.00    3.52703   1.89340    0.000
 4861.00    3.48713   1.88801    0.000
 4862.00    3.15853   1.88998    0.000
 4863.00    2.46927   1.90317    0.000
 4864.00    2.09149   1.92362    0.000
 4865.00    2.05668   1.94536    0.000
 4866.00    2.21397   1.96805    0.000
 4867.00    2.55785   1.98501    0.000
 4868.00    2.70524   2.00202    0.000
 4869.00    2.68436   2.01859    0.000
 4870.00    2.74488   2.03364    0.000
 4871.00    2.86679   2.04717    0.000
 4872.00    2.99857   2.05929    0.000
 4873.00    3.13687   2.07593    0.000
 4874.00    3.11030   2.09349    0.000
 4875.00    2.98804   2.11367    0.007
 4876.00    2.94735   2.13199    0.007
 4877.00    2.94791   2.14525    0.007
 4878.00    2.74769   2.15724    0.007
 4879.00    2.45956   2.16421    0.007
 4880.00    2.58551   2.16758    0.007
 4881.00    2.86709   2.16485    0.007
 4882.00    2.97591   2.15600    0.007
 4883.00    3.02964   2.14735    0.007
 4884.00    2.98249   2.13821    0.007
 4885.00    2.90846   2.12870    0.007
 4886.00    2.79419   2.12232    0.007
 4887.00    2.67114   2.11764    0.007
 4888.00    2.55708   2.12413    0.007
 4889.00    2.44458   2.13781    0.007
 4890.00    2.61259   2.15640    0.007
 4891.00    2.81753   2.18206    0.007
 4892.00    2.98400   2.20739    0.007
 4893.00    3.14690   2.23789    0.007
 4894.00    3.09550   2.26769    0.007
 4895.00    3.03196   2.29280    0.007
 4896.00    3.04846   2.31313    0.007
 4897.00    3.06409   2.32681    0.007
 4898.00    2.78438   2.33405    0.007
 4899.00    2.52353   2.33513    0.007
 4900.00    2.71053   2.33281    0.007
 4901.00    2.88124   2.32868    0.007
 4902.00    2.84130   2.32451    0.007
 4903.00    2.79908   2.31736    0.007
 4904.00    2.73697   2.30888    0.007
 4905.00    2.70994   2.30104    0.007
 4906.00    2.90858   2.29262    0.007
 4907.00    3.07334   2.28576    0.007
 4908.00    3.06767   2.27834    0.007
 4909.00    3.03361   2.27062    0.007
 4910.00    2.88400   2.26229    0.007
 4911.00    2.78138   2.25332    0.007
 4912.00    2.83734   2.24380    0.007
 4913.00    2.90404   2.23214    0.007
 4914.00    3.00132   2.21655    0.007
 4915.00    3.01830   2.19799    0.007
 4916.00    2.83995   2.17911    0.007
 4917.00    2.77472   2.16042    0.007
 4918.00    2.94694   2.14568    0.007
 4919.00    2.98066   2.13351    0.007
 4920.00    2.76167   2.12776    0.007
 4921.00    2.67897   2.13064    0.007
 4922.00    2.81360   2.14394    0.007
 4923.00    2.86501   2.16633    0.007
 4924.00    2.79995   2.19189    0.007
 4925.00    2.82902   2.22051    0.007
 4926.00    2.97403   2.24652    0.007
 4927.00    2.89096   2.26971    0.007
 4928.00    2.56027   2.28783    0.007
 4929.00    2.52922   2.29761    0.007
 4930.00    2.78510   2.30209    0.007
 4931.00    2.86108   2.29995    0.007
 4932.00    2.78517   2.29177    0.007
 4933.00    2.80747   2.28002    0.007
 4934.00    2.90279   2.26564    0.007
 4935.00    2.98639   2.25434    0.007
 4936.00    3.06234   2.24967    0.007
 4937.00    3.03085   2.24998    0.007
 4938.00    2.93794   2.25485    0.007
 4939.00    2.80281   2.26468    0.007
 4940.00    2.64667   2.27938    0.000
 4941.00    2.70176   2.29839    0.000
 4942.00    2.84779   2.31983    0.000
 4943.00    3.06094   2.34193    0.000
 4944.00    3.29887   2.36251    0.000
 4945.00    3.06050   2.37913    0.000
 4946.00    2.67313   2.39027    0.000
 4947.00    2.78459   2.39763    0.000
 4948.00    3.02620   2.40042    0.000
 4949.00    3.04123   2.39673    0.000
 4950.00    3.00802   2.38849    0.000
 4951.00    2.98895   2.37297    0.000
 4952.00    2.97226   2.35521    0.000
 4953.00    2.74893   2.33220    0.000
 4954.00    2.49932   2.31034    0.000
 4955.00    2.66076   2.29389    0.000
 4956.00    2.85867   2.27823    0.000
 4957.00    3.07994   2.26870    0.000
 4958.00    3.30243   2.26015    0.000
 4959.00    2.55459   2.25871    0.000
 4960.00    1.80481   2.26236    0.000
 4961.00    2.35686   2.26573    0.000
 4962.00    2.88118   2.27148    0.000
 4963.00    2.80223   2.27533    0.000
 4964.00    2.72751   2.27743    0.000
 4965.00    2.70472   2.27928    0.000
 4966.00    2.68078   2.28068    0.000
 4967.00    2.64730   2.28376    0.000
 4968.00    2.66101   2.28921    0.000
 4969.00    2.96944   2.29379    0.000
 4970.00    3.16533   2.30088    0.000
 4971.00    2.80946   2.30583    0.000
 4972.00    2.59515   2.30779    0.000
 4973.00    2.94433   2.30764    0.000
 4974.00    3.22362   2.30052    0.000
 4975.00    3.27165   2.28993    0.000
 4976.00    3.26917   2.27301    0.000
 4977.00    3.12548   2.25154    0.000
 4978.00    2.90809   2.22830    0.000
 4979.00    2.51441   2.20357    0.000
 4980.00    2.35075   2.18324    0.000
 4981.00    2.66221   2.16747    0.000
 4982.00    2.82192   2.15681    0.000
 4983.00    2.70898   2.15312    0.000
 4984.00    2.54228   2.15536    0.000
 4985.00    2.29110   2.16308    0.000
 4986.00    2.18326   2.17636    0.000
 4987.00    2.27315   2.19117    0.000
 4988.00    2.39172   2.20820    0.000
 4989.00    2.54513   2.22308    0.000
 4990.00    2.59025   2.23419    0.000
 4991.00    2.51947   2.24389    0.000
 4992.00    2.57083   2.24802    0.000
 4993.00    2.73752   2.24964    0.000
 4994.00    2.67094   2.24716    0.000
 4995.00    2.41019   2.23990    0.000
 4996.00    2.41627   2.23110    0.000
 4997.00    2.61789   2.21819    0.000
 4998.00    2.85406   2.20369    0.000
 4999.00    3.11246   2.18826    0.000
 5000.00    3.03536   2.17061    0.000
 5001.00    2.76939   2.15499    0.000
 5002.00    2.88151   2.14146    0.000
 5003.00    3.17888   2.13062    0.000
 5004.00    3.36926   2.12362    0.000
 5005.00    3.51435   2.11799    0.000
 5006.00    3.24904   2.11231    0.000
 5007.00    2.83491   2.10775    0.000
 5008.00    2.88227   2.10232    0.000
 5009.00    3.07120   2.09852    0.000
 5010.00    2.89206   2.09405    0.000
 5011.00    2.61895   2.08899    0.000
 5012.00    2.69667   2.08435    0.000
 5013.00    2.84728   2.07852    0.000
 5014.00    2.68289   2.07614    0.000
 5015.00    2.46693   2.07606    0.000
 5016.00    2.44963   2.07950    0.000
 5017.00    2.45670   2.08711    0.000
 5018.00    2.37486   2.09661    0.000
 5019.00    2.28550   2.10791    0.000
 5020.00    2.47562   2.12190    0.000
 5021.00    2.67940   2.13418    0.000
 5022.00    2.91267   2.14927    0.000
 5023.00    3.14092   2.16388    0.000
 5024.00    3.03477   2.17867    0.000
 5025.00    2.92609   2.19518    0.000
 5026.00    2.76668   2.20967    0.000
 5027.00    2.61435   2.22592    0.000
 5028.00    2.54473   2.23782    0.000
 5029.00    2.49357   2.24733    0.007
 5030.00    2.59157   2.25326    0.007
 5031.00    2.65827   2.25444    0.007
 5032.00    2.53524   2.25092    0.007
 5033.00    2.50034   2.24171    0.007
 5034.00    2.88694   2.22707    0.007
 5035.00    3.15596   2.20772    0.007
 5036.00    2.96709   2.18894    0.007
 5037.00    2.89194   2.17052    0.007
 5038.00    3.18563   2.15782    0.007
 5039.00    3.37962   2.15100    0.007
 5040.00    3.29991   2.15098    0.007
 5041.00    3.11939   2.15808    0.007
 5042.00    2.70180   2.16719    0.007
 5043.00    2.52946   2.18236    0.007
 5044.00    2.85564   2.19908    0.007
 5045.00    3.09262   2.21544    0.007
 5046.00    3.17176   2.23133    0.007
 5047.00    3.08625   2.24327    0.007
 5048.00    2.74586   2.25292    0.007
 5049.00    2.46396   2.26118    0.007
 5050.00    2.26157   2.26903    0.007
 5051.00    2.21810   2.27845    0.007
 5052.00    2.36485   2.29037    0.007
 5053.00    2.55992   2.30439    0.007
 5054.00    2.80599   2.31999    0.007
 5055.00    2.97437   2.33487    0.007
 5056.00    3.07042   2.34821    0.007
 5057.00    2.88335   2.35828    0.007
 5058.00    2.46394   2.36226    0.007
 5059.00    2.53686   2.36155    0.007
 5060.00    2.96539   2.35710    0.007
 5061.00    2.96569   2.34765    0.007
 5062.00    2.69449   2.33568    0.007
 5063.00    2.62535   2.32065    0.007
 5064.00    2.66821   2.30675    0.007
 5065.00    2.65532   2.29184    0.007
 5066.00    2.61554   2.27743    0.007
 5067.00    2.69271   2.26770    0.007
 5068.00    2.81858   2.25907    0.007
 5069.00    2.83642   2.25395    0.007
 5070.00    2.81579   2.24924    0.007
 5071.00    2.64245   2.24470    0.007
 5072.00    2.42319   2.23950    0.007
 5073.00    2.45904   2.23048    0.007
 5074.00    2.55861   2.22117    0.007
 5075.00    2.41104   2.21005    0.007
 5076.00    2.21340   2.19926    0.007
 5077.00    2.37748   2.18903    0.007
 5078.00    2.59905   2.17977    0.007
 5079.00    2.65780   2.17462    0.007
 5080.00    2.69730   2.17256    0.007
 5081.00    2.88348   2.17600    0.007
 5082.00    3.08145   2.18338    0.007
 5083.00    2.78529   2.19647    0.007
 5084.00    2.46689   2.21395    0.007
 5085.00    2.68362   2.23328    0.007
 5086.00    2.89849   2.25282    0.006
 5087.00    2.70468   2.27171    0.006
 5088.00    2.53637   2.28840    0.006
 5089.00    2.84234   2.30088    0.006
 5090.00    3.12017   2.30897    0.006
 5091.00    3.08457   2.31226    0.006
 5092.00    3.02660   2.31092    0.006
 5093.00    2.79429   2.30447    0.006
 5094.00    2.60767   2.29616    0.006
 5095.00    2.69021   2.28554    0.006
 5096.00    2.72232   2.27393    0.006
 5097.00    2.51912   2.26185    0.006
 5098.00    2.41676   2.25042    0.006
 5099.00    2.69873   2.24176    0.006
 5100.00    2.83467   2.23456    0.006
 5101.00    2.50615   2.22994    0.006
 5102.00    2.32258   2.22628    0.006
 5103.00    2.52985   2.22554    0.006
 5104.00    2.64690   2.22412    0.007
 5105.00    2.55534   2.22397    0.006
 5106.00    2.48000   2.22451    0.007
 5107.00    2.43709   2.22663    0.007
 5108.00    2.42002   2.23187    0.007
 5109.00    2.44798   2.23953    0.007
 5110.00    2.53524   2.25038    0.007
 5111.00    2.71295   2.26274    0.007
 5112.00    2.75544   2.27749    0.007
 5113.00    2.61673   2.29058    0.007
 5114.00    2.64724   2.30153    0.007
 5115.00    2.87744   2.30974    0.007
 5116.00    2.93968   2.31205    0.007
 5117.00    2.82716   2.30841    0.007
 5118.00    2.57629   2.29994    0.007
 5119.00    2.19846   2.28624    0.007
 5120.00    2.15546   2.26933    0.007
 5121.00    2.38333   2.24983    0.007
 5122.00    2.61903   2.22935    0.007
 5123.00    2.86031   2.21107    0.007
 5124.00    2.66235   2.19519    0.007
 5125.00    2.19002   2.18494    0.007
 5126.00    2.27875   2.17889    0.007
 5127.00    2.67376   2.17812    0.007
 5128.00    2.64905   2.18185    0.007
 5129.00    2.42523   2.18960    0.007
 5130.00    2.54815   2.19771    0.007
 5131.00    2.81298   2.20563    0.007
 5132.00    2.87474   2.21396    0.007
 5133.00    2.86551   2.21841    0.007
 5134.00    2.79671   2.22240    0.007
 5135.00    2.71035   2.22225    0.007
 5136.00    2.68015   2.21861    0.007
 5137.00    2.66367   2.21264    0.007
 5138.00    2.77358   2.20599    0.007
 5139.00    2.90845   2.19831    0.007
 5140.00    2.98042   2.18868    0.007
 5141.00    3.04268   2.18210    0.007
 5142.00    2.99665   2.17588    0.007
 5143.00    2.93828   2.17154    0.007
 5144.00    2.92777   2.16952    0.007
 5145.00    2.92092   2.16642    0.007
 5146.00    2.76175   2.16498    0.007
 5147.00    2.59631   2.16716    0.007
 5148.00    2.21526   2.16950    0.007
 5149.00    1.85285   2.17359    0.007
 5150.00    2.34999   2.18083    0.007
 5151.00    2.82669   2.19007    0.007
 5152.00    2.94930   2.20214    0.006
 5153.00    3.06450   2.21465    0.006
 5154.00    3.10086   2.22695    0.007
 5155.00    3.13853   2.23848    0.007
 5156.00    3.18612   2.24667    0.007
 5157.00    3.22069   2.24916    0.007
 5158.00    3.18063   2.24446    0.007
 5159.00    3.08904   2.22983    0.007
 5160.00    2.76274   2.20517    0.007
 5161.00    2.50139   2.17023    0.006
 5162.00    2.48243   2.12780    0.007
 5163.00    2.48077   2.07887    0.007
 5164.00    2.53310   2.02817    0.006
 5165.00    2.49336   1.97607    0.006
 5166.00    2.20977   1.92847    0.007
 5167.00    2.01035   1.89017    0.007
 5168.00    2.00233   1.86098    0.006
 5169.00    1.93634   1.84478    0.006
 5170.00    1.75618   1.84011    0.006
 5171.00    1.77178   1.84912    0.007
 5172.00    2.12335   1.86842    0.006
 5173.00    2.43663   1.89393    0.006
 5174.00    2.69237   1.92014    0.007
 5175.00    2.88171   1.94332    0.007
 5176.00    2.98335   1.96494    0.007
 5177.00    2.92050   1.98348    0.007
 5178.00    2.66631   1.99495    0.007
 5179.00    2.47741   1.99940    0.007
 5180.00    2.35551   1.99876    0.006
 5181.00    2.35231   1.99846    0.006
 5182.00    2.45652   1.99882    0.006
 5183.00    2.38604   2.00313    0.006
 5184.00    2.17624   2.01268    0.006
 5185.00    2.19232   2.02693    0.006
 5186.00    2.36685   2.04548    0.007
 5187.00    2.44675   2.06705    0.007
 5188.00    2.46842   2.09418    0.007
 5189.00    2.59072   2.11760    0.007
 5190.00    2.76713   2.13774    0.000
 5191.00    2.81627   2.15481    0.000
 5192.00    2.80602   2.16955    0.000
 5193.00    2.85487   2.18495    0.000
 5194.00    2.92751   2.19661    0.000
 5195.00    2.73852   2.20697    0.000
 5196.00    2.45975   2.21716    0.000
 5197.00    2.46357   2.22604    0.000
 5198.00    2.54903   2.22865    0.000
 5199.00    2.70604   2.22706    0.000
 5200.00    2.88014   2.22076    0.000
 5201.00    2.83342   2.20943    0.000
 5202.00    2.74419   2.19494    0.000
 5203.00    2.52760   2.17891    0.000
 5204.00    2.29197   2.16428    0.000
 5205.00    1.78327   2.15224    0.000
 5206.00    1.24466   2.14708    0.000
 5207.00    2.14840   2.14685    0.000
 5208.00    3.15629   2.15447    0.000
 5209.00    3.03450   2.16860    0.000
 5210.00    2.87053   2.19056    0.000
 5211.00    2.86354   2.21395    0.007
 5212.00    2.86283   2.23907    0.007
 5213.00    3.06482   2.26583    0.007
 5214.00    3.25000   2.28834    0.007
 5215.00    3.16271   2.30893    0.007
 5216.00    3.06548   2.32280    0.007
 5217.00    2.86704   2.33202    0.007
 5218.00    2.68270   2.33414    0.007
 5219.00    2.60101   2.33115    0.007
 5220.00    2.53989   2.32535    0.007
 5221.00    2.59337   2.31500    0.007
 5222.00    2.63287   2.30252    0.006
 5223.00    2.61019   2.28839    0.006
 5224.00    2.58394   2.27542    0.006
 5225.00    2.54464   2.26534    0.006
 5226.00    2.50902   2.25961    0.007
 5227.00    2.48462   2.25959    0.006
 5228.00    2.40072   2.26516    0.006
 5229.00    2.16197   2.27636    0.006
 5230.00    2.12723   2.29166    0.007
 5231.00    2.54873   2.31153    0.006
 5232.00    2.82227   2.33362    0.006
 5233.00    2.80903   2.35442    0.007
 5234.00    2.82408   2.37556    0.006
 5235.00    2.88694   2.39554    0.006
 5236.00    2.88323   2.41283    0.006
 5237.00    2.78093   2.43020    0.006
 5238.00    2.80827   2.44336    0.006
 5239.00    3.00440   2.45312    0.007
 5240.00    3.06756   2.45893    0.007
 5241.00    2.97820   2.45924    0.006
 5242.00    2.74310   2.45467    0.006
 5243.00    2.36058   2.44615    0.006
 5244.00    2.20823   2.43497    0.006
 5245.00    2.26123   2.42168    0.007
 5246.00    2.58418   2.40746    0.007
 5247.00    3.11936   2.39446    0.007
 5248.00    3.07969   2.38441    0.007
 5249.00    2.64256   2.37648    0.007
 5250.00    2.58143   2.37236    0.007
 5251.00    2.74824   2.37270    0.007
 5252.00    2.84120   2.37659    0.007
 5253.00    2.89507   2.38062    0.007
 5254.00    2.88731   2.38436    0.007
 5255.00    2.85125   2.38682    0.007
 5256.00    2.78882   2.38310    0.007
 5257.00    2.71596   2.37423    0.007
 5258.00    2.69332   2.35625    0.007
 5259.00    2.68761   2.33297    0.007
 5260.00    2.47005   2.30303    0.007
 5261.00    2.19253   2.26716    0.007
 5262.00    2.29193   2.22946    0.007
 5263.00    2.47931   2.19219    0.007
 5264.00    2.50646   2.15923    0.007
 5265.00    2.50357   2.13159    0.007
 5266.00    2.57543   2.11380    0.007
 5267.00    2.65811   2.10523    0.007
 5268.00    2.48949   2.10821    0.007
 5269.00    2.29444   2.12066    0.007
 5270.00    2.35646   2.14307    0.007
 5271.00    2.43600   2.17248    0.007
 5272.00    2.59799   2.20466    0.007
 5273.00    2.76275   2.24055    0.007
 5274.00    2.52554   2.27816    0.007
 5275.00    2.29614   2.31463    0.007
 5276.00    2.33112   2.34656    0.007
 5277.00    2.36937   2.37545    0.007
 5278.00    2.45747   2.39956    0.007
 5279.00    2.52945   2.42018    0.007
 5280.00    2.44418   2.43967    0.007
 5281.00    2.39143   2.45673    0.007
 5282.00    2.56774   2.47374    0.006
 5283.00    2.71764   2.48998    0.006
 5284.00    2.72436   2.50726    0.006
 5285.00    2.68555   2.52380    0.006
 5286.00    2.44892   2.54006    0.006
 5287.00    2.33709   2.55291    0.006
 5288.00    2.67180   2.56295    0.006
 5289.00    2.91342   2.56759    0.006
 5290.00    2.87546   2.56577    0.006
 5291.00    2.87039   2.55827    0.006
 5292.00    2.94938   2.54522    0.006
 5293.00    3.00218   2.52948    0.007
 5294.00    2.99735   2.51190    0.006
 5295.00    2.94549   2.49533    0.006
 5296.00    2.80390   2.48153    0.006
 5297.00    2.74533   2.47250    0.006
 5298.00    2.82498   2.47000    0.006
 5299.00    2.92278   2.47335    0.006
 5300.00    3.04707   2.48345    0.006
 5301.00    3.06690   2.49855    0.006
 5302.00    2.95266   2.51847    0.006
 5303.00    2.82339   2.54035    0.006
 5304.00    2.67714   2.56190    0.006
 5305.00    2.62548   2.58231    0.006
 5306.00    2.66814   2.59955    0.006
 5307.00    2.64871   2.61354    0.006
 5308.00    2.57465   2.62334    0.006
 5309.00    2.66021   2.62873    0.006
 5310.00    2.86948   2.62991    0.007
 5311.00    2.82967   2.62748    0.007
 5312.00    2.62014   2.62223    0.007
 5313.00    2.74949   2.61400    0.007
 5314.00    3.08121   2.60338    0.007
 5315.00    3.08582   2.59080    0.007
 5316.00    2.92000   2.57589    0.006
 5317.00    2.83464   2.55918    0.006
 5318.00    2.78562   2.53963    0.006
 5319.00    2.81178   2.51861    0.006
 5320.00    2.86715   2.49503    0.006
 5321.00    2.71629   2.47059    0.006
 5322.00    2.49726   2.44466    0.006
 5323.00    2.49999   2.41960    0.006
 5324.00    2.56422   2.39714    0.006
 5325.00    2.54250   2.37794    0.006
 5326.00    2.50119   2.36567    0.006
 5327.00    2.46951   2.35875    0.006
 5328.00    2.43959   2.36148    0.006
 5329.00    2.38737   2.36968    0.006
 5330.00    2.33203   2.38504    0.006
 5331.00    2.46623   2.40311    0.006
 5332.00    2.61956   2.42435    0.006
 5333.00    2.49996   2.44490    0.006
 5334.00    2.36284   2.46340    0.006
 5335.00    2.49144   2.47862    0.006
 5336.00    2.62789   2.48852    0.006
 5337.00    2.74246   2.49489    0.006
 5338.00    2.85069   2.49759    0.006
 5339.00    2.77762   2.49879    0.006
 5340.00    2.71605   2.49886    0.006
 5341.00    2.81941   2.49952    0.006
 5342.00    2.88985   2.50081    0.006
 5343.00    2.65209   2.50423    0.006
 5344.00    2.43238   2.50957    0.006
 5345.00    2.33580   2.51779    0.006
 5346.00    2.31700   2.52835    0.006
 5347.00    2.70886   2.54192    0.006
 5348.00    2.99443   2.55785    0.006
 5349.00    2.82862   2.57521    0.006
 5350.00    2.67708   2.59505    0.006
 5351.00    2.57552   2.61507    0.006
 5352.00    2.49989   2.63548    0.006
 5353.00    2.50065   2.65423    0.006
 5354.00    2.58179   2.67014    0.006
 5355.00    2.86489   2.68211    0.006
 5356.00    2.98667   2.68938    0.006
 5357.00    2.75930   2.69048    0.006
 5358.00    2.58127   2.68612    0.006
 5359.00    2.49593   2.67571    0.006
 5360.00    2.53167   2.66122    0.006
 5361.00    2.76599   2.64217    0.006
 5362.00    2.99158   2.62057    0.006
 5363.00    3.20461   2.59761    0.006
 5364.00    3.18552   2.57422    0.006
 5365.00    2.87280   2.55271    0.006
 5366.00    2.71328   2.53322    0.006
 5367.00    2.72455   2.51864    0.006
 5368.00    2.78686   2.50837   -2.000
 5369.00    2.89936   2.50488   -2.000
 5370.00    2.77369   2.50649   -2.000
 5371.00    2.44147   2.51415   -2.000
 5372.00    2.56729   2.52676   -2.000
 5373.00    3.04301   2.54183   -2.000
 5374.00    3.18745   2.55948   -2.000
 5375.00    3.10945   2.57574   -2.000
 5376.00    2.89562   2.59173   -2.000
 5377.00    2.60188   2.60436   -2.000
 5378.00    2.65926   2.61464   -2.000
 5379.00    2.89672   2.62021   -2.000
 5380.00    3.17755   2.62211   -2.000
 5381.00    3.47764   2.62117   -2.000
 5382.00    3.20018   2.61701   -2.000
 5383.00    2.70225   2.61138    0.006
 5384.00    2.79349   2.60324    0.006
 5385.00    3.07583   2.59333    0.006
 5386.00    3.21707   2.58132    0.006
 5387.00    3.32000   2.56806    0.006
 5388.00    3.12109   2.55316    0.006
 5389.00    2.85495   2.53729    0.006
 5390.00    2.71460   2.52145    0.006
 5391.00    2.59660   2.50517    0.006
 5392.00    2.73662   2.48994    0.006
 5393.00    2.91166   2.47605    0.006
 5394.00    2.95458   2.46400    0.006
 5395.00    2.98474   2.45395    0.006
 5396.00    2.71613   2.44564    0.006
 5397.00    2.42954   2.43906    0.006
 5398.00    2.48162   2.43270    0.006
 5399.00    2.54201   2.42728    0.006
 5400.00    2.51762   2.42103    0.006
 5401.00    2.49219   2.41534    0.006
 5402.00    2.44017   2.40896    0.006
 5403.00    2.40747   2.40474    0.006
 5404.00    2.63688   2.40252    0.006
 5405.00    2.82924   2.40276    0.006
 5406.00    2.68841   2.40712    0.006
 5407.00    2.55180   2.41598    0.006
 5408.00    2.44314   2.42974    0.006
 5409.00    2.38667   2.44687    0.006
 5410.00    2.59866   2.46801    0.006
 5411.00    2.70981   2.49088    0.006
 5412.00    2.40234   2.51505    0.006
 5413.00    2.20462   2.53786    0.006
 5414.00    2.38387   2.55829    0.006
 5415.00    2.57568   2.57543    0.006
 5416.00    2.80387   2.58922    0.006
 5417.00    2.89537   2.59925    0.006
 5418.00    2.64931   2.60496    0.006
 5419.00    2.50633   2.60719    0.006
 5420.00    2.58280   2.60610    0.006
 5421.00    2.64305   2.60263    0.006
 5422.00    2.67331   2.59694    0.006
 5423.00    2.69994   2.58920    0.006
 5424.00    2.72071   2.57999    0.006
 5425.00    2.64025   2.56949    0.006
 5426.00    2.41631   2.55839    0.006
 5427.00    2.32773   2.54720    0.006
 5428.00    2.40795   2.53675    0.006
 5429.00    2.45948   2.52739    0.006
 5430.00    2.47949   2.52138    0.006
 5431.00    2.56040   2.51856    0.006
 5432.00    2.70034   2.52060    0.006
 5433.00    2.68819   2.52654    0.006
 5434.00    2.54600   2.53727    0.006
 5435.00    2.61196   2.55109    0.006
 5436.00    2.83463   2.56805    0.006
 5437.00    2.92776   2.58479    0.006
 5438.00    2.93520   2.60029    0.006
 5439.00    2.75477   2.61268    0.006
 5440.00    2.46550   2.62043    0.006
 5441.00    2.51577   2.62360    0.006
 5442.00    2.73745   2.62166    0.006
 5443.00    2.69726   2.61588    0.006
 5444.00    2.54262   2.60689    0.006
 5445.00    2.62248   2.59652    0.006
 5446.00    2.79027   2.58562    0.006
 5447.00    2.84808   2.57594    0.006
 5448.00    2.87091   2.56709    0.006
 5449.00    2.88896   2.56071    0.006
 5450.00    2.90573   2.55492    0.006
 5451.00    2.69279   2.55169    0.006
 5452.00    2.42989   2.54857    0.006
 5453.00    2.38689   2.54790    0.006
 5454.00    2.38187   2.54734    0.006
 5455.00    2.55417   2.54861    0.006
 5456.00    2.74972   2.55023    0.006
 5457.00    2.89830   2.55273    0.006
 5458.00    3.04254   2.55575    0.006
 5459.00    3.27106   2.55891    0.006
 5460.00    3.50431   2.56233    0.006
 5461.00    3.25044   2.56531    0.006
 5462.00    2.98844   2.56815    0.006
 5463.00    3.01260   2.57008    0.006
 5464.00    3.04891   2.57140    0.006
 5465.00    3.37047   2.57123    0.006
 5466.00    3.63565   2.56941    0.006
 5467.00    3.17664   2.56578    0.006
 5468.00    2.76783   2.56013    0.006
 5469.00    2.79343   2.55263    0.006
 5470.00    2.80628   2.54332    0.006
 5471.00    2.73742   2.53289    0.006
 5472.00    2.68702   2.52214    0.006
 5473.00    2.72913   2.51162    0.006
 5474.00    2.74722   2.50259    0.006
 5475.00    2.66779   2.49603    0.006
 5476.00    2.65398   2.49234    0.006
 5477.00    2.86103   2.49206    0.006
 5478.00    3.00371   2.49498   -2.000
 5479.00    2.96349   2.50141   -2.000
 5480.00    2.87074   2.50972   -2.000
 5481.00    2.65047   2.52032   -2.000
 5482.00    2.64885   2.53140   -2.000
 5483.00    3.10529   2.54305   -2.000
 5484.00    3.46646   2.55364   -2.000
 5485.00    3.65417   2.56396   -2.000
 5486.00    3.66262   2.57267   -2.000
 5487.00    3.38577   2.57981   -2.000
 5488.00    2.64192   2.58564   -2.000
 5489.00    1.24571   2.59006   -2.000
 5490.00    0.55003   2.59382   -2.000
 5491.00    0.71557   2.59611   -2.000
 5492.00    0.92397   2.59784   -2.000
 5493.00    1.17884   2.59838   -2.000
 5494.00    1.63301   2.59815   -2.000
 5495.00    2.27770   2.59709   -2.000
 5496.00    2.69032   2.59515   -2.000
 5497.00    2.90734   2.59242   -2.000
 5498.00    3.03621   2.58863   -2.000
 5499.00    3.09968   2.58433   -2.000
 5500.00    3.09656   2.57923   -2.000
 5501.00    3.05003   2.57377   -2.000
 5502.00    3.00389   2.56830    0.006
 5503.00    2.95795   2.56263    0.006
 5504.00    2.79318   2.55752    0.006
 5505.00    2.56937   2.55253    0.006
 5506.00    2.68734   2.54867    0.006
 5507.00    2.95217   2.54520    0.006
 5508.00    3.01443   2.54330    0.006
 5509.00    3.00207   2.54245    0.006
 5510.00    2.92548   2.54382    0.006
 5511.00    2.82884   2.54696    0.006
 5512.00    2.92891   2.55281    0.006
 5513.00    3.08017   2.56070    0.006
 5514.00    2.96066   2.57087    0.006
 5515.00    2.78366   2.58245    0.006
 5516.00    2.74802   2.59469    0.006
 5517.00    2.73611   2.60664    0.006
 5518.00    2.64721   2.61701    0.006
 5519.00    2.54855   2.62515    0.006
 5520.00    2.67537   2.63012    0.006
 5521.00    2.82208   2.63202    0.006
 5522.00    2.91140   2.63062    0.006
 5523.00    2.99772   2.62687    0.006
 5524.00    3.10901   2.62130    0.006
 5525.00    3.21807   2.61509    0.006
 5526.00    3.12283   2.60922    0.006
 5527.00    3.02717   2.60453    0.006
 5528.00    2.92225   2.60171    0.006
 5529.00    2.81676   2.60097    0.006
 5530.00    2.70445   2.60239    0.005
 5531.00    2.63624   2.60591    0.005
 5532.00    2.93569   2.61089    0.005
 5533.00    3.18631   2.61739    0.005
 5534.00    3.13308   2.62441    0.005
 5535.00    3.10111   2.63224    0.005
 5536.00    3.17297   2.63993    0.005
 5537.00    3.19272   2.64778    0.005
 5538.00    3.00561   2.65520    0.005
 5539.00    2.85400   2.66234    0.005
 5540.00    2.81956   2.66891    0.005
 5541.00    2.77914   2.67501    0.005
 5542.00    2.72205   2.68075    0.005
 5543.00    2.68503   2.68612    0.005
 5544.00    2.69594   2.69122    0.005
 5545.00    2.72475   2.69600    0.005
 5546.00    2.79047   2.70028    0.005
 5547.00    2.77262   2.70394    0.005
 5548.00    2.60493   2.70655    0.005
 5549.00    2.48605   2.70812    0.005
 5550.00    2.44370   2.70814    0.005
 5551.00    2.42023   2.70689    0.005
 5552.00    2.42274   2.70407    0.006
 5553.00    2.50434   2.70011    0.006
 5554.00    2.68179   2.69497    0.006
 5555.00    2.76469   2.68902    0.005
 5556.00    2.74657   2.68234    0.005
 5557.00    2.69496   2.67511    0.006
 5558.00    2.61180   2.66744    0.006
 5559.00    2.60617   2.65944    0.006
 5560.00    2.66497   2.65125    0.006
 5561.00    2.73941   2.64307    0.006
 5562.00    2.82529   2.63509    0.006
 5563.00    2.85158   2.62775    0.006
 5564.00    2.83959   2.62118    0.006
 5565.00    2.73739   2.61588    0.006
 5566.00    2.58450   2.61193    0.006
 5567.00    2.52235   2.60966    0.005
 5568.00    2.50458   2.60909    0.005
 5569.00    2.59989   2.61013    0.005
 5570.00    2.74299   2.61286    0.005
 5571.00    2.82172   2.61670    0.005
 5572.00    2.87717   2.62168    0.005
 5573.00    2.78838   2.62683    0.005
 5574.00    2.65544   2.63206    0.005
 5575.00    2.59333   2.63619    0.005
 5576.00    2.54925   2.63901    0.005
 5577.00    2.52399   2.63934    0.005
 5578.00    2.50264   2.63711    0.005
 5579.00    2.68997   2.63145    0.005
 5580.00    2.91134   2.62271    0.005
 5581.00    3.07306   2.61065    0.005
 5582.00    3.22749   2.59630    0.005
 5583.00    3.02088   2.58010    0.005
 5584.00    2.78393   2.56367    0.005
 5585.00    2.59859   2.54785    0.005
 5586.00    2.41574   2.53428    0.005
 5587.00    2.51310   2.52354    0.005
 5588.00    2.61448   2.51680    0.005
 5589.00    2.70480   2.51361    0.005
 5590.00    2.78881   2.51447    0.005
 5591.00    2.74726   2.51789    0.005
 5592.00    2.70831   2.52395    0.006
 5593.00    2.69942   2.53070    0.005
 5594.00    2.67386   2.53833    0.005
 5595.00    2.51430   2.54541    0.006
 5596.00    2.36158   2.55254    0.006
 5597.00    2.25021   2.55940    0.006
 5598.00    2.17849   2.56674    0.006
 5599.00    2.29588   2.57527    0.006
 5600.00    2.45028   2.58516    0.006
 5601.00    2.74849   2.59741    0.006
 5602.00    3.03953   2.61109    0.006
 5603.00    3.30736   2.62670    0.006
 5604.00    3.44063   2.64228    0.006
 5605.00    3.20535   2.65769    0.006
 5606.00    3.00253   2.67059    0.006
 5607.00    2.87590   2.68073    0.006
 5608.00    2.79879   2.68641    0.006
 5609.00    2.82213   2.68784    0.006
 5610.00    2.74210   2.68456    0.005
 5611.00    2.47954   2.67762    0.005
 5612.00    2.38685   2.66761    0.005
 5613.00    2.55661   2.65611    0.005
 5614.00    2.63973   2.64410    0.005
 5615.00    2.60526   2.63301    0.005
 5616.00    2.63827   2.62347    0.005
 5617.00    2.75190   2.61619    0.005
 5618.00    2.80976   2.61132    0.005
 5619.00    2.80884   2.60876    0.005
 5620.00    2.76790   2.60848    0.005
 5621.00    2.68976   2.61010    0.005
 5622.00    2.62343   2.61355    0.005
 5623.00    2.56677   2.61847    0.005
 5624.00    2.56169   2.62484    0.005
 5625.00    2.59378   2.63224    0.005
 5626.00    2.62418   2.64035    0.005
 5627.00    2.65351   2.64856    0.005
 5628.00    2.71550   2.65631    0.005
 5629.00    2.79557   2.66279    0.005
 5630.00    2.81578   2.66755    0.005
 5631.00    2.80719   2.67002    0.005
 5632.00    2.77794   2.67016    0.005
 5633.00    2.74010   2.66803    0.005
 5634.00    2.76161   2.66416    0.005
 5635.00    2.80420   2.65911    0.005
 5636.00    2.85626   2.65366    0.005
 5637.00    2.91116   2.64853    0.005
 5638.00    2.87224   2.64440    0.005
 5639.00    2.80995   2.64171    0.005
 5640.00    2.75910   2.64079    0.005
 5641.00    2.71057   2.64155    0.005
 5642.00    2.66420   2.64403    0.005
 5643.00    2.61818   2.64755    0.005
 5644.00    2.68469   2.65204    0.005
 5645.00    2.76446   2.65644    0.005
 5646.00    2.73597   2.66065    0.005
 5647.00    2.69884   2.66358    0.005
 5648.00    2.59268   2.66514    0.005
 5649.00    2.48345   2.66449    0.005
 5650.00    2.74742   2.66177    0.005
 5651.00    3.00701   2.65657    0.005
 5652.00    2.84692   2.64943    0.005
 5653.00    2.69111   2.64047    0.005
 5654.00    2.61425   2.63067    0.005
 5655.00    2.53390   2.62059    0.005
 5656.00    2.41496   2.61136    0.005
 5657.00    2.32335   2.60371    0.005
 5658.00    2.44380   2.59836    0.005
 5659.00    2.56495   2.59590    0.005
 5660.00    2.69024   2.59631    0.005
 5661.00    2.73875   2.59990    0.005
 5662.00    2.43007   2.60581    0.005
 5663.00    2.19406   2.61431    0.005
 5664.00    2.23433   2.62415    0.005
 5665.00    2.30384   2.63566    0.005
 5666.00    2.46617   2.64759    0.005
 5667.00    2.61623   2.66034    0.005
 5668.00    2.73329   2.67292    0.005
 5669.00    2.82415   2.68553    0.005
 5670.00    2.85456   2.69739    0.005
 5671.00    2.81731   2.70829    0.005
 5672.00    2.64496   2.71776    0.005
 5673.00    2.60094   2.72512    0.005
 5674.00    2.78007   2.73039    0.005
 5675.00    2.88196   2.73269    0.005
 5676.00    2.86622   2.73273    0.005
 5677.00    2.74985   2.72974    0.005
 5678.00    2.49888   2.72506    0.006
 5679.00    2.32265   2.71824    0.006
 5680.00    2.23443   2.71099    0.005
 5681.00    2.22885   2.70320    0.005
 5682.00    2.30909   2.69640    0.005
 5683.00    2.41150   2.69074    0.005
 5684.00    2.53422   2.68705    0.005
 5685.00    2.54521   2.68564    0.005
 5686.00    2.46598   2.68629    0.005
 5687.00    2.37496   2.68927    0.005
 5688.00    2.27557   2.69349    0.005
 5689.00    2.24135   2.69894    0.005
 5690.00    2.24776   2.70411    0.005
 5691.00    2.25794   2.70878    0.005
 5692.00    2.27017   2.71167    0.005
 5693.00    2.32999   2.71249    0.005
 5694.00    2.41234   2.71069    0.005
 5695.00    2.57066   2.70615    0.005
 5696.00    2.76000   2.69907    0.005
 5697.00    2.76607   2.68967    0.005
 5698.00    2.70823   2.67849    0.005
 5699.00    2.68286   2.66605    0.005
 5700.00    2.66705   2.65285    0.005
 5701.00    2.75581   2.63959    0.005
 5702.00    2.87004   2.62656    0.005
 5703.00    2.89531   2.61459    0.005
 5704.00    2.90306   2.60394    0.005
 5705.00    2.57867   2.59554    0.005
 5706.00    2.20326   2.58974    0.005
 5707.00    2.31295   2.58737    0.005
 5708.00    2.47762   2.58879    0.005
 5709.00    2.57135   2.59434    0.005
 5710.00    2.65972   2.60414    0.005
 5711.00    2.61499   2.61770    0.005
 5712.00    2.56486   2.63477    0.005
 5713.00    2.76884   2.65411    0.005
 5714.00    2.96831   2.67520    0.005
 5715.00    2.90029   2.69652    0.005
 5716.00    2.84176   2.71745    0.005
 5717.00    2.94631   2.73680    0.005
 5718.00    3.03871   2.75403    0.005
 5719.00    3.00243   2.76862    0.005
 5720.00    2.95004   2.78011    0.005
 5721.00    2.77694   2.78879    0.005
 5722.00    2.62665   2.79431    0.005
 5723.00    2.60659   2.79763    0.005
 5724.00    2.60414   2.79851    0.005
 5725.00    2.68166   2.79827    0.005
 5726.00    2.76017   2.79678    0.005
 5727.00    2.84239   2.79528    0.005
 5728.00    2.91309   2.79373    0.005
 5729.00    2.94792   2.79285    0.005
 5730.00    2.94762   2.79262    0.005
 5731.00    2.85448   2.79312    0.005
 5732.00    2.75158   2.79432    0.005
 5733.00    2.62650   2.79590    0.005
 5734.00    2.52957   2.79776    0.005
 5735.00    2.48797   2.79951    0.005
 5736.00    2.52426   2.80109    0.005
 5737.00    2.69397   2.80229    0.005
 5738.00    2.74565   2.80306    0.005
 5739.00    2.62024   2.80335    0.005
 5740.00    2.50376   2.80315    0.000
 5741.00    2.39905   2.80241    0.000
 5742.00    2.44008   2.80117    0.000
 5743.00    2.65036   2.79921    0.000
 5744.00    2.80642   2.79678    0.000
 5745.00    2.90693   2.79351    0.000
 5746.00    2.91895   2.78990    0.000
 5747.00    2.85103   2.78559    0.000
 5748.00    2.78789   2.78128    0.000
 5749.00    2.72856   2.77681    0.000
 5750.00    2.66165   2.77279    0.000
 5751.00    2.58944   2.76932    0.000
 5752.00    2.64971   2.76653    0.000
 5753.00    2.79135   2.76483    0.000
 5754.00    2.86670   2.76366    0.000
 5755.00    2.90649   2.76378    0.000
 5756.00    2.86806   2.76404    0.000
 5757.00    2.79319   2.76564    0.000
 5758.00    2.71472   2.76719    0.000
 5759.00    2.63481   2.77019    0.000
 5760.00    2.60515   2.77330    0.000
 5761.00    2.59271   2.77791    0.000
 5762.00    2.60883   2.78275    0.000
 5763.00    2.63319   2.78869    0.000
 5764.00    2.60166   2.79463    0.000
 5765.00    2.55682   2.80058    0.000
 5766.00    2.60623   2.80589    0.000
 5767.00    2.67373   2.80989    0.000
 5768.00    2.57261   2.81246    0.000
 5769.00    2.44637   2.81277    0.000
 5770.00    2.52741   2.81106    0.000
 5771.00    2.63102   2.80679    0.000
 5772.00    2.82931   2.80023    0.000
 5773.00    3.03438   2.79137    0.000
 5774.00    2.96189   2.78022    0.000
 5775.00    2.87918   2.76750    0.000
 5776.00    2.83824   2.75300    0.000
 5777.00    2.79496   2.73810    0.000
 5778.00    2.66180   2.72271    0.000
 5779.00    2.53279   2.70859    0.000
 5780.00    2.47064   2.69586    0.000
 5781.00    2.42532   2.68604    0.000
 5782.00    2.55040   2.67939    0.000
 5783.00    2.65920   2.67668    0.000
 5784.00    2.64998   2.67791    0.000
 5785.00    2.65584   2.68292    0.000
 5786.00    2.74539   2.69131    0.000
 5787.00    2.82736   2.70238    0.000
 5788.00    2.87575   2.71533    0.000
 5789.00    2.93637   2.72947    0.000
 5790.00    3.04163   2.74390    0.000
 5791.00    3.09080   2.75827   -2.000
 5792.00    2.96869   2.77188   -2.000
 5793.00    2.87232   2.78461   -2.000
 5794.00    2.84276   2.79621   -2.000
 5795.00    2.83488   2.80653   -2.000
 5796.00    2.87538   2.81569   -2.000
 5797.00    2.90836   2.82339   -2.000
 5798.00    2.92681   2.82987   -2.000
 5799.00    2.91692   2.83492   -2.000
 5800.00    2.85923   2.83871   -2.000
 5801.00    2.82425   2.84127   -2.000
 5802.00    2.82286   2.84274   -2.000
 5803.00    2.81462   2.84340   -2.000
 5804.00    2.79748   2.84338   -2.000
 5805.00    2.70622   2.84311   -2.000
 5806.00    2.53011   2.84259   -2.000
 5807.00    2.51226   2.84223   -2.000
 5808.00    2.65422   2.84195   -2.000
 5809.00    2.68868   2.84204   -2.000
 5810.00    2.62740   2.84240   -2.000
 5811.00    2.58070   2.84326    0.000
 5812.00    2.54543   2.84457    0.000
 5813.00    2.57386   2.84659    0.000
 5814.00    2.64627   2.84925    0.000
 5815.00    2.66228   2.85279    0.000
 5816.00    2.64418   2.85703    0.000
 5817.00    2.68173   2.86200    0.000
 5818.00    2.74867   2.86745    0.000
 5819.00    2.83459   2.87311    0.000
 5820.00    2.92921   2.87885    0.000
 5821.00    2.96927   2.88413    0.000
 5822.00    2.98779   2.88909    0.000
 5823.00    3.09209   2.89311    0.000
 5824.00    3.22521   2.89651    0.000
 5825.00    3.27471   2.89889    0.000
 5826.00    3.30061   2.90051    0.000
 5827.00    3.25491   2.90124    0.000
 5828.00    3.19256   2.90126    0.000
 5829.00    3.18813   2.90075    0.000
 5830.00    3.19454   2.89974    0.000
 5831.00    3.14575   2.89854    0.000
 5832.00    3.08899   2.89728    0.000
 5833.00    3.00023   2.89611    0.000
 5834.00    2.90811   2.89529    0.000
 5835.00    2.85282   2.89465    0.000
 5836.00    2.80003   2.89444    0.000
 5837.00    2.78088   2.89419    0.000
 5838.00    2.76284   2.89398    0.000
 5839.00    2.84086   2.89318    0.000
 5840.00    2.91925   2.89165    0.000
 5841.00    3.00740   2.88890    0.000
 5842.00    3.07801   2.88462    0.000
 5843.00    2.88372   2.87880    0.000
 5844.00    2.71059   2.87111    0.000
 5845.00    2.74280   2.86187    0.000
 5846.00    2.78934   2.85090    0.000
 5847.00    2.93635   2.83879    0.000
 5848.00    3.05648   2.82567    0.000
 5849.00    3.03129   2.81200    0.000
 5850.00    2.99799   2.79849    0.000
 5851.00    2.92952   2.78506    0.000
 5852.00    2.86534   2.77314    0.000
 5853.00    2.81645   2.76191    0.000
 5854.00    2.73952   2.75355    0.000
 5855.00    2.57856   2.74631    0.000
 5856.00    2.45739   2.74282    0.000
 5857.00    2.43769   2.74055    0.000
 5858.00    2.43278   2.74205    0.000
 5859.00    2.46035   2.74472    0.000
 5860.00    2.47897   2.75029    0.000
 5861.00    2.48052   2.75671    0.000
 5862.00    2.49352   2.76458    0.000
 5863.00    2.52552   2.77305    0.000
 5864.00    2.53697   2.78154    0.000
 5865.00    2.51845   2.79037    0.000
 5866.00    2.47521   2.79820    0.000
 5867.00    2.40030   2.80577    0.000
 5868.00    2.48610   2.81176    0.000
 5869.00    2.75330   2.81677    0.000
 5870.00    2.95677   2.81993    0.000
 5871.00    3.09680   2.82122    0.000
 5872.00    3.10706   2.82070    0.000
 5873.00    3.00338   2.81774    0.000
 5874.00    2.80340   2.81285    0.000
 5875.00    2.52895   2.80500    0.000
 5876.00    2.40731   2.79524    0.000
 5877.00    2.38960   2.78217    0.000
 5878.00    2.44002   2.76655    0.000
 5879.00    2.53104   2.74687    0.000
 5880.00    2.49463   2.72340    0.000
 5881.00    2.39198   2.69528    0.000
 5882.00    2.36418   2.66383    0.000
 5883.00    2.37014   2.62786    0.000
 5884.00    2.41675   2.58921    0.000
 5885.00    2.47913   2.54791    0.000
 5886.00    2.43570   2.50620    0.000
 5887.00    2.35737   2.46521    0.000
 5888.00    2.29129   2.42851    0.000
 5889.00    2.22860   2.39662    0.000
 5890.00    2.30914   2.37275    0.000
 5891.00    2.42226   2.35715    0.000
 5892.00    2.59276   2.35145    0.000
 5893.00    2.77369   2.35510    0.000
 5894.00    2.67903   2.36862    0.000
 5895.00    2.54587   2.39016    0.000
 5896.00    2.47627   2.41906    0.000
 5897.00    2.41305   2.45311    0.000
 5898.00    2.61181   2.49065    0.000
 5899.00    2.82724   2.52971    0.000
 5900.00    2.72222   2.56844    0.000
 5901.00    2.60821   2.60541    0.005
 5902.00    2.63164   2.63914    0.005
 5903.00    2.65631   2.66891    0.005
 5904.00    2.71597   2.69424    0.005
 5905.00    2.77005   2.71467    0.005
 5906.00    2.74469   2.73083    0.005
 5907.00    2.72162   2.74220    0.005
 5908.00    2.71992   2.75076    0.005
 5909.00    2.71756   2.75548    0.005
 5910.00    2.71063   2.75887    0.005
 5911.00    2.70419   2.75991    0.005
 5912.00    2.70028   2.76074    0.005
 5913.00    2.69468   2.76090    0.005
 5914.00    2.68192   2.76155    0.005
 5915.00    2.67034   2.76272    0.005
 5916.00    2.66284   2.76458    0.005
 5917.00    2.61935   2.76766    0.005
 5918.00    2.47003   2.77083    0.005
 5919.00    2.36383   2.77507    0.005
 5920.00    2.36573   2.77875    0.005
 5921.00    2.39227   2.78262    0.005
 5922.00    2.47201   2.78571    0.005
 5923.00    2.54807   2.78806    0.005
 5924.00    2.61726   2.79013    0.005
 5925.00    2.67633   2.79104    0.005
 5926.00    2.71883   2.79184    0.005
 5927.00    2.69607   2.79138    0.005
 5928.00    2.57959   2.79141    0.005
 5929.00    2.52729   2.79124    0.005
 5930.00    2.55604   2.79149    0.005
 5931.00    2.53483   2.79197    0.005
 5932.00    2.45804   2.79285    0.005
 5933.00    2.43444   2.79425    0.005
 5934.00    2.46306   2.79534    0.005
 5935.00    2.58410   2.79730    0.005
 5936.00    2.78513   2.79886    0.005
 5937.00    2.91747   2.80078    0.005
 5938.00    2.99743   2.80219    0.005
 5939.00    2.92000   2.80356    0.005
 5940.00    2.73710   2.80432    0.005
 5941.00    2.69466   2.80451    0.005
 5942.00    2.73468   2.80415    0.005
 5943.00    2.78978   2.80351    0.005
 5944.00    2.85259   2.80237    0.005
 5945.00    2.87307   2.80060    0.005
 5946.00    2.87478   2.79829    0.005
 5947.00    2.83235   2.79625    0.005
 5948.00    2.77310   2.79384    0.005
 5949.00    2.69529   2.79187    0.005
 5950.00    2.61148   2.78998    0.005
 5951.00    2.68470   2.78930    0.005
 5952.00    2.80044   2.78915    0.005
 5953.00    2.80317   2.79068    0.005
 5954.00    2.78081   2.79298    0.005
 5955.00    2.77849   2.79701    0.005
 5956.00    2.77972   2.80164    0.005
 5957.00    2.80383   2.80771    0.005
 5958.00    2.83102   2.81397    0.005
 5959.00    2.75745   2.82093    0.005
 5960.00    2.67419   2.82804    0.005
 5961.00    2.66423   2.83486    0.005
 5962.00    2.65863   2.84167    0.005
 5963.00    2.80900   2.84752    0.005
 5964.00    2.96240   2.85310    0.005
 5965.00    2.96802   2.85724    0.005
 5966.00    2.97313   2.86091    0.005
 5967.00    2.96553   2.86285    0.005
 5968.00    2.95023   2.86386    0.005
 5969.00    2.83124   2.86311    0.005
 5970.00    2.72703   2.86116    0.005
 5971.00    2.75506   2.85774    0.005
 5972.00    2.77294   2.85323    0.005
 5973.00    2.72395   2.84801    0.005
 5974.00    2.68984   2.84186    0.005
 5975.00    2.73195   2.83575    0.005
 5976.00    2.77156   2.82906    0.005
 5977.00    2.80081   2.82280    0.005
 5978.00    2.81066   2.81682    0.005
 5979.00    2.75403   2.81176    0.005
 5980.00    2.71731   2.80759    0.005
 5981.00    2.73806   2.80499    0.005
 5982.00    2.72199   2.80321    0.005
 5983.00    2.61519   2.80312    0.005
 5984.00    2.52435   2.80390    0.005
 5985.00    2.46743   2.80636    0.005
 5986.00    2.45668   2.80943    0.005
 5987.00    2.53114   2.81359    0.005
 5988.00    2.55041   2.81829    0.005
 5989.00    2.48067   2.82302    0.005
 5990.00    2.46963   2.82736    0.005
 5991.00    2.54164   2.83085    0.005
 5992.00    2.62424   2.83348    0.005
 5993.00    2.72000   2.83486    0.005
 5994.00    2.76571   2.83542    0.005
 5995.00    2.75648   2.83441    0.005
 5996.00    2.73574   2.83257    0.005
 5997.00    2.70385   2.82946    0.005
 5998.00    2.76076   2.82560    0.005
 5999.00    2.89346   2.82148    0.005
 6000.00    2.96723   2.81700    0.005
 6001.00    2.99671   2.81193    0.005
 6002.00    2.98706   2.80734    0.005
 6003.00    2.95158   2.80239    0.005
 6004.00    2.81753   2.79882    0.005
 6005.00    2.62649   2.79554    0.005
 6006.00    2.46623   2.79287    0.005
 6007.00    2.32148   2.79032    0.005
 6008.00    2.38575   2.78833    0.004
 6009.00    2.54117   2.78692    0.005
 6010.00    2.64172   2.78612    0.005
 6011.00    2.72174   2.78505    0.005
 6012.00    2.62105   2.78426    0.005
 6013.00    2.46301   2.78372    0.005
 6014.00    2.49348   2.78343    0.005
 6015.00    2.57392   2.78271    0.005
 6016.00    2.56467   2.78342    0.005
 6017.00    2.53598   2.78403    0.005
 6018.00    2.53367   2.78667    0.005
 6019.00    2.53592   2.78925    0.005
 6020.00    2.62320   2.79435    0.005
 6021.00    2.72158   2.80026    0.005
 6022.00    2.69875   2.80733    0.005
 6023.00    2.66477   2.81633    0.005
 6024.00    2.64935   2.82570    0.005
 6025.00    2.63497   2.83659    0.005
 6026.00    2.67020   2.84669    0.005
 6027.00    2.70494   2.85815    0.005
 6028.00    2.58143   2.86832    0.005
 6029.00    2.46274   2.87858    0.005
 6030.00    2.45569   2.88741    0.005
 6031.00    2.45454   2.89553    0.005
 6032.00    2.52863   2.90246    0.005
 6033.00    2.59631   2.90815    0.005
 6034.00    2.60876   2.91292    0.005
 6035.00    2.62937   2.91624    0.005
 6036.00    2.70210   2.91966    0.005
 6037.00    2.75352   2.92163    0.005
 6038.00    2.69847   2.92440    0.004
 6039.00    2.65909   2.92642    0.004
 6040.00    2.68319   2.92883    0.005
 6041.00    2.69965   2.93101    0.005
 6042.00    2.69047   2.93332    0.005
 6043.00    2.67670   2.93559    0.004
 6044.00    2.64995   2.93710    0.005
 6045.00    2.65011   2.93888    0.005
 6046.00    2.71546   2.93927    0.005
 6047.00    2.77898   2.93920    0.005
 6048.00    2.83866   2.93764    0.005
 6049.00    2.91454   2.93535    0.005
 6050.00    3.01985   2.93234    0.005
 6051.00    3.06105   2.92792    0.005
 6052.00    3.00039   2.92394    0.005
 6053.00    2.95150   2.91888    0.005
 6054.00    2.91900   2.91486    0.005
 6055.00    2.86163   2.91019    0.005
 6056.00    2.77373   2.90637    0.005
 6057.00    2.68037   2.90266    0.005
 6058.00    2.58111   2.89927    0.005
 6059.00    2.52342   2.89731    0.005
 6060.00    2.50540   2.89482    0.005
 6061.00    2.52812   2.89515    0.005
 6062.00    2.58512   2.89647    0.005
 6063.00    2.59874   2.89953    0.005
 6064.00    2.58022   2.90376    0.005
 6065.00    2.60177   2.90896    0.005
 6066.00    2.64938   2.91540    0.004
 6067.00    2.71369   2.92178    0.004
 6068.00    2.78751   2.92853    0.004
 6069.00    2.90210   2.93397    0.004
 6070.00    3.03689   2.93857    0.004
 6071.00    3.02552   2.94081    0.005
 6072.00    2.95147   2.94117    0.005
 6073.00    2.93849   2.93872    0.005
 6074.00    2.94796   2.93422    0.005
 6075.00    2.99294   2.92836    0.005
 6076.00    3.04897   2.92042    0.005
 6077.00    2.92564   2.91178    0.005
 6078.00    2.75577   2.90271    0.005
 6079.00    2.69673   2.89415    0.005
 6080.00    2.66116   2.88565    0.005
 6081.00    2.72128   2.87859    0.005
 6082.00    2.79742   2.87245    0.005
 6083.00    2.82079   2.86791    0.005
 6084.00    2.83751   2.86432    0.005
 6085.00    2.80719   2.86155    0.005
 6086.00    2.77276   2.86031    0.005
 6087.00    2.73450   2.85960    0.005
 6088.00    2.69604   2.86004    0.005
 6089.00    2.65662   2.86086    0.005
 6090.00    2.61698   2.86278    0.005
 6091.00    2.56259   2.86401    0.005
 6092.00    2.51301   2.86561    0.005
 6093.00    2.56562   2.86639    0.005
 6094.00    2.61498   2.86698    0.005
 6095.00    2.62490   2.86655    0.004
 6096.00    2.62916   2.86536    0.004
 6097.00    2.58636   2.86241    0.004
 6098.00    2.54702   2.85878    0.004
 6099.00    2.52921   2.85657    0.004
 6100.00    2.50940   2.85358    0.004
 6101.00    2.47985   2.85329    0.004
 6102.00    2.46226   2.85275    0.005
 6103.00    2.49204   2.85413    0.005
 6104.00    2.52486   2.85675    0.005
 6105.00    2.56771   2.86089    0.005
 6106.00    2.59082   2.86578    0.005
 6107.00    2.55900   2.87129    0.005
 6108.00    2.53644   2.87709    0.005
 6109.00    2.53589   2.88210    0.005
 6110.00    2.56784   2.88672    0.005
 6111.00    2.66663   2.88884    0.005
 6112.00    2.74674   2.88993    0.005
 6113.00    2.79342   2.88854    0.005
 6114.00    2.79817   2.88576    0.005
 6115.00    2.73729   2.88085    0.005
 6116.00    2.68999   2.87475    0.005
 6117.00    2.66138   2.86656    0.005
 6118.00    2.61820   2.85989    0.005
 6119.00    2.55742   2.85302    0.004
 6120.00    2.58103   2.84765    0.004
 6121.00    2.69467   2.84385    0.004
 6122.00    2.75032   2.84047    0.005
 6123.00    2.75143   2.83891    0.005
 6124.00    2.74993   2.83786    0.004
 6125.00    2.74625   2.83816    0.004
 6126.00    2.76311   2.83817    0.004
 6127.00    2.79497   2.83798    0.004
 6128.00    2.80463   2.83699    0.004
 6129.00    2.80007   2.83397    0.004
 6130.00    2.78449   2.82938    0.004
 6131.00    2.76274   2.82289    0.005
 6132.00    2.78338   2.81459    0.005
 6133.00    2.82471   2.80741    0.005
 6134.00    2.84091   2.80053    0.005
 6135.00    2.84652   2.79656    0.005
 6136.00    2.77165   2.79412    0.005
 6137.00    2.66774   2.79407    0.005
 6138.00    2.58594   2.79663    0.005
 6139.00    2.51090   2.80132    0.005
 6140.00    2.49861   2.80945    0.005
 6141.00    2.50224   2.81819    0.005
 6142.00    2.51781   2.82776    0.005
 6143.00    2.53584   2.83638    0.005
 6144.00    2.53591   2.84450    0.005
 6145.00    2.53306   2.85050    0.005
 6146.00    2.61181   2.85500    0.005
 6147.00    2.70048   2.85717    0.005
 6148.00    2.77167   2.85766    0.005
 6149.00    2.84140   2.85519    0.005
 6150.00    2.78573   2.85024    0.004
 6151.00    2.72405   2.84234    0.004
 6152.00    2.59664   2.83179    0.004
 6153.00    2.46966   2.81968    0.004
 6154.00    2.42215   2.80488    0.004
 6155.00    2.38143   2.78810    0.004
 6156.00    2.47411   2.76891    0.004
 6157.00    2.56562   2.74902    0.004
 6158.00    2.64352   2.72844    0.005
 6159.00    2.70253   2.70918    0.005
 6160.00    2.61041   2.69317    0.005
 6161.00    2.51754   2.67934    0.005
 6162.00    2.42019   2.66968    0.005
 6163.00    2.36845   2.66206    0.004
 6164.00    2.53349   2.65840    0.005
 6165.00    2.65798   2.65810    0.005
 6166.00    2.62540   2.66052    0.005
 6167.00    2.57540   2.66667    0.005
 6168.00    2.46921   2.67564    0.005
 6169.00    2.41641   2.68733    0.005
 6170.00    2.50950   2.69857    0.005
 6171.00    2.61062   2.71192    0.005
 6172.00    2.73054   2.72487    0.005
 6173.00    2.82029   2.73860    0.005
 6174.00    2.84895   2.75102    0.005
 6175.00    2.84064   2.76303    0.005
 6176.00    2.76717   2.77406    0.005
 6177.00    2.65535   2.78240    0.004
 6178.00    2.48438   2.79005    0.004
 6179.00    2.33260   2.79505    0.004
 6180.00    2.20683   2.79832    0.004
 6181.00    2.18148   2.79811    0.004
 6182.00    2.27591   2.79657    0.004
 6183.00    2.41128   2.79195    0.004
 6184.00    2.58972   2.78602    0.004
 6185.00    2.74004   2.77959    0.005
 6186.00    2.86428   2.77180    0.005
 6187.00    2.85144   2.76554    0.005
 6188.00    2.72652   2.75868    0.005
 6189.00    2.59037   2.75459    0.005
 6190.00    2.44613   2.75397    0.005
 6191.00    2.43085   2.75419    0.005
 6192.00    2.49702   2.75686    0.005
 6193.00    2.51113   2.76080    0.005
 6194.00    2.49649   2.76645    0.005
 6195.00    2.40344   2.77268    0.005
 6196.00    2.27275   2.77937   -2.000
 6197.00    2.50502   2.78646   -2.000
 6198.00    2.88774   2.79444   -2.000
 6199.00    3.30016   2.80191   -2.000
 6200.00    3.72310   2.80837   -2.000
 6201.00    3.54118   2.81393   -2.000
 6202.00    3.17824   2.81781   -2.000
 6203.00    2.78654   2.82025   -2.000
 6204.00    2.38768   2.82060   -2.000
 6205.00    2.36621   2.81871   -2.000
 6206.00    2.42074   2.81440   -2.000
 6207.00    2.49883   2.80793   -2.000
 6208.00    2.58064   2.79855    0.005
 6209.00    2.52366   2.78844    0.004
 6210.00    2.45041   2.77569    0.004
 6211.00    2.50368   2.76258    0.004
 6212.00    2.56700   2.75011    0.004
 6213.00    2.67940   2.73803    0.004
 6214.00    2.79397   2.72798    0.004
 6215.00    2.75176   2.71908    0.004
 6216.00    2.70618   2.71126    0.004
 6217.00    2.58190   2.70543    0.004
 6218.00    2.45748   2.70228    0.004
 6219.00    2.33057   2.70020    0.004
 6220.00    2.21538   2.70002    0.004
 6221.00    2.22916   2.69911    0.005
 6222.00    2.26257   2.69938    0.005
 6223.00    2.44757   2.69971    0.005
 6224.00    2.61793   2.69925    0.005
 6225.00    2.70268   2.69870    0.005
 6226.00    2.76183   2.69689    0.005
 6227.00    2.70221   2.69485    0.005
 6228.00    2.65264   2.69224    0.005
 6229.00    2.64119   2.69338    0.005
 6230.00    2.63067   2.69278    0.005
 6231.00    2.62310   2.69466    0.005
 6232.00    2.63901   2.69552    0.004
 6233.00    2.71800   2.69613    0.004
 6234.00    2.80682   2.69652    0.004
 6235.00    2.91832   2.69537    0.004
 6236.00    2.97670   2.69490    0.004
 6237.00    2.92921   2.69216    0.004
 6238.00    2.86605   2.69018    0.004
 6239.00    2.77568   2.68783    0.004
 6240.00    2.68254   2.68377    0.004
 6241.00    2.58519   2.68127    0.004
 6242.00    2.46957   2.67862    0.004
 6243.00    2.32957   2.67612    0.004
 6244.00    2.21635   2.67410    0.004
 6245.00    2.13461   2.67298    0.004
 6246.00    2.13736   2.67126    0.004
 6247.00    2.22770   2.66857    0.004
 6248.00    2.30446   2.66604    0.004
 6249.00    2.36878   2.66094    0.004
 6250.00    2.46353   2.65760    0.005
 6251.00    2.58280   2.65273    0.005
 6252.00    2.57481   2.64967    0.005
 6253.00    2.47655   2.64632    0.005
 6254.00    2.42342   2.64386    0.005
 6255.00    2.39838   2.64374    0.004
 6256.00    2.39255   2.64530    0.004
 6257.00    2.39717   2.65202    0.005
 6258.00    2.42223   2.65776    0.005
 6259.00    2.45694   2.66771    0.005
 6260.00    2.62447   2.67811    0.005
 6261.00    2.84613   2.68997    0.005
 6262.00    2.92990   2.70099    0.005
 6263.00    2.96568   2.71307    0.005
 6264.00    2.82612   2.72559    0.005
 6265.00    2.63512   2.73578    0.005
 6266.00    2.51329   2.74537    0.005
 6267.00    2.40825   2.75344    0.005
 6268.00    2.39296   2.76146    0.005
 6269.00    2.39527   2.76750    0.004
 6270.00    2.52758   2.77291    0.004
 6271.00    2.67977   2.77629    0.005
 6272.00    2.69348   2.77938    0.005
 6273.00    2.69157   2.78128    0.005
 6274.00    2.64376   2.78303    0.005
 6275.00    2.59249   2.78422    0.005
 6276.00    2.58834   2.78536    0.004
 6277.00    2.58607   2.78540    0.004
 6278.00    2.54292   2.78674    0.004
 6279.00    2.50181   2.78985    0.005
 6280.00    2.55529   2.79233    0.000
 6281.00    2.60833   2.79735    0.000
 6282.00    2.65391   2.80030    0.000
 6283.00    2.69269   2.80534    0.000
 6284.00    2.65992   2.81000    0.000
 6285.00    2.63721   2.81438    0.000
 6286.00    2.68949   2.81795    0.000
 6287.00    2.73574   2.81942    0.000
 6288.00    2.74768   2.81955    0.000
 6289.00    2.75180   2.81846    0.000
 6290.00    2.72050   2.81606    0.000
 6291.00    2.71763   2.81246    0.000
 6292.00    2.82022   2.80782    0.000
 6293.00    2.89105   2.80110    0.000
 6294.00    2.86324   2.79414    0.000
 6295.00    2.79828   2.78853    0.000
 6296.00    2.63532   2.78397    0.000
 6297.00    2.53617   2.77986    0.000
 6298.00    2.58154   2.77618    0.000
 6299.00    2.66614   2.77437    0.000
 6300.00    2.82772   2.77558    0.000
 6301.00    2.94024   2.77857    0.000
 6302.00    2.96890   2.78188    0.000
 6303.00    2.94101   2.78557    0.000
 6304.00    2.82845   2.79110    0.000
 6305.00    2.71174   2.79551    0.000
 6306.00    2.58956   2.79918    0.000
 6307.00    2.50809   2.80103    0.000
 6308.00    2.47380   2.80154    0.000
 6309.00    2.46478   2.80098    0.000
 6310.00    2.48159   2.79963    0.000
 6311.00    2.46506   2.79705    0.000
 6312.00    2.41846   2.79212    0.000
 6313.00    2.34538   2.78936    0.000
 6314.00    2.25126   2.78685    0.000
 6315.00    2.22725   2.78305    0.000
 6316.00    2.25224   2.78299    0.000
 6317.00    2.30532   2.78479    0.000
 6318.00    2.37563   2.78838    0.000
 6319.00    2.41524   2.79316    0.000
 6320.00    2.43842   2.79930    0.000
 6321.00    2.41238   2.80831    0.004
 6322.00    2.36345   2.81581    0.004
 6323.00    2.32159   2.82496    0.004
 6324.00    2.28257   2.83165    0.004
 6325.00    2.26706   2.83885    0.004
 6326.00    2.25959   2.84552    0.005
 6327.00    2.26539   2.84825    0.004
 6328.00    2.27500   2.85158    0.004
 6329.00    2.38387   2.85233    0.004
 6330.00    2.51632   2.85250    0.004
 6331.00    2.64659   2.85026    0.004
 6332.00    2.77645   2.84540    0.004
 6333.00    2.77447   2.84139    0.004
 6334.00    2.75294   2.83774    0.004
 6335.00    2.64002   2.83631    0.004
 6336.00    2.51718   2.83305    0.004
 6337.00    2.51141   2.83272    0.004
 6338.00    2.51397   2.83284    0.004
 6339.00    2.47355   2.83268    0.004
 6340.00    2.43156   2.83387    0.004
 6341.00    2.41907   2.83380    0.004
 6342.00    2.40890   2.83705    0.004
 6343.00    2.47678   2.84011    0.004
 6344.00    2.53992   2.84358    0.004
 6345.00    2.52719   2.84684    0.004
 6346.00    2.52026   2.84917    0.004
 6347.00    2.57168   2.85032    0.004
 6348.00    2.62601   2.84973    0.004
 6349.00    2.70137   2.84783    0.004
 6350.00    2.76334   2.84359    0.004
 6351.00    2.75122   2.83756    0.004
 6352.00    2.72612   2.83000    0.004
 6353.00    2.64357   2.82222    0.004
 6354.00    2.56472   2.81373    0.004
 6355.00    2.49932   2.80330    0.004
 6356.00    2.46542   2.79366    0.004
 6357.00    2.52745   2.78579    0.004
 6358.00    2.56251   2.77923    0.004
 6359.00    2.52772   2.77429    0.004
 6360.00    2.50962   2.77273    0.004
 6361.00    2.52873   2.77428    0.004
 6362.00    2.57455   2.77912    0.004
 6363.00    2.67193   2.78668    0.004
 6364.00    2.72252   2.79601    0.004
 6365.00    2.69433   2.80806    0.004
 6366.00    2.65857   2.82034    0.004
 6367.00    2.61164   2.83328    0.004
 6368.00    2.60819   2.84597    0.004
 6369.00    2.66113   2.85888    0.004
 6370.00    2.71990   2.87097    0.004
 6371.00    2.78535   2.88073    0.004
 6372.00    2.75701   2.88912    0.004
 6373.00    2.63414   2.89512    0.004
 6374.00    2.49453   2.90032    0.004
 6375.00    2.34003   2.90238    0.004
 6376.00    2.31426   2.90357    0.004
 6377.00    2.38931   2.90426    0.004
 6378.00    2.52231   2.90370    0.005
 6379.00    2.69523   2.90404    0.005
 6380.00    2.74846   2.90296    0.005
 6381.00    2.72941   2.90128    0.005
 6382.00    2.66947   2.89957    0.004
 6383.00    2.58797   2.89833    0.004
 6384.00    2.55829   2.89675    0.004
 6385.00    2.55231   2.89440    0.004
 6386.00    2.52548   2.89232    0.004
 6387.00    2.49045   2.88931    0.004
 6388.00    2.45490   2.88557    0.004
 6389.00    2.41919   2.88188    0.004
 6390.00    2.44062   2.87564    0.004
 6391.00    2.47815   2.87201    0.004
 6392.00    2.48011   2.86994    0.004
 6393.00    2.47382   2.86813    0.004
 6394.00    2.45608   2.86738    0.004
 6395.00    2.43620   2.86592    0.004
 6396.00    2.46206   2.86543    0.004
 6397.00    2.49450   2.86292    0.004
 6398.00    2.48481   2.86585    0.004
 6399.00    2.47075   2.86869    0.004
 6400.00    2.55955   2.87188    0.005
 6401.00    2.65525   2.87696    0.005
 6402.00    2.69213   2.87925    0.005
 6403.00    2.72709   2.88210    0.005
 6404.00    2.60826   2.88264    0.004
 6405.00    2.49025   2.88254    0.004
 6406.00    2.39902   2.88319    0.004
 6407.00    2.31166   2.88430    0.004
 6408.00    2.28233   2.88394    0.004
 6409.00    2.25737   2.88269    0.004
 6410.00    2.27456   2.88221    0.004
 6411.00    2.29069   2.88095    0.004
 6412.00    2.29944   2.88006    0.004
 6413.00    2.31298   2.88027    0.004
 6414.00    2.35235   2.87971    0.004
 6415.00    2.39249   2.88098    0.004
 6416.00    2.43597   2.88207    0.004
 6417.00    2.46443   2.88229    0.004
 6418.00    2.43939   2.88341    0.004
 6419.00    2.42083   2.88680    0.004
 6420.00    2.42160   2.89149    0.004
 6421.00    2.45161   2.89460    0.004
 6422.00    2.55609   2.89892    0.004
 6423.00    2.68152   2.90188    0.005
 6424.00    2.85284   2.90525    0.005
 6425.00    2.94396   2.90743    0.005
 6426.00    2.88266   2.90852    0.004
 6427.00    2.83460   2.90815    0.004
 6428.00    2.80853   2.90739    0.005
 6429.00    2.78366   2.90896    0.005
 6430.00    2.76057   2.90910    0.005
 6431.00    2.70497   2.91029    0.004
 6432.00    2.60781   2.91140    0.004
 6433.00    2.57912   2.91310    0.004
 6434.00    2.62757   2.91508    0.004
 6435.00    2.69801   2.91622    0.004
 6436.00    2.79030   2.91729    0.004
 6437.00    2.81936   2.92094    0.004
 6438.00    2.79298   2.92589    0.004
 6439.00    2.72943   2.93002    0.004
 6440.00    2.63718   2.93306    0.004
 6441.00    2.60236   2.93483    0.004
 6442.00    2.60654   2.93534    0.004
 6443.00    2.60901   2.93462    0.004
 6444.00    2.61045   2.93200    0.004
 6445.00    2.63663   2.92752    0.004
 6446.00    2.67564   2.92212    0.004
 6447.00    2.64438   2.91608    0.004
 6448.00    2.58152   2.91282    0.005
 6449.00    2.45576   2.90892    0.005
 6450.00    2.30566   2.90725    0.005
 6451.00    2.24583   2.90607    0.005
 6452.00    2.21570   2.90389    0.004
 6453.00    2.25238   2.90348    0.004
 6454.00    2.30749   2.90467    0.004
 6455.00    2.38444   2.90674    0.004
 6456.00    2.46636   2.90954    0.004
 6457.00    2.53278   2.91382    0.004
 6458.00    2.59640   2.91809    0.004
 6459.00    2.63816   2.91776    0.004
 6460.00    2.67687   2.91875    0.004
 6461.00    2.64654   2.92100    0.004
 6462.00    2.60933   2.92208    0.004
 6463.00    2.51627   2.92695    0.004
 6464.00    2.41968   2.92921    0.004
 6465.00    2.41615   2.93231    0.004
 6466.00    2.41546   2.93283    0.004
 6467.00    2.46478   2.93474    0.004
 6468.00    2.51188   2.93458    0.004
 6469.00    2.49726   2.93459    0.004
 6470.00    2.48711   2.93834    0.004
 6471.00    2.54015   2.93797    0.004
 6472.00    2.59172   2.93743    0.004
 6473.00    2.62968   2.93543    0.005
 6474.00    2.66950   2.93437    0.005
 6475.00    2.72196   2.93133    0.005
 6476.00    2.76351   2.92859    0.005
 6477.00    2.74790   2.92542    0.004
 6478.00    2.72890   2.92039    0.004
 6479.00    2.69556   2.91543    0.004
 6480.00    2.64244   2.90976    0.004
 6481.00    2.52029   2.90367    0.004
 6482.00    2.40923   2.89740    0.004
 6483.00    2.33068   2.89065    0.004
 6484.00    2.29156   2.88076    0.004
 6485.00    2.35105   2.86967    0.004
 6486.00    2.40750   2.85667    0.004
 6487.00    2.45739   2.84158    0.004
 6488.00    2.52645   2.82546    0.004
 6489.00    2.63138   2.80828    0.004
 6490.00    2.72267   2.79214    0.004
 6491.00    2.79169   2.77347    0.004
 6492.00    2.76925   2.75793    0.004
 6493.00    2.61575   2.74531    0.004
 6494.00    2.48641   2.73610    0.004
 6495.00    2.38751   2.73450    0.004
 6496.00    2.36401   2.73354    0.004
 6497.00    2.42427   2.74077    0.004
 6498.00    2.56954   2.74998    0.004
 6499.00    2.79810   2.76319    0.005
 6500.00    2.92734   2.77970    0.005
 6501.00    2.97074   2.79656    0.004
 6502.00    2.93430   2.81749    0.004
 6503.00    2.83707   2.83553    0.004
 6504.00    2.73334   2.85398    0.004
 6505.00    2.62526   2.86849    0.004
 6506.00    2.55381   2.88099    0.004
 6507.00    2.50384   2.89236    0.004
 6508.00    2.49440   2.89991    0.004
 6509.00    2.50566   2.90596    0.004
 6510.00    2.50286   2.90998    0.004
 6511.00    2.49382   2.91209    0.004
 6512.00    2.52947   2.91268    0.004
 6513.00    2.58211   2.91194    0.004
 6514.00    2.59948   2.91152    0.004
 6515.00    2.60547   2.91049    0.004
 6516.00    2.63141   2.91023    0.004
 6517.00    2.66273   2.91118    0.004
 6518.00    2.67117   2.91192    0.004
 6519.00    2.67455   2.91397    0.004
 6520.00    2.65336   2.91560    0.004
 6521.00    2.62784   2.91751    0.004
 6522.00    2.58396   2.91934    0.004
 6523.00    2.53761   2.92096    0.004
 6524.00    2.59583   2.92263    0.004
 6525.00    2.66406   2.92471    0.004
 6526.00    2.69130   2.92700    0.004
 6527.00    2.71611   2.92895    0.004
 6528.00    2.69909   2.93032    0.000
 6529.00    2.68155   2.93120    0.000
 6530.00    2.74139   2.93236    0.000
 6531.00    2.80015   2.93334    0.000
 6532.00    2.83178   2.93501    0.000
 6533.00    2.86487   2.93624    0.000
 6534.00    2.91757   2.93729    0.000
 6535.00    2.95965   2.93777    0.000
 6536.00    2.90725   2.93634    0.000
 6537.00    2.84633   2.93511    0.000
 6538.00    2.72966   2.93213    0.000
 6539.00    2.63348   2.92856    0.000
 6540.00    2.64203   2.92331    0.000
 6541.00    2.68294   2.91656    0.000
 6542.00    2.85743   2.90919    0.000
 6543.00    3.02763   2.89883    0.000
 6544.00    3.18315   2.88974    0.000
 6545.00    3.28876   2.87883    0.000
 6546.00    3.25067   2.86792    0.000
 6547.00    3.17408   2.85652    0.000
 6548.00    3.00281   2.84254    0.000
 6549.00    2.83561   2.82849    0.000
 6550.00    2.67705   2.81161    0.000
 6551.00    2.52705   2.79366    0.000
 6552.00    2.39282   2.77091    0.000
 6553.00    2.38388   2.74702    0.000
 6554.00    2.57663   2.72502    0.000
 6555.00    3.07835   2.70082    0.000
 6556.00    4.01645   2.67792    0.000
 6557.00    5.06123   2.65438    0.000
 6558.00    6.23857   2.63252    0.000
 6559.00    6.95430   2.60901    0.000
 6560.00    7.16443   2.59011    0.000
 6561.00    6.80109   2.58249    0.000
 6562.00    5.88372   2.57947    0.000
 6563.00    4.91998   2.58680    0.000
 6564.00    3.91673   2.59794    0.000
 6565.00    3.28968   2.61101    0.000
 6566.00    2.94488   2.62676    0.000
 6567.00    2.75983   2.64506    0.000
 6568.00    2.68010   2.66799    0.000
 6569.00    2.58702   2.69090    0.000
 6570.00    2.48623   2.71613    0.000
 6571.00    2.37866   2.73942    0.000
 6572.00    2.26768   2.75829    0.000
 6573.00    2.28054   2.77686    0.000
 6574.00    2.34729   2.79381    0.000
 6575.00    2.61973   2.80951    0.000
 6576.00    2.96895   2.82309    0.000
 6577.00    3.45630   2.83530    0.000
 6578.00    3.98738   2.84525    0.000
 6579.00    4.27856   2.85403    0.000
 6580.00    4.50630   2.86231    0.000
 6581.00    4.35288   2.86909    0.000
 6582.00    4.11706   2.87456    0.000
 6583.00    3.82389   2.87639    0.000
 6584.00    3.52088   2.87795    0.000
 6585.00    3.28945   2.87756    0.000
 6586.00    3.06733   2.87676    0.000
 6587.00    2.93832   2.87587    0.000
 6588.00    2.81782   2.87278    0.000
 6589.00    2.69146   2.86923    0.000
 6590.00    2.56477   2.86373    0.000
 6591.00    2.49590   2.86056    0.000
 6592.00    2.42854   2.85883    0.000
 6593.00    2.38764   2.85849    0.000
 6594.00    2.34708   2.86007    0.000
 6595.00    2.31405   2.86047    0.000
 6596.00    2.28927   2.86148    0.000
 6597.00    2.36902   2.86324    0.000
 6598.00    2.44623   2.86613    0.000
 6599.00    2.50161   2.86965    0.000
 6600.00    2.55282   2.87332    0.000
 6601.00    2.57744   2.87604    0.000
 6602.00    2.58882   2.87770    0.000
 6603.00    2.53426   2.87884    0.000
 6604.00    2.47039   2.87972    0.000
 6605.00    2.36899   2.88139    0.000
 6606.00    2.28969   2.88199    0.000
 6607.00    2.28443   2.88483    0.000
 6608.00    2.30779   2.88757    0.000
 6609.00    2.41208   2.89110    0.004
 6610.00    2.48921   2.89583    0.004
 6611.00    2.50071   2.89969    0.004
 6612.00    2.50355   2.90532    0.004
 6613.00    2.48836   2.90953    0.004
 6614.00    2.48130   2.91464    0.004
 6615.00    2.48897   2.91894    0.004
 6616.00    2.47476   2.92194    0.004
 6617.00    2.42583   2.92408    0.004
 6618.00    2.37387   2.92497    0.004
 6619.00    2.31770   2.92467    0.004
 6620.00    2.28267   2.92276    0.004
 6621.00    2.27353   2.91944    0.004
 6622.00    2.33077   2.91470    0.004
 6623.00    2.45968   2.91025    0.004
 6624.00    2.49561   2.90438    0.004
 6625.00    2.44297   2.89979    0.004
 6626.00    2.39340   2.89446    0.004
 6627.00    2.34640   2.88913    0.004
 6628.00    2.37345   2.88442    0.004
 6629.00    2.45526   2.87927    0.004
 6630.00    2.50039   2.87567    0.004
 6631.00    2.52170   2.87220    0.004
 6632.00    2.52508   2.87054    0.004
 6633.00    2.51826   2.86965    0.004
 6634.00    2.46991   2.86986    0.004
 6635.00    2.40100   2.87034    0.004
 6636.00    2.37269   2.87068    0.004
 6637.00    2.36175   2.87149    0.004
 6638.00    2.39787   2.87295    0.004
 6639.00    2.45126   2.87479    0.004
 6640.00    2.43883   2.87611    0.004
 6641.00    2.40597   2.87813    0.004
 6642.00    2.45401   2.87955    0.004
 6643.00    2.52299   2.88072    0.004
 6644.00    2.54828   2.88243    0.004
 6645.00    2.56435   2.88422    0.004
 6646.00    2.58127   2.88563    0.004
 6647.00    2.59833   2.88633    0.004
 6648.00    2.59134   2.88704    0.004
 6649.00    2.58134   2.88787    0.004
 6650.00    2.53964   2.88800    0.004
 6651.00    2.49518   2.88767    0.004
 6652.00    2.39906   2.88709    0.004
 6653.00    2.30028   2.88500    0.004
 6654.00    2.27473   2.88288    0.004
 6655.00    2.25134   2.87945    0.004
 6656.00    2.28843   2.87607    0.004
 6657.00    2.32399   2.87282    0.004
 6658.00    2.32730   2.86864    0.004
 6659.00    2.32669   2.86520    0.004
 6660.00    2.27896   2.86047    0.004
 6661.00    2.23136   2.85802    0.004
 6662.00    2.18478   2.85587    0.004
 6663.00    2.14795   2.85453    0.004
 6664.00    2.17138   2.85512    0.004
 6665.00    2.20327   2.85522    0.004
 6666.00    2.27629   2.85673    0.004
 6667.00    2.33112   2.85764    0.004
 6668.00    2.31419   2.85952    0.004
 6669.00    2.30326   2.86134    0.004
 6670.00    2.31206   2.86148    0.004
 6671.00    2.31178   2.86252    0.004
 6672.00    2.28627   2.86286    0.004
 6673.00    2.27127   2.86231    0.004
 6674.00    2.28125   2.86094    0.004
 6675.00    2.29650   2.85832    0.004
 6676.00    2.32257   2.85740    0.004
 6677.00    2.33799   2.85594    0.004
 6678.00    2.33436   2.85635    0.004
 6679.00    2.33229   2.85846    0.004
 6680.00    2.33266   2.85918    0.004
 6681.00    2.34699   2.86121    0.004
 6682.00    2.38049   2.86263    0.004
 6683.00    2.41008   2.86621    0.004
 6684.00    2.43495   2.87004    0.004
 6685.00    2.40892   2.87245    0.004
 6686.00    2.32869   2.87564    0.004
 6687.00    2.28027   2.87684    0.004
 6688.00    2.26174   2.87749    0.004
 6689.00    2.26624   2.87774    0.004
 6690.00    2.28982   2.87737    0.004
 6691.00    2.27587   2.87670    0.004
 6692.00    2.23458   2.87520    0.004
 6693.00    2.19486   2.87278    0.004
 6694.00    2.15614   2.87095    0.004
 6695.00    2.16170   2.86799    0.004
 6696.00    2.19203   2.86605    0.000
 6697.00    2.20401   2.86547    0.000
 6698.00    2.20704   2.86407    0.000
 6699.00    2.22952   2.86380    0.000
 6700.00    2.26018   2.86146    0.000
 6701.00    2.33640   2.86028    0.000
 6702.00    2.42905   2.85852    0.000
 6703.00    2.55653   2.85676    0.000
 6704.00    2.69464   2.85632    0.000
 6705.00    2.70046   2.85359    0.000
 6706.00    2.67280   2.85125    0.000
 6707.00    2.62159   2.84601    0.000
 6708.00    2.56553   2.84157    0.000
 6709.00    2.70291   2.83635    0.000
 6710.00    2.87160   2.83081    0.000
 6711.00    3.10687   2.82762    0.000
 6712.00    3.35020   2.82183    0.000
 6713.00    3.47141   2.81789    0.000
 6714.00    3.58249   2.81271    0.000
 6715.00    3.35844   2.80991    0.000
 6716.00    3.11851   2.80966    0.000
 6717.00    2.89654   2.80898    0.000
 6718.00    2.67947   2.81162    0.000
 6719.00    2.72409   2.81374    0.000
 6720.00    2.75790   2.81737    0.000
 6721.00    2.58120   2.82110    0.000
 6722.00    2.41813   2.82589    0.000
 6723.00    2.41134   2.83196    0.000
 6724.00    2.44642   2.83684    0.000
 6725.00    2.81504   2.84105    0.000
 6726.00    3.13957   2.84524    0.000
 6727.00    3.19963   2.84946    0.000
 6728.00    3.22974   2.85264    0.000
 6729.00    3.11790   2.85460    0.000
 6730.00    2.98352   2.85504    0.000
 6731.00    2.76210   2.85534    0.000
 6732.00    2.55558   2.85488    0.000
 6733.00    2.39701   2.85452    0.000
 6734.00    2.26321   2.85290    0.000
 6735.00    2.19694   2.85012    0.000
 6736.00    2.15994   2.84722    0.000
 6737.00    2.19137   2.84356    0.000
 6738.00    2.24153   2.84058    0.000
 6739.00    2.32956   2.83761    0.000
 6740.00    2.38868   2.83466    0.000
 6741.00    2.39695   2.83184    0.000
 6742.00    2.37961   2.82787    0.000
 6743.00    2.32284   2.82598    0.000
 6744.00    2.28402   2.82497    0.000
 6745.00    2.26946   2.82309    0.000
 6746.00    2.25640   2.82344    0.000
 6747.00    2.24510   2.82238    0.000
 6748.00    2.27767   2.82438    0.000
 6749.00    2.35629   2.82664    0.000
 6750.00    2.40864   2.82902    0.000
 6751.00    2.43664   2.83441    0.000
 6752.00    2.50849   2.83738    0.000
 6753.00    2.61612   2.84347    0.004
 6754.00    2.62545   2.84824    0.005
 6755.00    2.56416   2.85398    0.005
 6756.00    2.40977   2.86043    0.005
 6757.00    2.19668   2.86399    0.005
 6758.00    2.11154   2.86868    0.005
 6759.00    2.09693   2.87061    0.005
 6760.00    2.22737   2.87264    0.005
 6761.00    2.42731   2.87444    0.005
 6762.00    2.62035   2.87472    0.005
 6763.00    2.81053   2.87425    0.005
 6764.00    2.91154   2.87255    0.005
 6765.00    2.98101   2.87165    0.005
 6766.00    2.99191   2.87097    0.005
 6767.00    2.98533   2.87063    0.005
 6768.00    2.98970   2.87188    0.005
 6769.00    2.99680   2.87255    0.005
 6770.00    2.93030   2.87331    0.005
 6771.00    2.84903   2.87552    0.005
 6772.00    2.78440   2.87802    0.005
 6773.00    2.72239   2.88179    0.004
 6774.00    2.68187   2.88344    0.004
 6775.00    2.64387   2.88398    0.004
 6776.00    2.47903   2.88438    0.004
 6777.00    2.30419   2.88402    0.004
 6778.00    2.30129   2.88371    0.004
 6779.00    2.30587   2.88139    0.005
 6780.00    2.30467   2.87891    0.005
 6781.00    2.30302   2.87455    0.005
 6782.00    2.28335   2.87016    0.005
 6783.00    2.26133   2.86703    0.005
 6784.00    2.19685   2.86440    0.005
 6785.00    2.13780   2.86217    0.005
 6786.00    2.13814   2.85953    0.005
 6787.00    2.15408   2.85870    0.005
 6788.00    2.28997   2.85748    0.005
 6789.00    2.42983   2.85820    0.005
 6790.00    2.59281   2.85919    0.005
 6791.00    2.72539   2.86042    0.005
 6792.00    2.71740   2.86272    0.005
 6793.00    2.69637   2.86377    0.005
 6794.00    2.62602   2.86655    0.004
 6795.00    2.56027   2.86857    0.004
 6796.00    2.50905   2.87083    0.004
 6797.00    2.47934   2.87329    0.004
 6798.00    2.50720   2.87473    0.004
 6799.00    2.54739   2.87702    0.004
 6800.00    2.61594   2.87901    0.004
 6801.00    2.66614   2.88018    0.005
 6802.00    2.67984   2.88120    0.005
 6803.00    2.66223   2.88172    0.005
 6804.00    2.59036   2.88240    0.005
 6805.00    2.48411   2.88377    0.005
 6806.00    2.32572   2.88299    0.005
 6807.00    2.23756   2.88281    0.005
 6808.00    2.24299   2.88331    0.004
 6809.00    2.21843   2.88341    0.004
 6810.00    2.15866   2.88504    0.005
 6811.00    2.15192   2.88490    0.005
 6812.00    2.20005   2.88547    0.005
 6813.00    2.23638   2.88694    0.005
 6814.00    2.26192   2.88737    0.005
 6815.00    2.26656   2.89021    0.005
 6816.00    2.25438   2.89279    0.004
 6817.00    2.25736   2.89444    0.004
 6818.00    2.27107   2.89625    0.004
 6819.00    2.30855   2.89693    0.004
 6820.00    2.36079   2.89889    0.004
 6821.00    2.43747   2.90172    0.004
 6822.00    2.52743   2.90335    0.004
 6823.00    2.56580   2.90454    0.004
 6824.00    2.57984   2.90441    0.004
 6825.00    2.49011   2.90410    0.004
 6826.00    2.35819   2.90446    0.004
 6827.00    2.35857   2.90373    0.005
 6828.00    2.40489   2.90293    0.005
 6829.00    2.61254   2.90186    0.005
 6830.00    2.86738   2.89986    0.005
 6831.00    2.81487   2.89673    0.005
 6832.00    2.68792   2.89284    0.005
 6833.00    2.57076   2.88895    0.005
 6834.00    2.45551   2.88593    0.004
 6835.00    2.40617   2.88206    0.004
 6836.00    2.36688   2.87736    0.004
 6837.00    2.49307   2.87361    0.005
 6838.00    2.63783   2.86938    0.005
 6839.00    2.61825   2.86696    0.005
 6840.00    2.58638   2.86471    0.005
 6841.00    2.53632   2.86310    0.005
 6842.00    2.48554   2.86353    0.005
 6843.00    2.35688   2.86385    0.004
 6844.00    2.23416   2.86537    0.004
 6845.00    2.36895   2.86661    0.004
 6846.00    2.48836   2.86718    0.004
 6847.00    2.34797   2.86819    0.004
 6848.00    2.22704   2.86907    0.004
 6849.00    2.30970   2.86929    0.004
 6850.00    2.39143   2.86891    0.004
 6851.00    2.46625   2.86770    0.004
 6852.00    2.51887   2.86565    0.004
 6853.00    2.44565   2.86268    0.004
 6854.00    2.38319   2.85881    0.004
 6855.00    2.36927   2.85701    0.004
 6856.00    2.38223   2.85667    0.004
 6857.00    2.49468   2.85536    0.004
 6858.00    2.56789   2.85399    0.004
 6859.00    2.51961   2.85151    0.004
 6860.00    2.45300   2.85046    0.004
 6861.00    2.33820   2.85204    0.004
 6862.00    2.28613   2.85386    0.004
 6863.00    2.37583   2.85615    0.004
 6864.00    2.42772   2.85652    0.004
 6865.00    2.40561   2.85596    0.004
 6866.00    2.36495   2.85688    0.005
 6867.00    2.29264   2.85908    0.005
 6868.00    2.27604   2.86207    0.005
 6869.00    2.34271   2.86419    0.005
 6870.00    2.36758   2.86536    0.005
 6871.00    2.33752   2.86640    0.005
 6872.00    2.32163   2.86823    0.004
 6873.00    2.32215   2.87117    0.004
 6874.00    2.33298   2.87443    0.004
 6875.00    2.35435   2.87655    0.004
 6876.00    2.34364   2.87883    0.004
 6877.00    2.30407   2.88193    0.004
 6878.00    2.25246   2.88489    0.004
 6879.00    2.19130   2.88790    0.004
 6880.00    2.20671   2.89005    0.004
 6881.00    2.27554   2.89366    0.004
 6882.00    2.27893   2.89770    0.004
 6883.00    2.24229   2.90204    0.004
 6884.00    2.26347   2.90683    0.004
 6885.00    2.31557   2.90994    0.004
 6886.00    2.34145   2.91446    0.004
 6887.00    2.35517   2.91889    0.004
 6888.00    2.29266   2.92415    0.004
 6889.00    2.19968   2.92889    0.004
 6890.00    2.23633   2.93192    0.004
 6891.00    2.31717   2.93573    0.004
 6892.00    2.34468   2.93820    0.004
 6893.00    2.35691   2.94113    0.004
 6894.00    2.32490   2.94344    0.004
 6895.00    2.28243   2.94540    0.004
 6896.00    2.29415   2.94782    0.004
 6897.00    2.31620   2.94878    0.004
 6898.00    2.40969   2.95077    0.004
 6899.00    2.51373   2.95215    0.004
 6900.00    2.61580   2.95331    0.004
 6901.00    2.71766   2.95592    0.004
 6902.00    2.60878   2.95742    0.004
 6903.00    2.48500   2.95819    0.004
 6904.00    2.28631   2.95816    0.004
 6905.00    2.08494   2.95806    0.004
 6906.00    2.17995   2.95873    0.004
 6907.00    2.27447   2.95823    0.004
 6908.00    2.31841   2.95593    0.004
 6909.00    2.36496   2.95382    0.004
 6910.00    2.45305   2.95194    0.004
 6911.00    2.54043   2.94915    0.004
 6912.00    2.62073   2.94739    0.005
 6913.00    2.66686   2.94392    0.005
 6914.00    2.46737   2.94228    0.004
 6915.00    2.30241   2.94167    0.004
 6916.00    2.32787   2.93865    0.004
 6917.00    2.35863   2.93832    0.004
 6918.00    2.41281   2.93601    0.004
 6919.00    2.43686   2.93611    0.004
 6920.00    2.35176   2.93727    0.004
 6921.00    2.29033   2.93602    0.004
 6922.00    2.30082   2.93671    0.004
 6923.00    2.32882   2.93550    0.004
 6924.00    2.40206   2.93607    0.004
 6925.00    2.43822   2.93700    0.004
 6926.00    2.39198   2.93836    0.004
 6927.00    2.36707   2.93990    0.004
 6928.00    2.38325   2.93969    0.004
 6929.00    2.36924   2.94124    0.005
 6930.00    2.30450   2.94239    0.004
 6931.00    2.31036   2.94499    0.004
 6932.00    2.42021   2.94647    0.005
 6933.00    2.50935   2.94768    0.005
 6934.00    2.57167   2.95031    0.005
 6935.00    2.60690   2.95097    0.005
 6936.00    2.61119   2.95178    0.005
 6937.00    2.59674   2.95086    0.005
 6938.00    2.56342   2.95107    0.005
 6939.00    2.51602   2.95220    0.004
 6940.00    2.45611   2.95151    0.004
 6941.00    2.36188   2.95072    0.004
 6942.00    2.24083   2.94844    0.004
 6943.00    2.28407   2.94717    0.004
 6944.00    2.44028   2.94636    0.004
 6945.00    2.42997   2.94574    0.004
 6946.00    2.31927   2.94645    0.004
 6947.00    2.29014   2.94572    0.004
 6948.00    2.30390   2.94554    0.004
 6949.00    2.42649   2.94617    0.005
 6950.00    2.59875   2.94736    0.005
 6951.00    2.60126   2.95097    0.005
 6952.00    2.53711   2.95340    0.005
 6953.00    2.56078   2.95619    0.004
 6954.00    2.61384   2.95999    0.004
 6955.00    2.54449   2.96355    0.004
 6956.00    2.44075   2.96866    0.004
 6957.00    2.32182   2.97278    0.004
 6958.00    2.19937   2.97686    0.004
 6959.00    2.21197   2.98098    0.004
 6960.00    2.24964   2.98512    0.004
 6961.00    2.26697   2.98938    0.004
 6962.00    2.28138   2.99192    0.004
 6963.00    2.24472   2.99365    0.004
 6964.00    2.20276   2.99432    0.004
 6965.00    2.28449   2.99391    0.004
 6966.00    2.37446   2.99352    0.005
 6967.00    2.39638   2.99251    0.005
 6968.00    2.41612   2.98892    0.005
 6969.00    2.42303   2.98433    0.005
 6970.00    2.42888   2.97795    0.005
 6971.00    2.40208   2.97257    0.005
 6972.00    2.38271   2.96866    0.005
 6973.00    2.47381   2.96230    0.005
 6974.00    2.54583   2.95761    0.005
 6975.00    2.43471   2.95257    0.005
 6976.00    2.34089   2.94925    0.005
 6977.00    2.36746   2.94862    0.005
 6978.00    2.38177   2.94752    0.004
 6979.00    2.33030   2.95094    0.004
 6980.00    2.28516   2.95494    0.004
 6981.00    2.26729   2.95864    0.004
 6982.00    2.24727   2.96335    0.004
 6983.00    2.21966   2.96752    0.004
 6984.00    2.23664   2.97537    0.005
 6985.00    2.38659   2.98273    0.005
 6986.00    2.42555   2.98714    0.005
 6987.00    2.18258   2.99110    0.005
 6988.00    2.03553   2.99308    0.005
 6989.00    2.09821   2.99619    0.005
 6990.00    2.12309   2.99936    0.005
 6991.00    2.07629   2.99965    0.005
 6992.00    2.10920   2.99903    0.005
 6993.00    2.27409   2.99614    0.005
 6994.00    2.39406   2.99415    0.005
 6995.00    2.44881   2.99375    0.005
 6996.00    2.54489   2.99154    0.005
 6997.00    2.69369   2.98851    0.005
 6998.00    2.70098   2.98347    0.004
 6999.00    2.54907   2.97984    0.004
 7000.00    2.46011   2.97889    0.004
 7001.00    2.43359   2.97788    0.004
 7002.00    2.39584   2.97588    0.004
 7003.00    2.34828   2.97194    0.004
 7004.00    2.37714   2.96949    0.004
 7005.00    2.46491   2.96895    0.005
 7006.00    2.41744   2.96974    0.005
 7007.00    2.27834   2.96947    0.005
 7008.00    2.19274   2.96699    0.005
 7009.00    2.13889   2.96520    0.005
 7010.00    2.11634   2.96309    0.005
 7011.00    2.10999   2.96331    0.005
 7012.00    2.15697   2.96454    0.005
 7013.00    2.22790   2.96354    0.005
 7014.00    2.24394   2.96233    0.005
 7015.00    2.23879   2.95997    0.005
 7016.00    2.28418   2.96038    0.005
 7017.00    2.34616   2.96420    0.005
 7018.00    2.32059   2.96607    0.005
 7019.00    2.27094   2.96701    0.005
 7020.00    2.20647   2.96781    0.004
 7021.00    2.13865   2.96964    0.004
 7022.00    2.22214   2.97420    0.004
 7023.00    2.33297   2.97795    0.005
 7024.00    2.20060   2.98094    0.005
 7025.00    2.03455   2.98515    0.005
 7026.00    2.12829   2.98784    0.005
 7027.00    2.24782   2.99099    0.005
 7028.00    2.20212   2.99527    0.005
 7029.00    2.14607   2.99953    0.005
 7030.00    2.17491   3.00533    0.005
 7031.00    2.20582   3.00882    0.005
 7032.00    2.14816   3.01126    0.005
 7033.00    2.09509   3.01636    0.005
 7034.00    2.16837   3.02269    0.005
 7035.00    2.23988   3.02988    0.005
 7036.00    2.28649   3.03527    0.005
 7037.00    2.33036   3.03880    0.005
 7038.00    2.34908   3.04482    0.005
 7039.00    2.36747   3.05263    0.005
 7040.00    2.38366   3.06011    0.005
 7041.00    2.40238   3.06485    0.005
 7042.00    2.43427   3.06643    0.005
 7043.00    2.47084   3.06836    0.005
 7044.00    2.52707   3.06969    0.005
 7045.00    2.54857   3.07018    0.005
 7046.00    2.44925   3.06680    0.005
 7047.00    2.39145   3.05939    0.005
 7048.00    2.45518   3.05168    0.005
 7049.00    2.50294   3.04148    0.005
 7050.00    2.51081   3.03189   -2.000
 7051.00    2.49870   3.02020   -2.000
 7052.00    2.44362   3.00557   -2.000
 7053.00    2.43246   2.99257   -2.000
 7054.00    2.50332   2.97847   -2.000
 7055.00    2.54884   2.96683   -2.000
 7056.00    2.55303   2.95621   -2.000
 7057.00    2.59816   2.94380   -2.000
 7058.00    2.70185   2.93426   -2.000
 7059.00    2.76126   2.92581   -2.000
 7060.00    2.76496   2.91905   -2.000
 7061.00    2.80979   2.91514   -2.000
 7062.00    2.90022   2.90991   -2.000
 7063.00    2.82373   2.90708   -2.000
 7064.00    2.58398   2.90687   -2.000
 7065.00    2.44357   2.90626   -2.000
 7066.00    2.38886   2.90802   -2.000
 7067.00    2.40002   2.90959   -2.000
 7068.00    2.46123   2.91238   -2.000
 7069.00    2.47444   2.91763   -2.000
 7070.00    2.45558   2.92149   -2.000
 7071.00    2.70054   2.92453   -2.000
 7072.00    3.09978   2.92760   -2.000
 7073.00    3.02069   2.92994   -2.000
 7074.00    2.69773   2.93206   -2.000
 7075.00    2.70515   2.93317   -2.000
 7076.00    2.85844   2.93002   -2.000
 7077.00    2.87793   2.92575   -2.000
 7078.00    2.84667   2.91987   -2.000
 7079.00    2.84251   2.91163   -2.000
 7080.00    2.84707   2.90486   -2.000
 7081.00    2.77221   2.89359   -2.000
 7082.00    2.67594   2.88035   -2.000
 7083.00    2.43759   2.86852   -2.000
 7084.00    2.16787   2.85470   -2.000
 7085.00    2.23778   2.84530   -2.000
 7086.00    2.36740   2.83505   -2.000
 7087.00    2.58343   2.82199   -2.000
 7088.00    2.81103   2.81485   -2.000
 7089.00    2.75175   2.80660   -2.000
 7090.00    2.66522   2.80237   -2.000
 7091.00    2.41287   2.80122   -2.000
 7092.00    2.15079   2.79605   -2.000
 7093.00    2.27739   2.79831   -2.000
 7094.00    2.41209   2.79901   -2.000
 7095.00    2.34570   2.80060   -2.000
 7096.00    2.27938   2.80584   -2.000
 7097.00    2.21450   2.80692   -2.000
 7098.00    2.14075   2.81388   -2.000
 7099.00    1.94936   2.81812   -2.000
 7100.00    1.79262   2.82068   -2.000
 7101.00    1.94311   2.82515   -2.000
 7102.00    2.10786   2.82724   -2.000
 7103.00    2.36585   2.83273   -2.000
 7104.00    2.54725   2.83536   -2.000
 7105.00    2.33862   2.83581   -2.000
 7106.00    2.14390   2.83715   -2.000
 7107.00    2.00642   2.83869   -2.000
 7108.00    1.88154   2.84189   -2.000
 7109.00    1.79957   2.84255   -2.000
 7110.00    1.84686   2.84251   -2.000
 7111.00    2.26550   2.84278   -2.000
 7112.00    2.58444   2.84445   -2.000
 7113.00    2.65875   2.84694   -2.000
 7114.00    2.67757   2.84584   -2.000
 7115.00    2.57902   2.84563   -2.000
 7116.00    2.46898   2.84423   -2.000
 7117.00    2.33786   2.84386   -2.000
 7118.00    2.32949   2.84435   -2.000
 7119.00    2.51837   2.83922   -2.000
 7120.00    2.55784   2.83574   -2.000
 7121.00    2.38669   2.83147   -2.000
 7122.00    2.43648   2.82771   -2.000
 7123.00    2.76034   2.82575   -2.000
 7124.00    2.90074   2.81823   -2.000
 7125.00    2.84056   2.81253   -2.000
 7126.00    2.74361   2.80984   -2.000
 7127.00    2.61123   2.80715   -2.000
 7128.00    2.44471   2.80647   -2.000
 7129.00    2.24917   2.80332   -2.000
 7130.00    2.33549   2.80121   -2.000
 7131.00    2.63291   2.80440   -2.000
 7132.00    2.72233   2.80649   -2.000
 7133.00    2.67489   2.80895   -2.000
 7134.00    2.49669   2.81158   -2.000
 7135.00    2.24317   2.81420   -2.000
 7136.00    2.31595   2.81947   -2.000
 7137.00    2.55246   2.82218   -2.000
 7138.00    2.51060   2.82497   -2.000
 7139.00    2.34786   2.82775   -2.000
 7140.00    2.26266   2.83058   -2.000
 7141.00    2.20635   2.83362   -2.000
 7142.00    2.23699   2.83288   -2.000
 7143.00    2.29511   2.83521   -2.000
 7144.00    2.30749   2.83710   -2.000
 7145.00    2.30781   2.83869   -2.000
 7146.00    2.18450   2.84260   -2.000
 7147.00    2.03454   2.84225   -2.000
 7148.00    2.10840   2.84584   -2.000
 7149.00    2.22053   2.84963   -2.000
 7150.00    2.08249   2.85199   -2.000
 7151.00    1.91207   2.85887   -2.000
 7152.00    2.01398   2.86096   -2.000
 7153.00    2.14062   2.86323   -2.000
 7154.00    2.43974   2.86575   -2.000
 7155.00    2.74830   2.86732   -2.000
 7156.00    2.51330   2.87291   -2.000
 7157.00    2.26935   2.87295   -2.000
 7158.00    2.24808   2.87044   -2.000
 7159.00    2.24416   2.86881   -2.000
 7160.00    2.63385   2.86894   -2.000
 7161.00    3.01762   2.87218   -2.000
 7162.00    3.32673   2.87112   -2.000
 7163.00    3.53448   2.86827   -2.000
 7164.00    2.87760   2.86689   -2.000
 7165.00    2.30261   2.86895   -2.000
 7166.00    2.24666   2.87343   -2.000
 7167.00    2.25229   2.87536   -2.000
 7168.00    2.56365   2.87584   -2.000
 7169.00    2.79499   2.87638   -2.000
 7170.00    2.70426   2.87799   -2.000
 7171.00    2.59784   2.88142   -2.000
 7172.00    2.43896   2.88417   -2.000
 7173.00    2.29830   2.88337   -2.000
 7174.00    2.20904   2.88126   -2.000
 7175.00    2.15568   2.87842   -2.000
 7176.00    2.18890   2.87655   -2.000
 7177.00    2.19570   2.87732   -2.000
 7178.00    2.14751   2.87347   -2.000
 7179.00    2.21602   2.86811   -2.000
 7180.00    2.49586   2.86425   -2.000
 7181.00    2.54076   2.85887   -2.000
 7182.00    2.21379   2.85803   -2.000
 7183.00    2.00183   2.85524   -2.000
 7184.00    1.94965   2.85076   -2.000
 7185.00    2.04179   2.85024   -2.000
 7186.00    2.31042   2.84562   -2.000
 7187.00    2.42539   2.84489   -2.000
 7188.00    2.37472   2.84640   -2.000
 7189.00    2.27280   2.84635   -2.000
 7190.00    2.12216   2.84914   -2.000
 7191.00    2.08294   2.84717   -2.000
 7192.00    2.13712   2.84885   -2.000
 7193.00    2.18060   2.85388   -2.000
 7194.00    2.21619   2.85716   -2.000
 7195.00    2.16982   2.86024   -2.000
 7196.00    2.07033   2.85805   -2.000
 7197.00    2.10836   2.86127   -2.000
 7198.00    2.22442   2.86625   -2.000
 7199.00    2.38639   2.86810   -2.000
 7200.00    2.57104   2.86961   -2.000
 7201.00    2.79533   2.86499   -2.000
 7202.00    3.03654   2.86719   -2.000
 7203.00    3.02268   2.87095   -2.000
 7204.00    2.91549   2.87058   -2.000
 7205.00    2.40929   2.87285   -2.000
 7206.00    1.77949   2.86992   -2.000
 7207.00    1.83492   2.87203   -2.000
 7208.00    2.06722   2.87688   -2.000
 7209.00    2.16213   2.87801   -2.000
 7210.00    2.22814   2.88286   -2.000
 7211.00    2.19625   2.88560   -2.000
 7212.00    2.14811   2.88962   -2.000
 7213.00    2.44167   2.89552   -2.000
 7214.00    2.77792   2.89979   -2.000
 7215.00    2.60432   2.90542   -2.000
 7216.00    2.38656   2.91169   -2.000
 7217.00    2.14927   2.91660   -2.000
 7218.00    1.91098   2.92159   -2.000
