###################################################################
## OUTPUT of StarlightChains_v04.for    [Cid@UFSC - 01/Apr/2007] ##
###################################################################

## Some input info
KUG0210-078._32_24.txt                   [arq_obs]
Base.CB07.vall.4m                        [arq_base]
Masks.EmLines.NEW.gm                     [arq_masks]
StCv04.C11.config                        [arq_config]
   66                                    [N_base]
    0                                    [N_YAV_components = # of components with extra extinction!]
    0                                    [i_FitPowerLaw (1/0 = Yes/No)]
-9.99                                    [alpha_PowerLaw]
CCM                                      [red_law_option]
 1.458241                                [q_norm = A(l_norm)/A(V)]

## (Re)Sampling Parameters
 3741.00                                 [l_ini (A)]
 7218.00                                 [l_fin (A)]
    1.00                                 [dl    (A)]     (OBS: dl_cushion =    50.00 A)

## Normalization info
 4020.00                                 [l_norm (A) - for base]
 4010.00                                 [llow_norm (A) - window for f_obs]
 4060.00                                 [lupp_norm (A) - window for f_obs]
1.414879E-17                             [fobs_norm (in input units)]

## S/N
 3691.00                                 [llow_SN (A) - window for S/N]
 7268.00                                 [lupp_SN (A) - window for S/N]
   3.490                                 [S/N in S/N window]
   4.935                                 [S/N in norm. window]
   0.015                                 [S/N_err in S/N window]
   0.021                                 [S/N_err in norm. window]
  1.0000                                 [fscale_chi2]

## etc...
    -2007472                             [idum_orig]
  2388                                   [NOl_eff]
  1825                                   [Nl_eff]
   563    NSIGMA                         [Ntot_cliped & clip_method]
 10572870                                [Nglobal_steps]
   7                                     [N_chains]
  39                                     [NEX0s_base = N_base in EX0s-fits]
 0   0   1        0   2.0   1.511E+04    [Clip-Bug, RC-Crash & Burn-In warning-flags, n_censored_weights, wei_nsig_threshold & wei_limit]
    95     94.648     93.613      1.036  [idt_all, wdt_TotTime, wdt_UsrTime & wdt_SysTime (sec)]

## Synthesis Results - Best model ##

 9.65675E-06                             [chi2/Nl_eff]
    13.55967                             [adev (%)]

   105.36858                             [sum-of-x (%)]
 3.79397E-17                             [Flux_tot (units of input spectrum!)]
 2.44652E-13                             [Mini_tot (???)]
 1.26549E-13                             [Mcor_tot (???)]

  75.30                                  [v0_min  (km/s)]
 165.63                                  [vd_min  (km/s)]
 0.6955                                  [AV_min  (mag)]
 0.0000                                  [YAV_min (mag)]

# j     x_j(%)      Mini_j(%)     Mcor_j(%)     age_j(yr)     Z_j      (L/M)_j    YAV?  Mstars   component_j        a/Fe...       SSP_chi2r SSP_adev(%)   SSP_AV   SSP_x(%)
  1      7.9386     1.0680E-01    2.0647E-01    1.000000E+06  0.00400  1.094E-02    0   1.0000   age020_m42            0.0000     1.3957E-05    17.9069   2.2395    94.5192
  2      0.0000     0.0000E+00    0.0000E+00    3.160000E+06  0.00400  4.007E-02    0   0.9999   age045_m42            0.0000     1.2999E-05    17.1404   1.5936    97.5424
  3      0.0000     0.0000E+00    0.0000E+00    5.010000E+06  0.00400  2.539E-02    0   0.9488   age055_m42            0.0000     1.3314E-05    17.3762   1.8759    96.7165
  4      0.0000     0.0000E+00    0.0000E+00    6.610000E+06  0.00400  2.620E-02    0   0.9220   age061_m42            0.0000     1.2724E-05    16.8973   1.5146    97.9711
  5      1.0335     1.1506E-02    1.9713E-02    1.000000E+07  0.00400  1.322E-02    0   0.8862   age070_m42            0.0000     1.1471E-05    15.7220   1.2054   101.3940
  6      0.0000     0.0000E+00    0.0000E+00    1.445000E+07  0.00400  7.883E-03    0   0.8571   age078_m42            0.0000     1.1829E-05    16.0432   1.5165    99.4458
  7      0.0000     0.0000E+00    0.0000E+00    2.512000E+07  0.00400  5.251E-03    0   0.8174   age090_m42            0.0000     1.1184E-05    15.4542   1.0829   101.6786
  8      0.6688     2.6976E-02    4.0944E-02    4.000000E+07  0.00400  3.649E-03    0   0.7851   age104_m42            0.0000     1.1128E-05    15.4323   0.8700   101.8846
  9      0.2857     1.3572E-02    2.0017E-02    5.500000E+07  0.00400  3.098E-03    0   0.7629   age110_m42            0.0000     1.1482E-05    15.7609   1.0437   100.8175
 10      0.0000     0.0000E+00    0.0000E+00    1.015200E+08  0.00400  2.228E-03    0   0.7207   age116_m42            0.0000     1.1712E-05    15.9831   1.0784   100.3607
 11      0.0000     0.0000E+00    0.0000E+00    2.861200E+08  0.00400  1.093E-03    0   0.6648   age125_m42            0.0000     1.0943E-05    15.0860   0.5103   103.1303
 12      0.0000     0.0000E+00    0.0000E+00    5.088000E+08  0.00400  6.597E-04    0   0.6365   age130_m42            0.0000     1.1367E-05    15.5273   0.5258   102.9554
 13      0.0035     2.4117E-03    2.7032E-03    1.434000E+09  0.00400  2.132E-04    0   0.5798   age139_m42            0.0000     1.1181E-05    15.5152  -0.4300   104.5799
 14      0.0000     0.0000E+00    0.0000E+00    4.250000E+09  0.00400  5.895E-05    0   0.5377   age158_m42            0.0000     1.2282E-05    16.3371  -0.8792   100.7426
 15      0.0000     0.0000E+00    0.0000E+00    7.500000E+09  0.00400  3.510E-05    0   0.5212   age171_m42            0.0000     1.2695E-05    17.0600  -1.0000    98.2773
 16      0.0000     0.0000E+00    0.0000E+00    1.300000E+10  0.00400  2.005E-05    0   0.5034   age193_m42            0.0000     1.3831E-05    19.0411  -1.0000    93.5529
 17      0.0000     0.0000E+00    0.0000E+00    1.800000E+10  0.00400  1.525E-05    0   0.4967   age213_m42            0.0000     1.3884E-05    19.2959  -1.0000    92.5506
 18      2.6133     3.1068E-02    6.0062E-02    1.000000E+06  0.00800  1.238E-02    0   1.0000   age020_m52            0.0000     1.3980E-05    17.9356   2.2359    94.7394
 19      0.0000     0.0000E+00    0.0000E+00    3.160000E+06  0.00800  3.074E-02    0   0.9966   age045_m52            0.0000     1.3951E-05    17.9236   2.1605    95.5033
 20      0.0000     0.0000E+00    0.0000E+00    5.010000E+06  0.00800  2.668E-02    0   0.9443   age055_m52            0.0000     1.3388E-05    17.4648   1.9408    96.6417
 21      0.0000     0.0000E+00    0.0000E+00    6.610000E+06  0.00800  2.136E-02    0   0.9177   age061_m52            0.0000     1.1519E-05    15.9131   0.6879   103.4009
 22      0.0000     0.0000E+00    0.0000E+00    1.000000E+07  0.00800  1.215E-02    0   0.8827   age070_m52            0.0000     1.1214E-05    15.4226   1.3638   102.0825
 23      0.0000     0.0000E+00    0.0000E+00    1.445000E+07  0.00800  8.717E-03    0   0.8552   age078_m52            0.0000     1.1681E-05    15.8976   1.4832   100.7913
 24      0.0000     0.0000E+00    0.0000E+00    2.512000E+07  0.00800  5.592E-03    0   0.8162   age090_m52            0.0000     1.0974E-05    15.2080   1.1537   102.5697
 25      0.0000     0.0000E+00    0.0000E+00    4.000000E+07  0.00800  3.896E-03    0   0.7841   age104_m52            0.0000     1.0962E-05    15.1771   1.0880   102.1998
 26      0.0000     0.0000E+00    0.0000E+00    1.015200E+08  0.00800  2.148E-03    0   0.7226   age116_m52            0.0000     1.1383E-05    15.6281   1.0473   101.0538
 27      0.0000     0.0000E+00    0.0000E+00    2.861200E+08  0.00800  9.925E-04    0   0.6683   age125_m52            0.0000     1.1110E-05    15.3712   0.5933   103.6735
 28      0.4117     1.9292E-01    2.2892E-01    9.047900E+08  0.00800  3.141E-04    0   0.6138   age135_m52            0.0000     1.1074E-05    15.3299  -0.1358   104.6455
 29      0.0000     0.0000E+00    0.0000E+00    1.434000E+09  0.00800  1.719E-04    0   0.5853   age139_m52            0.0000     1.1308E-05    15.4420  -0.7372   103.6146
 30      0.0000     0.0000E+00    0.0000E+00    2.500000E+09  0.00800  7.872E-05    0   0.5600   age150_m52            0.0000     1.2220E-05    16.2543  -1.0000   100.5621
 31      0.0000     0.0000E+00    0.0000E+00    4.250000E+09  0.00800  4.336E-05    0   0.5426   age158_m52            0.0000     1.2415E-05    16.4939  -1.0000    99.3032
 32      0.0000     0.0000E+00    0.0000E+00    6.250000E+09  0.00800  3.159E-05    0   0.5319   age166_m52            0.0000     1.3604E-05    18.7326  -1.0000    93.9864
 33      0.0000     0.0000E+00    0.0000E+00    1.300000E+10  0.00800  1.361E-05    0   0.5073   age193_m52            0.0000     1.9498E-05    24.9643  -1.0000    80.8042
 34      0.0000     0.0000E+00    0.0000E+00    1.800000E+10  0.00800  9.886E-06    0   0.4990   age213_m52            0.0000     2.1847E-05    26.2793  -1.0000    77.4012
 35     12.3383     1.1761E-01    2.2737E-01    1.000000E+06  0.02000  1.544E-02    0   1.0000   age020_m62            0.0000     1.4027E-05    17.9651   2.2240    95.2647
 36      1.3769     5.3865E-03    1.0266E-02    3.160000E+06  0.02000  3.762E-02    0   0.9858   age045_m62            0.0000     1.4060E-05    18.0124   2.1486    96.6597
 37      0.0000     0.0000E+00    0.0000E+00    5.010000E+06  0.02000  3.296E-02    0   0.9342   age055_m62            0.0000     1.3248E-05    17.3692   1.8353    97.8639
 38      0.0000     0.0000E+00    0.0000E+00    8.710000E+06  0.02000  1.154E-02    0   0.8861   age067_m62            0.0000     9.3967E-06    13.4614   0.7373   109.2720
 39      0.0000     0.0000E+00    0.0000E+00    1.445000E+07  0.02000  7.663E-03    0   0.8472   age078_m62            0.0000     1.0423E-05    14.5480   0.9985   105.0023
 40      0.8501     2.7607E-02    4.3225E-02    2.512000E+07  0.02000  4.532E-03    0   0.8099   age090_m62            0.0000     1.0261E-05    14.3258   0.9976   104.4097
 41      0.0000     0.0000E+00    0.0000E+00    5.500000E+07  0.02000  2.733E-03    0   0.7595   age110_m62            0.0000     1.1036E-05    15.2536   1.0574   102.1089
 42      1.1777     1.2661E-01    1.7097E-01    1.609000E+08  0.02000  1.369E-03    0   0.6985   age120_m62            0.0000     1.1217E-05    15.4670   0.9381   102.8326
 43      0.9937     1.6227E-01    2.1062E-01    2.861200E+08  0.02000  9.013E-04    0   0.6714   age125_m62            0.0000     1.1192E-05    15.4331   0.7184   104.3056
 44      0.0000     0.0000E+00    0.0000E+00    5.088000E+08  0.02000  5.028E-04    0   0.6449   age130_m62            0.0000     1.1502E-05    15.6646   0.3963   104.2742
 45      2.5173     1.5259E+00    1.8228E+00    9.047900E+08  0.02000  2.428E-04    0   0.6179   age135_m62            0.0000     1.1531E-05    15.7722  -0.1650   102.5810
 46      0.0000     0.0000E+00    0.0000E+00    1.434000E+09  0.02000  1.263E-04    0   0.5908   age139_m62            0.0000     1.1732E-05    15.9164  -0.6228   101.6492
 47      0.0000     0.0000E+00    0.0000E+00    2.500000E+09  0.02000  5.985E-05    0   0.5673   age150_m62            0.0000     1.2583E-05    16.4219  -0.9931   100.3451
 48      0.0000     0.0000E+00    0.0000E+00    4.250000E+09  0.02000  3.271E-05    0   0.5468   age158_m62            0.0000     1.4740E-05    19.8587  -1.0000    91.8274
 49      4.4076     4.7697E+01    4.7646E+01    1.000000E+10  0.02000  1.360E-05    0   0.5167   age181_m62            0.0000     1.9153E-05    24.0996  -1.0000    81.8273
 50      2.3338     4.8215E+01    4.6727E+01    1.800000E+10  0.02000  7.124E-06    0   0.5013   age213_m62            0.0000     2.2967E-05    26.4953  -1.0000    75.4169
 51      0.0000     0.0000E+00    0.0000E+00    1.000000E+06  0.05000  2.592E-02    0   0.9998   age020_m72            0.0000     1.4085E-05    18.0057   2.2107    95.5292
 52      0.0000     0.0000E+00    0.0000E+00    3.160000E+06  0.05000  4.845E-02    0   0.9577   age045_m72            0.0000     1.3892E-05    17.8741   2.0591    96.7599
 53      0.0000     0.0000E+00    0.0000E+00    5.010000E+06  0.05000  3.072E-02    0   0.9147   age055_m72            0.0000     1.1542E-05    15.6133   1.5676   101.4927
 54     52.6838     5.3290E-01    9.1454E-01    6.610000E+06  0.05000  1.455E-02    0   0.8877   age061_m72            0.0000     9.0167E-06    12.8266   0.7399   111.9338
 55      0.0000     0.0000E+00    0.0000E+00    1.000000E+07  0.05000  9.074E-03    0   0.8524   age070_m72            0.0000     1.1579E-05    15.6858   1.7458   101.2653
 56      0.0000     0.0000E+00    0.0000E+00    2.512000E+07  0.05000  4.250E-03    0   0.7902   age090_m72            0.0000     1.1050E-05    15.0410   1.4917   101.0375
 57      0.0000     0.0000E+00    0.0000E+00    4.000000E+07  0.05000  3.087E-03    0   0.7618   age104_m72            0.0000     1.0713E-05    14.6710   1.2808   102.0625
 58     13.7123     1.1871E+00    1.6285E+00    1.015200E+08  0.05000  1.700E-03    0   0.7096   age116_m72            0.0000     1.0956E-05    15.1184   1.0684   102.9137
 59      0.0000     0.0000E+00    0.0000E+00    2.861200E+08  0.05000  7.384E-04    0   0.6633   age125_m72            0.0000     1.1181E-05    15.3982   0.6303   103.5951
 60      0.0039     1.5087E-03    1.8586E-03    5.088000E+08  0.05000  3.819E-04    0   0.6372   age130_m72            0.0000     1.1511E-05    15.7833   0.1915   102.8952
 61      0.0180     1.5803E-02    1.8666E-02    9.047900E+08  0.05000  1.676E-04    0   0.6110   age135_m72            0.0000     1.2332E-05    16.3928  -0.4872   100.2030
 62      0.0000     0.0000E+00    0.0000E+00    1.434000E+09  0.05000  8.837E-05    0   0.5874   age139_m72            0.0000     1.2465E-05    16.2830  -0.9625   100.4494
 63      0.0000     0.0000E+00    0.0000E+00    2.500000E+09  0.05000  4.233E-05    0   0.5598   age150_m72            0.0000     1.4554E-05    19.5503  -1.0000    92.1755
 64      0.0000     0.0000E+00    0.0000E+00    6.250000E+09  0.05000  1.435E-05    0   0.5249   age166_m72            0.0000     2.0587E-05    25.2378  -1.0000    78.8341
 65      0.0000     0.0000E+00    0.0000E+00    1.300000E+10  0.05000  6.513E-06    0   0.5036   age193_m72            0.0000     2.6486E-05    28.3310  -1.0000    71.9409
 66      0.0000     0.0000E+00    0.0000E+00    1.800000E+10  0.05000  4.527E-06    0   0.4945   age213_m72            0.0000     3.0442E-05    29.8196  -1.0000    67.4887


## Synthesis Results - Average & Chains ##

# j      x_j: min, <> & last-chain-values for 1 ...  7 chains
  1      7.9386      0.2040      0.3729      0.6265      0.0000      1.4118      0.6534      0.1978      0.8512
  2      0.0000      0.2052      0.0000      0.1019      0.0184      0.5756      0.8691      0.3727      0.4473
  3      0.0000      0.2556      0.2021      0.0000      0.0000      0.3089      0.9251      0.0000      1.5060
  4      0.0000      0.2904      0.3833      0.3857      1.3763      0.4472      0.1280      0.8813      0.2016
  5      1.0335      0.2848      0.0681      0.2691      0.8694      0.0000      0.0000      0.2887      0.4527
  6      0.0000      0.2221      0.0964      0.8201      0.0000      0.4140      0.0000      0.0743      1.7958
  7      0.0000      0.2212      0.0000      0.4303      0.4764      0.2994      0.4186      0.0000      0.4899
  8      0.6688      0.2567      0.0000      0.7299      0.4169      0.0000      1.1593      0.5868      0.5092
  9      0.2857      0.2257      0.6020      0.2155      0.5012      0.5288      0.8681      0.0000      0.4244
 10      0.0000      0.1917      0.0000      0.5075      0.0000      0.0000      0.6290      0.2075      0.3349
 11      0.0000      0.2527      0.8545      0.0000      0.8893      1.4899      0.0000      0.0000      0.4140
 12      0.0000      0.2612      0.0740      0.2064      1.8025      0.0000      0.9234      0.0000      0.0000
 13      0.0035      0.2771      0.9325      0.6798      0.3314      0.0000      0.0118      2.3674      1.0458
 14      0.0000      0.2495      0.3108      0.0000      0.4561      0.3337      0.9735      0.0000      0.6266
 15      0.0000      0.2441      0.5912      0.1532      0.0000      0.0000      0.5768      0.1855      0.0794
 16      0.0000      0.2475      0.6779      0.9398      1.2469      0.0000      0.6601      1.3131      1.7735
 17      0.0000      0.2128      0.3770      0.3715      1.9862      0.2162      0.0000      0.6727      0.3460
 18      2.6133      0.2143      0.3673      1.0970      0.1137      0.2486      0.0000      2.2558      1.1267
 19      0.0000      0.1447      0.7336      1.0006      0.2544      0.6140      0.0000      0.4346      0.0000
 20      0.0000      0.2472      0.3830      0.3545      0.0246      0.1870      0.0000      0.0000      2.7941
 21      0.0000      0.2779      0.0000      0.4859      0.8837      0.3665      0.0000      0.5441      0.0422
 22      0.0000      0.3406      1.0279      1.4238      1.1539      0.7951      0.6593      0.0000      0.0000
 23      0.0000      0.2749      0.3212      0.0000      0.0000      0.0614      0.7497      1.1536      0.0000
 24      0.0000      0.2014      0.0112      0.4920      0.1481      0.0000      0.4414      1.3567      0.0000
 25      0.0000      0.2499      0.2424      0.5551      0.6456      0.5916      1.8376      0.3407      0.0000
 26      0.0000      0.2010      0.3906      0.3944      0.0000      0.1349      0.0000      0.0000      0.6190
 27      0.0000      0.2062      0.8988      0.3373      0.0000      0.5667      0.0000      0.0000      0.5970
 28      0.4117      0.1879      0.1123      0.0000      1.1485      0.3063      0.0000      0.3331      0.4536
 29      0.0000      0.2087      0.0000      0.4336      0.0000      1.0105      0.7994      0.3035      0.0000
 30      0.0000      0.1801      0.0000      0.2438      0.0000      0.0698      0.0000      0.3400      0.6467
 31      0.0000      0.2114      0.2245      0.0581      1.1297      0.6040      0.8829      0.0481      0.6944
 32      0.0000      0.3953      1.3951      0.0000      3.0817      0.3570      0.3884      0.6475      0.8788
 33      0.0000      0.5453      2.4834      0.8399      1.5449      1.2670      1.0900      0.0861      0.0000
 34      0.0000      0.5083      0.9723      0.1530      0.5525      1.2005      1.5729      0.0000      0.0000
 35     12.3383      0.2907      0.3213      0.3563      1.1366      0.0000      1.0442      0.9601      1.7490
 36      1.3769      0.2280      0.0000      0.3149      0.0000      0.6572      0.0842      0.0000      0.3682
 37      0.0000      0.2696      0.3268      1.2270      0.0000      0.4501      0.5991      0.9120      0.1787
 38      0.0000      0.2207      0.6792      0.0000      0.0000      1.4894      0.0000      0.2122      0.0000
 39      0.0000      0.2840      0.3956      1.8696      0.0000      0.4648      0.4794      0.0000      0.0933
 40      0.8501      0.2370      0.5573      0.0000      1.2209      2.0636      0.0000      0.4506      1.2353
 41      0.0000      0.2361      0.2897      0.7033      0.0000      0.2516      1.4849      0.6464      0.0000
 42      1.1777      0.2284      0.0000      0.1644      1.7933      1.3015      0.2763      0.0000      0.5347
 43      0.9937      0.2379      0.6559      0.0000      0.0766      0.2283      0.7960      0.0000      0.4533
 44      0.0000      0.2692      0.0000      2.1180      0.0000      0.0000      0.0000      0.4236      0.4695
 45      2.5173     23.1755     23.1690     23.3394     24.0991     22.9045     22.7024     23.1878     24.0742
 46      0.0000      0.2682      0.0000      0.0000      0.1416      0.3533      0.6048      0.0000      0.0000
 47      0.0000      0.2372      0.0000      0.3754      0.4923      0.4375      0.1470      0.6973      1.8157
 48      0.0000      0.6840      0.7023      0.9607      0.1290      0.6562      2.0658      1.4209      0.2778
 49      4.4076      1.9284      1.8805      1.4715      1.4178      1.4954      1.3999      2.3209      2.4349
 50      2.3338      0.9077      0.6900      1.9678      1.8654      0.0830      0.5273      0.0000      0.5982
 51      0.0000      0.2485      0.5061      0.5679      1.5664      0.1859      0.8179      2.5148      0.0000
 52      0.0000      0.1593      0.9226      0.0000      0.0101      0.3331      0.0000      0.0000      0.0000
 53      0.0000      0.1441      0.3856      0.0000      0.1923      0.0523      0.2472      0.5052      0.0000
 54     52.6838      0.2720      0.3509      0.4649      0.8890      0.6249      0.1317      0.7898      2.0066
 55      0.0000      0.2739      0.7400      0.4089      0.4848      0.1182      0.9168      0.0000      0.0000
 56      0.0000      0.2013      0.0000      1.0906      0.2178      0.0000      0.4655      0.4538      0.3942
 57      0.0000      0.2158      0.0000      2.0073      0.1851      0.0000      0.3499      0.0000      0.5634
 58     13.7123      0.2901      0.0000      1.7619      0.0155      0.0469      0.1489      1.3286      1.5019
 59      0.0000      0.1907      0.0000      0.0000      0.5016      0.0626      0.0000      0.0000      0.2936
 60      0.0039      3.1591      3.9009      2.6875      1.6324      3.2690      2.8777      0.0258      2.2004
 61      0.0180     44.5140     37.7260     30.9184     32.5021     35.8479     31.7572     34.6233     31.3668
 62      0.0000      0.6432      0.0000      0.3127      0.0000      0.3812      1.3502      0.9376      0.2422
 63      0.0000     12.4886     10.8715     10.1294     10.2021     10.8495     12.2246     13.1441     10.2324
 64      0.0000      0.4147      0.8926      0.3027      0.3667      1.3678      1.7303      0.4673      0.3298
 65      0.0000      0.5365      0.8985      0.8405      0.3324      0.9168      0.0000      1.8083      0.0000
 66      0.0000      0.4098      0.7132      1.6791      0.3152      1.7342      0.2859      0.0000      0.2027

# j      m_j: min, <> & last-chain-values for 1 ...  7 chains
  1  2.0647E-01  2.5569E-03  3.9054E-03  6.5428E-03  0.0000E+00  1.4837E-02  7.9541E-03  2.4896E-03  1.2838E-02
  2  0.0000E+00  7.0203E-04  0.0000E+00  2.9062E-04  5.4569E-05  1.6512E-03  2.8883E-03  1.2806E-03  1.8416E-03
  3  0.0000E+00  1.3096E-03  8.6542E-04  0.0000E+00  0.0000E+00  1.3271E-03  4.6038E-03  0.0000E+00  9.2867E-03
  4  0.0000E+00  1.4013E-03  1.5455E-03  1.5507E-03  5.7428E-03  1.8092E-03  5.9985E-04  4.2703E-03  1.1709E-03
  5  1.9713E-02  2.6180E-03  5.2293E-04  2.0613E-03  6.9104E-03  0.0000E+00  0.0000E+00  2.6650E-03  5.0076E-03
  6  0.0000E+00  3.3110E-03  1.2009E-03  1.0187E-02  0.0000E+00  5.1753E-03  0.0000E+00  1.1117E-03  3.2218E-02
  7  0.0000E+00  4.7208E-03  0.0000E+00  7.6528E-03  8.7937E-03  5.3590E-03  8.6785E-03  0.0000E+00  1.2585E-02
  8  4.0944E-02  7.5731E-03  0.0000E+00  1.7942E-02  1.0635E-02  0.0000E+00  3.3217E-02  1.7383E-02  1.8079E-02
  9  2.0017E-02  7.6215E-03  1.6982E-02  6.0638E-03  1.4635E-02  1.4972E-02  2.8470E-02  0.0000E+00  1.7245E-02
 10  0.0000E+00  8.5037E-03  0.0000E+00  1.8756E-02  0.0000E+00  0.0000E+00  2.7097E-02  9.2406E-03  1.7874E-02
 11  0.0000E+00  2.1074E-02  5.9545E-02  0.0000E+00  6.4134E-02  1.0419E-01  0.0000E+00  0.0000E+00  4.1553E-02
 12  0.0000E+00  3.4564E-02  8.1771E-03  2.2752E-02  2.0621E-01  0.0000E+00  1.1865E-01  0.0000E+00  0.0000E+00
 13  2.7032E-03  1.0334E-01  2.9052E-01  2.1120E-01  1.0687E-01  0.0000E+00  4.2840E-03  8.8649E-01  4.6931E-01
 14  0.0000E+00  3.1205E-01  3.2474E-01  0.0000E+00  4.9334E-01  3.4995E-01  1.1825E+00  0.0000E+00  9.4308E-01
 15  0.0000E+00  4.9704E-01  1.0057E+00  2.5988E-01  0.0000E+00  0.0000E+00  1.1407E+00  3.7922E-01  1.9461E-01
 16  0.0000E+00  8.5227E-01  1.9500E+00  2.6958E+00  3.7122E+00  0.0000E+00  2.2070E+00  4.5394E+00  7.3476E+00
 17  0.0000E+00  9.5032E-01  1.4067E+00  1.3825E+00  7.6706E+00  8.0941E-01  0.0000E+00  3.0167E+00  1.8598E+00
 18  6.0062E-02  2.3742E-03  3.3986E-03  1.0123E-02  1.0893E-03  2.3084E-03  0.0000E+00  2.5089E-02  1.5017E-02
 19  0.0000E+00  6.4352E-04  2.7248E-03  3.7061E-03  9.7807E-04  2.2887E-03  0.0000E+00  1.9400E-03  0.0000E+00
 20  0.0000E+00  1.1997E-03  1.5530E-03  1.4336E-03  1.0313E-04  7.6079E-04  0.0000E+00  0.0000E+00  1.6318E-02
 21  0.0000E+00  1.6372E-03  0.0000E+00  2.3848E-03  4.5018E-03  1.8105E-03  0.0000E+00  3.2185E-03  2.9918E-04
 22  0.0000E+00  3.3927E-03  8.5556E-03  1.1818E-02  9.9403E-03  6.6405E-03  6.3788E-03  0.0000E+00  0.0000E+00
 23  0.0000E+00  3.6989E-03  3.6106E-03  0.0000E+00  0.0000E+00  6.9249E-04  9.7952E-03  1.5584E-02  0.0000E+00
 24  0.0000E+00  4.0319E-03  1.8753E-04  8.2048E-03  2.5634E-03  0.0000E+00  8.5805E-03  2.7266E-02  0.0000E+00
 25  0.0000E+00  6.8974E-03  5.5897E-03  1.2764E-02  1.5407E-02  1.3688E-02  4.9252E-02  9.4417E-03  0.0000E+00
 26  0.0000E+00  9.2724E-03  1.5052E-02  1.5158E-02  0.0000E+00  5.2179E-03  0.0000E+00  0.0000E+00  3.4363E-02
 27  0.0000E+00  1.9042E-02  6.9338E-02  2.5944E-02  0.0000E+00  4.3872E-02  0.0000E+00  0.0000E+00  6.6330E-02
 28  2.2892E-01  5.0353E-02  2.5133E-02  0.0000E+00  2.6612E-01  6.8818E-02  0.0000E+00  8.9623E-02  1.4627E-01
 29  0.0000E+00  9.7436E-02  0.0000E+00  1.6868E-01  0.0000E+00  3.9557E-01  3.6251E-01  1.4231E-01  0.0000E+00
 30  0.0000E+00  1.7570E-01  0.0000E+00  1.9818E-01  0.0000E+00  5.7119E-02  0.0000E+00  3.3305E-01  7.5915E-01
 31  0.0000E+00  3.6273E-01  3.2186E-01  8.3062E-02  1.6762E+00  8.6902E-01  1.4715E+00  8.2860E-02  1.4339E+00
 32  0.0000E+00  9.1263E-01  2.6912E+00  0.0000E+00  6.1525E+00  6.9097E-01  8.7104E-01  1.5012E+00  2.4416E+00
 33  0.0000E+00  2.7870E+00  1.0605E+01  3.5767E+00  6.8279E+00  5.4296E+00  5.4106E+00  4.4199E-01  0.0000E+00
 34  0.0000E+00  3.5181E+00  5.6228E+00  8.8214E-01  3.3066E+00  6.9666E+00  1.0573E+01  0.0000E+00  0.0000E+00
 35  2.2737E-01  2.5818E-03  2.3840E-03  2.6365E-03  8.7287E-03  0.0000E+00  9.0065E-03  8.5621E-03  1.8692E-02
 36  1.0266E-02  8.1921E-04  0.0000E+00  9.4274E-04  0.0000E+00  1.9798E-03  2.9379E-04  0.0000E+00  1.5919E-03
 37  0.0000E+00  1.0477E-03  1.0611E-03  3.9733E-03  0.0000E+00  1.4668E-03  2.2614E-03  3.5591E-03  8.3576E-04
 38  0.0000E+00  2.3233E-03  5.9744E-03  0.0000E+00  0.0000E+00  1.3148E-02  0.0000E+00  2.2438E-03  0.0000E+00
 39  0.0000E+00  4.3064E-03  5.0108E-03  2.3614E-02  0.0000E+00  5.9078E-03  7.0580E-03  0.0000E+00  1.7016E-03
 40  4.3225E-02  5.8074E-03  1.1410E-02  0.0000E+00  2.5871E-02  4.2397E-02  0.0000E+00  1.1088E-02  3.6427E-02
 41  0.0000E+00  8.9991E-03  9.2228E-03  2.2328E-02  0.0000E+00  8.0371E-03  5.4954E-02  2.4733E-02  0.0000E+00
 42  1.7097E-01  1.5983E-02  0.0000E+00  9.5822E-03  1.0849E-01  7.6343E-02  1.8778E-02  0.0000E+00  4.5017E-02
 43  2.1062E-01  2.4299E-02  5.5974E-02  0.0000E+00  6.7665E-03  1.9549E-02  7.8967E-02  0.0000E+00  5.5720E-02
 44  0.0000E+00  4.7348E-02  0.0000E+00  3.1035E-01  0.0000E+00  0.0000E+00  0.0000E+00  7.4811E-02  9.9369E-02
 45  1.8228E+00  8.0877E+00  6.7551E+00  6.7857E+00  7.2720E+00  6.7013E+00  7.6942E+00  8.1253E+00  1.0110E+01
 46  0.0000E+00  1.7201E-01  0.0000E+00  0.0000E+00  7.8545E-02  1.9000E-01  3.7679E-01  0.0000E+00  0.0000E+00
 47  0.0000E+00  3.0830E-01  0.0000E+00  4.0657E-01  5.5335E-01  4.7679E-01  1.8558E-01  9.1009E-01  2.8400E+00
 48  0.0000E+00  1.5679E+00  1.3449E+00  1.8347E+00  2.5570E-01  1.2611E+00  4.5990E+00  3.2705E+00  7.6628E-01
 49  4.7646E+01  1.0047E+01  8.1852E+00  6.3871E+00  6.3871E+00  6.5319E+00  7.0830E+00  1.2141E+01  1.5265E+01
 50  4.6727E+01  8.7586E+00  5.5623E+00  1.5820E+01  1.5564E+01  6.7108E-01  4.9415E+00  0.0000E+00  6.9461E+00
 51  0.0000E+00  1.3145E-03  2.2364E-03  2.5025E-03  7.1644E-03  8.2426E-04  4.2015E-03  1.3356E-02  0.0000E+00
 52  0.0000E+00  4.3189E-04  2.0893E-03  0.0000E+00  2.3768E-05  7.5690E-04  0.0000E+00  0.0000E+00  0.0000E+00
 53  0.0000E+00  5.8829E-04  1.3154E-03  0.0000E+00  6.7898E-04  1.7893E-04  9.8022E-04  2.0711E-03  0.0000E+00
 54  9.1454E-01  2.2756E-03  2.4526E-03  3.2401E-03  6.4313E-03  4.3829E-03  1.0698E-03  6.6347E-03  2.0201E-02
 55  0.0000E+00  3.5287E-03  7.9637E-03  4.3886E-03  5.3998E-03  1.2764E-03  1.1469E-02  0.0000E+00  0.0000E+00
 56  0.0000E+00  5.1315E-03  0.0000E+00  2.3167E-02  4.8008E-03  0.0000E+00  1.1525E-02  1.1619E-02  1.2094E-02
 57  0.0000E+00  7.3034E-03  0.0000E+00  5.6593E-02  5.4152E-03  0.0000E+00  1.1498E-02  0.0000E+00  2.2944E-02
 58  1.6285E+00  1.6605E-02  0.0000E+00  8.4020E-02  7.6635E-04  2.2502E-03  8.2793E-03  7.6360E-02  1.0345E-01
 59  0.0000E+00  2.3491E-02  0.0000E+00  0.0000E+00  5.3430E-02  6.4621E-03  0.0000E+00  0.0000E+00  4.3520E-02
 60  1.8586E-03  7.2279E-01  7.4566E-01  5.1228E-01  3.2295E-01  6.2707E-01  6.3944E-01  5.9328E-03  6.0582E-01
 61  1.8666E-02  2.2253E+01  1.5757E+01  1.2877E+01  1.4050E+01  1.5025E+01  1.5418E+01  1.7380E+01  1.8869E+01
 62  0.0000E+00  5.8631E-01  0.0000E+00  2.3745E-01  0.0000E+00  2.9130E-01  1.1952E+00  8.5816E-01  2.6569E-01
 63  0.0000E+00  2.2648E+01  1.6471E+01  1.5304E+01  1.5998E+01  1.6495E+01  2.1530E+01  2.3934E+01  2.2329E+01
 64  0.0000E+00  2.0799E+00  3.7404E+00  1.2650E+00  1.5906E+00  5.7522E+00  8.4289E+00  2.3536E+00  1.9904E+00
 65  0.0000E+00  5.6883E+00  7.9593E+00  7.4251E+00  3.0479E+00  8.1500E+00  0.0000E+00  1.9252E+01  0.0000E+00
 66  0.0000E+00  6.1390E+00  8.9255E+00  2.0954E+01  4.0825E+00  2.1779E+01  4.1586E+00  0.0000E+00  3.6537E+00

# AV, chi2 & Mass for <> & i_chain = 1 ...  7 solutions
AV       0.6955     -0.6501     -0.5782     -0.4334     -0.5325     -0.5371     -0.5223     -0.5025     -0.3818
chi2 9.6568E-06  1.2048E-05  1.1718E-05  1.1459E-05  1.1623E-05  1.1597E-05  1.1623E-05  1.1614E-05  1.1459E-05
Mass 1.2655E-13  4.3094E-14  5.6809E-14  6.9194E-14  5.8360E-14  5.9825E-14  5.2677E-14  5.2322E-14  5.1349E-14
  75.30                                  [v0_min (km/s) before EX0s...]
 165.63                                  [vd_min (km/s) before EX0s...]


## Synthetic spectrum (Best Model) ##l_obs f_obs f_syn wei
 3478    [Nl_obs]
 3741.00   -1.00763   0.96457    0.000
 3742.00   -0.57595   0.98045    0.000
 3743.00   -0.25661   0.98472    0.000
 3744.00   -0.21734   0.97771    0.000
 3745.00   -0.34125   0.96020    0.000
 3746.00    0.06523   0.93331   -1.000
 3747.00    0.74104   0.89914   -1.000
 3748.00    0.60048   0.86126   -1.000
 3749.00    0.10094   0.82543   -1.000
 3750.00   -0.47322   0.79994    0.000
 3751.00   -1.07555   0.79274    0.000
 3752.00   -0.90858   0.80651    0.000
 3753.00   -0.49505   0.83679    0.000
 3754.00   -0.13799   0.87528    0.000
 3755.00    0.20395   0.91389   -1.000
 3756.00    0.15609   0.94684   -1.000
 3757.00    0.02268   0.97150   -1.000
 3758.00   -0.53930   0.98818    0.000
 3759.00   -1.17610   0.99898    0.000
 3760.00   -0.85246   1.00597    0.000
 3761.00   -0.40123   1.01016    0.000
 3762.00   -0.11148   1.01105    0.000
 3763.00    0.16311   1.00734   -1.000
 3764.00    0.05148   0.99796   -1.000
 3765.00   -0.08243   0.98173    0.000
 3766.00   -0.14936   0.95736    0.000
 3767.00   -0.21001   0.92477    0.000
 3768.00    0.29770   0.88626   -1.000
 3769.00    0.76709   0.84650   -1.000
 3770.00    0.30542   0.81246   -1.000
 3771.00   -0.13542   0.79262    0.000
 3772.00   -0.30328   0.79342    0.000
 3773.00   -0.40491   0.81481    0.000
 3774.00    0.07494   0.85039   -1.000
 3775.00    0.48599   0.89208   -1.000
 3776.00    0.45098   0.93324   -1.000
 3777.00    0.34068   0.96967   -1.000
 3778.00   -0.15067   0.99987    0.000
 3779.00   -0.55430   1.02444    0.000
 3780.00   -0.59890   1.04448    0.000
 3781.00   -0.51412   1.06031    0.000
 3782.00    0.00947   1.07154   -1.000
 3783.00    0.49378   1.07799   -1.000
 3784.00    0.86577   1.07989   -1.000
 3785.00    0.95252   1.07771   -1.000
 3786.00    0.34239   1.07224   -1.000
 3787.00    0.02551   1.06438   -1.000
 3788.00    0.32673   1.05450   -1.000
 3789.00    0.61030   1.04242   -1.000
 3790.00    0.86152   1.02736   -1.000
 3791.00    0.86981   1.00824   -1.000
 3792.00    0.48922   0.98397   -1.000
 3793.00    0.10690   0.95343   -1.000
 3794.00   -0.27787   0.91568    0.000
 3795.00   -0.33243   0.87142    0.000
 3796.00    0.02116   0.82451   -1.000
 3797.00    0.19423   0.78206   -1.000
 3798.00    0.17065   0.75331   -1.000
 3799.00    0.18568   0.74656   -1.000
 3800.00    0.23782   0.76428   -1.000
 3801.00    0.25187   0.80104   -1.000
 3802.00    0.23365   0.84716   -1.000
 3803.00   -0.01033   0.89341    0.000
 3804.00   -0.42276   0.93361    0.000
 3805.00   -0.62999   0.96506    0.000
 3806.00   -0.70270   0.98842    0.000
 3807.00   -0.48962   1.00703    0.000
 3808.00   -0.11255   1.02462    0.000
 3809.00   -0.14370   1.04191    0.000
 3810.00   -0.37887   1.05706    0.000
 3811.00   -0.55812   1.06828    0.000
 3812.00   -0.71317   1.07452    0.000
 3813.00   -0.32127   1.07571    0.000
 3814.00    0.27349   1.07257   -1.000
 3815.00    0.31131   1.06589   -1.000
 3816.00    0.17406   1.05572   -1.000
 3817.00    0.00856   1.04160   -1.000
 3818.00   -0.16435   1.02365    0.000
 3819.00   -0.06999   1.00404    0.000
 3820.00    0.08163   0.98837   -1.000
 3821.00    0.09134   0.98323   -1.000
 3822.00    0.07696   0.98940   -1.000
 3823.00    0.32764   1.00103   -1.000
 3824.00    0.61234   1.01126   -1.000
 3825.00    0.55229   1.01581   -1.000
 3826.00    0.46130   1.01350   -1.000
 3827.00    0.47955   1.00477   -1.000
 3828.00    0.50368   0.99009   -1.000
 3829.00    0.09931   0.96936   -1.000
 3830.00   -0.30324   0.94180    0.000
 3831.00    0.17285   0.90659   -1.000
 3832.00    0.62822   0.86393   -1.000
 3833.00    0.62324   0.81644   -1.000
 3834.00    0.57814   0.76988   -1.000
 3835.00    0.03405   0.73243   -1.000
 3836.00   -0.41822   0.71285    0.000
 3837.00   -0.09446   0.71646    0.000
 3838.00    0.20100   0.74162   -1.000
 3839.00    0.31836   0.78154   -1.000
 3840.00    0.33326   0.82839   -1.000
 3841.00   -0.15743   0.87520    0.000
 3842.00   -0.51466   0.91733    0.000
 3843.00   -0.33762   0.95285    0.000
 3844.00   -0.10035   0.98139    0.000
 3845.00    0.33715   1.00356   -1.000
 3846.00    0.68331   1.02020   -1.000
 3847.00    0.77296   1.03225    0.000
 3848.00    0.78656   1.04058    0.000
 3849.00    0.61748   1.04601    0.000
 3850.00    0.56505   1.04955    0.000
 3851.00    0.75453   1.05215    0.000
 3852.00    0.75032   1.05466    0.000
 3853.00    0.39680   1.05679    0.000
 3854.00    0.02139   1.05745    0.000
 3855.00   -0.38850   1.05650    0.000
 3856.00   -0.33177   1.05480    0.000
 3857.00    0.37092   1.05367    0.000
 3858.00    0.58361   1.05392    0.000
 3859.00    0.19923   1.05476    0.000
 3860.00    0.03591   1.05517    0.000
 3861.00    0.11003   1.05507    0.000
 3862.00    0.18501   1.05464    0.000
 3863.00    0.26081   1.05373    0.000
 3864.00    0.25626   1.05226    0.000
 3865.00    0.18458   1.05056    0.000
 3866.00    0.31763   1.04901    0.000
 3867.00    0.60124   1.04753    0.000
 3868.00    0.66305   1.04602    0.000
 3869.00    0.58159   1.04481    0.000
 3870.00    0.47039   1.04302    0.000
 3871.00    0.34238   1.03924    0.000
 3872.00    0.37448   1.03391    0.000
 3873.00    0.48534   1.02892    0.000
 3874.00    0.39393   1.02535    0.000
 3875.00    0.21651   1.02193    0.000
 3876.00    0.37206   1.01695    0.000
 3877.00    0.64889   1.01045    0.000
 3878.00    0.67335   1.00347    0.000
 3879.00    0.62000   0.99587    0.000
 3880.00    0.39607   0.98661    0.000
 3881.00    0.12836   0.97422   -1.000
 3882.00    0.34293   0.95714   -1.000
 3883.00    0.65832   0.93459   -1.000
 3884.00    0.69500   0.90607   -1.000
 3885.00    0.68572   0.87060   -1.000
 3886.00    0.38809   0.82808   -1.000
 3887.00    0.05475   0.78183   -1.000
 3888.00    0.20110   0.73876   -1.000
 3889.00    0.38849   0.70803   -1.000
 3890.00    0.53220   0.69846   -1.000
 3891.00    0.67373   0.71365   -1.000
 3892.00    0.51055   0.74880   -1.000
 3893.00    0.34222   0.79439   -1.000
 3894.00    0.16331   0.84145   -1.000
 3895.00    0.01702   0.88382   -1.000
 3896.00    0.53813   0.91876   -1.000
 3897.00    1.02250   0.94618   -1.000
 3898.00    1.07231   0.96712   -1.000
 3899.00    1.10802   0.98305   -1.000
 3900.00    1.02881   0.99607   -1.000
 3901.00    0.89248   1.00796   -1.000
 3902.00    0.40732   1.01892   -1.000
 3903.00    0.05541   1.02814   -1.000
 3904.00    0.34477   1.03528   -1.000
 3905.00    0.55563   1.04072   -1.000
 3906.00    0.45908   1.04513   -1.000
 3907.00    0.35355   1.04955   -1.000
 3908.00    0.21875   1.05456   -1.000
 3909.00    0.17330   1.05956   -1.000
 3910.00    0.37422   1.06342   -1.000
 3911.00    0.51041   1.06545   -1.000
 3912.00    0.49375   1.06583   -1.000
 3913.00    0.45267   1.06557   -1.000
 3914.00    0.36176   1.06535   -1.000
 3915.00    0.35222   1.06451   -1.000
 3916.00    0.48718   1.06169   -1.000
 3917.00    0.54637   1.05565   -1.000
 3918.00    0.48783   1.04612   -1.000
 3919.00    0.45882   1.03430   -1.000
 3920.00    0.47011   1.02307   -1.000
 3921.00    0.49726   1.01571   -1.000
 3922.00    0.54344   1.01343   -1.000
 3923.00    0.50268   1.01443   -1.000
 3924.00    0.36981   1.01539   -1.000
 3925.00    0.26119   1.01445   -1.000
 3926.00    0.17520   1.01152   -1.000
 3927.00    0.17798   1.00754   -1.000
 3928.00    0.25387   1.00410   -1.000
 3929.00    0.22336   1.00152   -1.000
 3930.00    0.11572   0.99859   -1.000
 3931.00    0.07752   0.99414   -1.000
 3932.00    0.08350   0.98772   -1.000
 3933.00    0.23039   0.98044   -1.000
 3934.00    0.45571   0.97495   -1.000
 3935.00    0.33370   0.97440   -1.000
 3936.00    0.04357   0.97974   -1.000
 3937.00    0.03721   0.98925   -1.000
 3938.00    0.14950   1.00052   -1.000
 3939.00    0.36098   1.01125   -1.000
 3940.00    0.60793   1.01992   -1.000
 3941.00    0.62340   1.02574   -1.000
 3942.00    0.56889   1.02846   -1.000
 3943.00    0.64529   1.02867   -1.000
 3944.00    0.75457   1.02745   -1.000
 3945.00    0.66346   1.02620   -1.000
 3946.00    0.53149   1.02629   -1.000
 3947.00    0.57457   1.02797   -1.000
 3948.00    0.64568   1.03019   -1.000
 3949.00    0.43585   1.03215   -1.000
 3950.00    0.19247   1.03342   -1.000
 3951.00    0.24323   1.03327   -1.000
 3952.00    0.31794   1.03112   -1.000
 3953.00    0.58418   1.02699   -1.000
 3954.00    0.85922   1.02164   -1.000
 3955.00    1.02285   1.01589   -1.000
 3956.00    1.17604   1.01032   -1.000
 3957.00    0.85844   1.00475   -1.000
 3958.00    0.56865   0.99836   -1.000
 3959.00    0.80580   0.98965   -1.000
 3960.00    1.01234   0.97692    0.000
 3961.00    0.87384   0.95902    0.000
 3962.00    0.75735   0.93594    0.000
 3963.00    0.81386   0.90871    0.000
 3964.00    0.88552   0.87770    0.000
 3965.00    1.04712   0.84241    0.000
 3966.00    1.13696   0.80317    0.000
 3967.00    0.88990   0.76081    0.000
 3968.00    0.65142   0.71714    0.000
 3969.00    0.44580   0.67720    0.000
 3970.00    0.28255   0.64889    0.000
 3971.00    0.25475   0.64000    0.000
 3972.00    0.33824   0.65414    0.000
 3973.00    0.72312   0.68776    0.000
 3974.00    1.00442   0.73303    0.000
 3975.00    1.04525   0.78225    0.000
 3976.00    0.97873   0.82922    0.000
 3977.00    0.69659   0.87007    0.000
 3978.00    0.64616   0.90370    0.000
 3979.00    1.00103   0.93039    0.000
 3980.00    1.15220   0.95092    0.000
 3981.00    0.99151   0.96632   -1.000
 3982.00    0.82920   0.97768   -1.000
 3983.00    0.66473   0.98641   -1.000
 3984.00    0.64461   0.99430   -1.000
 3985.00    0.79544   1.00259   -1.000
 3986.00    0.78578   1.01119   -1.000
 3987.00    0.60853   1.01933   -1.000
 3988.00    0.76180   1.02641   -1.000
 3989.00    1.21950   1.03199   -1.000
 3990.00    1.29693   1.03579   -1.000
 3991.00    1.06560   1.03811   -1.000
 3992.00    1.13297   1.03929   -1.000
 3993.00    1.41375   1.03931   -1.000
 3994.00    1.31908   1.03807   -1.000
 3995.00    0.98902   1.03589   -1.000
 3996.00    0.97462   1.03403   -1.000
 3997.00    1.13321   1.03364   -1.000
 3998.00    1.04747   1.03478   -1.000
 3999.00    0.84536   1.03704   -1.000
 4000.00    0.83548   1.03992   -1.000
 4001.00    0.90462   1.04221   -1.000
 4002.00    0.92972   1.04272   -1.000
 4003.00    0.93936   1.04096   -1.000
 4004.00    0.92234   1.03701   -1.000
 4005.00    0.89741   1.03125   -1.000
 4006.00    0.86775   1.02453   -1.000
 4007.00    0.83693   1.01808   -1.000
 4008.00    0.63616   1.01268   -1.000
 4009.00    0.40160   1.00886   -1.000
 4010.00    0.61227   1.00807   -1.000
 4011.00    0.89213   1.01175   -1.000
 4012.00    1.13980   1.01918   -1.000
 4013.00    1.38376   1.02800   -1.000
 4014.00    1.28849   1.03623   -1.000
 4015.00    1.16699   1.04264   -1.000
 4016.00    0.94394   1.04684   -1.000
 4017.00    0.71662   1.04898   -1.000
 4018.00    0.75583   1.04941   -1.000
 4019.00    0.80061   1.04844   -1.000
 4020.00    0.98332   1.04556   -1.000
 4021.00    1.16754   1.03941   -1.000
 4022.00    1.37832   1.02877   -1.000
 4023.00    1.53944   1.01329   -1.000
 4024.00    1.16625   0.99396   -1.000
 4025.00    0.84192   0.97372   -1.000
 4026.00    0.88849   0.95732   -1.000
 4027.00    0.86676   0.95002   -1.000
 4028.00    0.45105   0.95438   -1.000
 4029.00    0.17650   0.96717   -1.000
 4030.00    0.54887   0.98203   -1.000
 4031.00    0.86219   0.99428   -1.000
 4032.00    0.95397   1.00248   -1.000
 4033.00    1.00000   1.00760   -1.000
 4034.00    0.90262   1.01168   -1.000
 4035.00    0.87353   1.01654   -1.000
 4036.00    1.02610   1.02293   -1.000
 4037.00    1.11124   1.03043   -1.000
 4038.00    1.04239   1.03725   -1.000
 4039.00    0.95919   1.04139   -1.000
 4040.00    0.84760   1.04204   -1.000
 4041.00    0.79423   1.03949   -1.000
 4042.00    0.84113   1.03471   -1.000
 4043.00    0.92184   1.02890   -1.000
 4044.00    1.05356   1.02276   -1.000
 4045.00    1.16034   1.01733   -1.000
 4046.00    1.23405   1.01423   -1.000
 4047.00    1.25698   1.01471   -1.000
 4048.00    1.22063   1.01869   -1.000
 4049.00    1.11287   1.02444   -1.000
 4050.00    0.93159   1.02990   -1.000
 4051.00    0.88263   1.03353   -1.000
 4052.00    0.95382   1.03440   -1.000
 4053.00    1.00498   1.03250   -1.000
 4054.00    1.04013   1.02876   -1.000
 4055.00    1.06628   1.02450   -1.000
 4056.00    1.08610   1.02084   -1.000
 4057.00    1.10619   1.01815   -1.000
 4058.00    1.12644   1.01611   -1.000
 4059.00    1.12086   1.01427   -1.000
 4060.00    1.10134   1.01222   -1.000
 4061.00    1.04955   1.00969   -1.000
 4062.00    0.98265   1.00678   -1.000
 4063.00    0.86842   1.00391   -1.000
 4064.00    0.73507   1.00183   -1.000
 4065.00    0.72984   1.00120   -1.000
 4066.00    0.76878   1.00158   -1.000
 4067.00    0.84969   1.00136   -1.000
 4068.00    0.94279   0.99924   -1.000
 4069.00    0.84763   0.99503   -1.000
 4070.00    0.70725   0.98936   -1.000
 4071.00    0.93941   0.98350   -1.000
 4072.00    1.24376   0.97882   -1.000
 4073.00    1.06255   0.97594   -1.000
 4074.00    0.80817   0.97447   -1.000
 4075.00    0.94317   0.97300   -1.000
 4076.00    1.12123   0.97090   -1.000
 4077.00    1.15935   0.96954   -1.000
 4078.00    1.18723   0.97063   -1.000
 4079.00    1.10519   0.97452   -1.000
 4080.00    1.01895   0.98018   -1.000
 4081.00    1.01879   0.98578   -1.000
 4082.00    1.01411   0.98928   -1.000
 4083.00    0.82067   0.98961   -1.000
 4084.00    0.64722   0.98711   -1.000
 4085.00    0.80297   0.98310   -1.000
 4086.00    0.93720   0.97900   -1.000
 4087.00    0.85008   0.97552   -1.000
 4088.00    0.79721   0.97242   -1.000
 4089.00    0.99576   0.96894   -1.000
 4090.00    1.15601   0.96450   -1.000
 4091.00    1.10140   0.95858   -1.000
 4092.00    1.04244   0.95015    0.000
 4093.00    0.96402   0.93787    0.000
 4094.00    0.87212   0.92100    0.000
 4095.00    0.73066   0.89905    0.000
 4096.00    0.71876   0.87160    0.000
 4097.00    1.10527   0.83893    0.000
 4098.00    1.35532   0.80203    0.000
 4099.00    1.24871   0.76243    0.000
 4100.00    1.15553   0.72282    0.000
 4101.00    1.09251   0.68807    0.000
 4102.00    1.06831   0.66512    0.000
 4103.00    1.11965   0.66061    0.000
 4104.00    1.15933   0.67669    0.000
 4105.00    1.17920   0.70906    0.000
 4106.00    1.10398   0.74994    0.000
 4107.00    0.88741   0.79177    0.000
 4108.00    0.85562   0.82902    0.000
 4109.00    1.06524   0.85915    0.000
 4110.00    1.23571   0.88229    0.000
 4111.00    1.36110   0.90005    0.000
 4112.00    1.32839   0.91437    0.000
 4113.00    1.13520   0.92665   -1.000
 4114.00    1.07943   0.93723   -1.000
 4115.00    1.14672   0.94558   -1.000
 4116.00    1.21239   0.95093   -1.000
 4117.00    1.27678   0.95290   -1.000
 4118.00    1.16756   0.95157   -1.000
 4119.00    0.93786   0.94764   -1.000
 4120.00    1.03763   0.94300   -1.000
 4121.00    1.33788   0.94056   -1.000
 4122.00    1.41223   0.94268   -1.000
 4123.00    1.36655   0.94973   -1.000
 4124.00    1.29211   0.95957   -1.000
 4125.00    1.20439   0.96884   -1.000
 4126.00    1.17355   0.97470   -1.000
 4127.00    1.16529   0.97588   -1.000
 4128.00    1.03745   0.97289   -1.000
 4129.00    0.86913   0.96758   -1.000
 4130.00    0.76942   0.96216   -1.000
 4131.00    0.68924   0.95810   -1.000
 4132.00    0.90946   0.95630   -1.000
 4133.00    1.20020   0.95746   -1.000
 4134.00    1.09849   0.96169   -1.000
 4135.00    0.92269   0.96806   -1.000
 4136.00    0.94142   0.97494   -1.000
 4137.00    0.98855   0.98055   -1.000
 4138.00    1.01754   0.98344   -1.000
 4139.00    1.04459   0.98281   -1.000
 4140.00    1.01876   0.97814   -1.000
 4141.00    0.98926   0.96919   -1.000
 4142.00    0.91163   0.95675   -1.000
 4143.00    0.83234   0.94327   -1.000
 4144.00    0.88006   0.93265   -1.000
 4145.00    0.92719   0.92887   -1.000
 4146.00    0.94623   0.93330   -1.000
 4147.00    0.95471   0.94320   -1.000
 4148.00    0.79994   0.95399   -1.000
 4149.00    0.68398   0.96226   -1.000
 4150.00    0.95062   0.96668   -1.000
 4151.00    1.17059   0.96780   -1.000
 4152.00    1.05911   0.96711   -1.000
 4153.00    0.94860   0.96594   -1.000
 4154.00    0.84335   0.96514   -1.000
 4155.00    0.76557   0.96550   -1.000
 4156.00    0.80786   0.96736   -1.000
 4157.00    0.87813   0.97046   -1.000
 4158.00    1.04900   0.97433   -1.000
 4159.00    1.16345   0.97837   -1.000
 4160.00    1.10765   0.98169   -1.000
 4161.00    1.03010   0.98352   -1.000
 4162.00    0.89672   0.98367   -1.000
 4163.00    0.76885   0.98246   -1.000
 4164.00    0.65316   0.98035   -1.000
 4165.00    0.64959   0.97772   -1.000
 4166.00    0.86079   0.97482   -1.000
 4167.00    1.06329   0.97183   -1.000
 4168.00    1.25128   0.96879   -1.000
 4169.00    1.24768   0.96578   -1.000
 4170.00    0.96343   0.96293   -1.000
 4171.00    0.81575   0.96023   -1.000
 4172.00    0.84394   0.95748   -1.000
 4173.00    0.76454   0.95476   -1.000
 4174.00    0.56305   0.95277   -1.000
 4175.00    0.60989   0.95217   -1.000
 4176.00    0.90529   0.95295   -1.000
 4177.00    1.12437   0.95461   -1.000
 4178.00    1.27608   0.95669   -1.000
 4179.00    1.19632   0.95902   -1.000
 4180.00    0.93653   0.96147   -1.000
 4181.00    0.91130   0.96379   -1.000
 4182.00    1.04647   0.96556   -1.000
 4183.00    1.00853   0.96641   -1.000
 4184.00    0.86681   0.96628   -1.000
 4185.00    0.81355   0.96525   -1.000
 4186.00    0.80656   0.96345   -1.000
 4187.00    0.83581   0.96124   -1.000
 4188.00    0.88150   0.95928   -1.000
 4189.00    0.98964   0.95830   -1.000
 4190.00    1.12214   0.95877   -1.000
 4191.00    1.38821   0.96059   -1.000
 4192.00    1.69864   0.96322   -1.000
 4193.00    1.52555   0.96564   -1.000
 4194.00    1.21769   0.96657   -1.000
 4195.00    1.26502   0.96500   -1.000
 4196.00    1.39384   0.96071   -1.000
 4197.00    1.11783   0.95448   -1.000
 4198.00    0.76743   0.94765   -1.000
 4199.00    0.67865   0.94156   -1.000
 4200.00    0.62688   0.93729   -1.000
 4201.00    0.92483   0.93562   -1.000
 4202.00    1.25844   0.93682   -1.000
 4203.00    1.19941   0.94044   -1.000
 4204.00    1.11480   0.94567   -1.000
 4205.00    1.24550   0.95160   -1.000
 4206.00    1.38208   0.95733   -1.000
 4207.00    1.05160   0.96225   -1.000
 4208.00    0.73302   0.96601   -1.000
 4209.00    0.76391   0.96835   -1.000
 4210.00    0.80784   0.96920   -1.000
 4211.00    1.04174   0.96871   -1.000
 4212.00    1.24961   0.96719   -1.000
 4213.00    1.21137   0.96496   -1.000
 4214.00    1.16338   0.96226   -1.000
 4215.00    1.04836   0.95961   -1.000
 4216.00    0.94394   0.95784   -1.000
 4217.00    0.89588   0.95769   -1.000
 4218.00    0.87230   0.95930   -1.000
 4219.00    0.95325   0.96171   -1.000
 4220.00    1.04406   0.96318   -1.000
 4221.00    1.16957   0.96233   -1.000
 4222.00    1.25477   0.95849   -1.000
 4223.00    1.22060   0.95170   -1.000
 4224.00    1.17960   0.94267   -1.000
 4225.00    1.12137   0.93295   -1.000
 4226.00    1.07707   0.92445   -1.000
 4227.00    1.06303   0.91912   -1.000
 4228.00    1.07791   0.91837   -1.000
 4229.00    1.14731   0.92227   -1.000
 4230.00    1.16417   0.92920   -1.000
 4231.00    1.09453   0.93636   -1.000
 4232.00    1.01050   0.94141   -1.000
 4233.00    0.90569   0.94355   -1.000
 4234.00    0.84586   0.94324   -1.000
 4235.00    0.84313   0.94166   -1.000
 4236.00    0.80725   0.94009   -1.000
 4237.00    0.73428   0.93915   -1.000
 4238.00    0.72884   0.93906   -1.000
 4239.00    0.79006   0.94011   -1.000
 4240.00    0.93916   0.94217   -1.000
 4241.00    1.16474   0.94490   -1.000
 4242.00    1.13273   0.94809   -1.000
 4243.00    0.90324   0.95153   -1.000
 4244.00    0.83048   0.95471   -1.000
 4245.00    0.86334   0.95688   -1.000
 4246.00    0.95892   0.95714   -1.000
 4247.00    1.09154   0.95500   -1.000
 4248.00    1.11101   0.95087   -1.000
 4249.00    1.07222   0.94578   -1.000
 4250.00    0.87687   0.94058   -1.000
 4251.00    0.61167   0.93568   -1.000
 4252.00    0.66157   0.93132   -1.000
 4253.00    0.83228   0.92795   -1.000
 4254.00    1.07887   0.92602   -1.000
 4255.00    1.35018   0.92574   -1.000
 4256.00    1.34476   0.92729   -1.000
 4257.00    1.26379   0.93012   -1.000
 4258.00    1.13686   0.93280   -1.000
 4259.00    0.99964   0.93425   -1.000
 4260.00    0.86791   0.93464   -1.000
 4261.00    0.73716   0.93509   -1.000
 4262.00    0.80464   0.93652   -1.000
 4263.00    0.89923   0.93874   -1.000
 4264.00    0.88314   0.94034   -1.000
 4265.00    0.85625   0.93945   -1.000
 4266.00    0.71959   0.93518   -1.000
 4267.00    0.57622   0.92836   -1.000
 4268.00    0.75280   0.92092   -1.000
 4269.00    0.93728   0.91487   -1.000
 4270.00    0.97740   0.91118   -1.000
 4271.00    1.01373   0.90902   -1.000
 4272.00    0.95006   0.90706   -1.000
 4273.00    0.88996   0.90504   -1.000
 4274.00    0.87876   0.90368   -1.000
 4275.00    0.86753   0.90381   -1.000
 4276.00    0.85606   0.90591   -1.000
 4277.00    0.85541   0.91005   -1.000
 4278.00    0.92683   0.91568   -1.000
 4279.00    0.94849   0.92144    0.449
 4280.00    0.71254   0.92568    0.063
 4281.00    0.55158   0.92728    0.037
 4282.00    0.70361   0.92626   -2.000
 4283.00    0.89177   0.92364   -2.000
 4284.00    1.20466   0.92064   -2.000
 4285.00    1.43823   0.91805   -2.000
 4286.00    1.44125   0.91597   -2.000
 4287.00    1.35480   0.91394   -2.000
 4288.00    1.04647   0.91153   -2.000
 4289.00    0.81417   0.90875   -2.000
 4290.00    0.74441   0.90623   -2.000
 4291.00    0.67687   0.90495   -2.000
 4292.00    0.61346   0.90557   -2.000
 4293.00    0.79308   0.90770   -2.000
 4294.00    1.36682   0.91010   -2.000
 4295.00    1.55512   0.91140   -2.000
 4296.00    1.19506   0.91088   -2.000
 4297.00    0.95404   0.90854   -2.000
 4298.00    0.86199   0.90472    0.035
 4299.00    1.01810   0.89970    0.035
 4300.00    1.44795   0.89401    0.035
 4301.00    1.52760   0.88842    0.035
 4302.00    1.26655   0.88364    0.035
 4303.00    1.08279   0.88005    0.035
 4304.00    0.96535   0.87755    0.035
 4305.00    0.83576   0.87576    0.035
 4306.00    0.69701   0.87441    0.035
 4307.00    0.64173   0.87339    0.035
 4308.00    0.64189   0.87281    0.034
 4309.00    0.57450   0.87324    0.034
 4310.00    0.46784   0.87534    0.034
 4311.00    0.50001   0.87931    0.034
 4312.00    0.60255   0.88461    0.033
 4313.00    0.85171   0.89042    0.033
 4314.00    1.16521   0.89621    0.033
 4315.00    0.98802   0.90187    0.033
 4316.00    0.62601   0.90744    0.033
 4317.00    0.69936   0.91262    0.033
 4318.00    0.91190   0.91670    0.033
 4319.00    1.14131   0.91889    0.034
 4320.00    1.37522   0.91876    0.034
 4321.00    1.13296   0.91624    0.034
 4322.00    0.78649   0.91133    0.035
 4323.00    0.80412   0.90410    0.034
 4324.00    0.88509   0.89508    0.034
 4325.00    0.80597   0.88567    0.035
 4326.00    0.70568   0.87792    0.035
 4327.00    0.53726   0.87359    0.035
 4328.00    0.36248   0.87294    0.034
 4329.00    0.52504   0.87447    0.035
 4330.00    0.70689   0.87556    0.000
 4331.00    0.88000   0.87374    0.000
 4332.00    1.05194   0.86772    0.000
 4333.00    1.11203   0.85722    0.000
 4334.00    1.17723   0.84193    0.000
 4335.00    1.36517   0.82093    0.000
 4336.00    1.53641   0.79317    0.000
 4337.00    1.49044   0.75863    0.000
 4338.00    1.42051   0.71952    0.000
 4339.00    1.14131   0.68073    0.000
 4340.00    0.88784   0.64915    0.000
 4341.00    0.80045   0.63143    0.000
 4342.00    0.76046   0.63124    0.000
 4343.00    0.95957   0.64795    0.000
 4344.00    1.09723   0.67705    0.000
 4345.00    0.98410   0.71196    0.000
 4346.00    0.94173   0.74650    0.000
 4347.00    1.13875   0.77687    0.000
 4348.00    1.27082   0.80154    0.000
 4349.00    1.21754   0.82023    0.000
 4350.00    1.16606   0.83347    0.000
 4351.00    1.11901   0.84261    0.036
 4352.00    1.04832   0.84963    0.036
 4353.00    0.92794   0.85665    0.036
 4354.00    0.90480   0.86516    0.035
 4355.00    1.05943   0.87538    0.035
 4356.00    1.09781   0.88618    0.035
 4357.00    0.95045   0.89585    0.035
 4358.00    0.89714   0.90321    0.036
 4359.00    0.97570   0.90823    0.036
 4360.00    1.11471   0.91170    0.036
 4361.00    1.32832   0.91469    0.036
 4362.00    1.27163   0.91787    0.036
 4363.00    0.92098   0.92119    0.035
 4364.00    0.86493   0.92391    0.035
 4365.00    1.09147   0.92511    0.035
 4366.00    1.00582   0.92432    0.035
 4367.00    0.65610   0.92178    0.034
 4368.00    0.83233   0.91832    0.034
 4369.00    1.40032   0.91490    0.035
 4370.00    1.40842   0.91206    0.035
 4371.00    1.05016   0.90974    0.034
 4372.00    0.92884   0.90754    0.034
 4373.00    0.94322   0.90520    0.035
 4374.00    0.95952   0.90304    0.034
 4375.00    0.97679   0.90185    0.034
 4376.00    1.12374   0.90231    0.034
 4377.00    1.32664   0.90443    0.035
 4378.00    1.19325   0.90722    0.034
 4379.00    0.93542   0.90909    0.034
 4380.00    0.98500   0.90835    0.033
 4381.00    1.13099   0.90391    0.033
 4382.00    1.12484   0.89576    0.033
 4383.00    1.07890   0.88511    0.033
 4384.00    1.10466   0.87399    0.032
 4385.00    1.14574   0.86446    0.032
 4386.00    1.02350   0.85790    0.032
 4387.00    0.87363   0.85484    0.032
 4388.00    0.85437   0.85526    0.032
 4389.00    0.85178   0.85894    0.032
 4390.00    0.83946   0.86546    0.032
 4391.00    0.82626   0.87399    0.032
 4392.00    1.12764   0.88327    0.032
 4393.00    1.44577   0.89188    0.033
 4394.00    1.31581   0.89882    0.032
 4395.00    1.17696   0.90403    0.032
 4396.00    1.02950   0.90815    0.031
 4397.00    0.87902   0.91169    0.031
 4398.00    0.66202   0.91459    0.031
 4399.00    0.46649   0.91629    0.031
 4400.00    0.53630   0.91627    0.031
 4401.00    0.62560   0.91434    0.030
 4402.00    0.87882   0.91073    0.031
 4403.00    1.09207   0.90583    0.031
 4404.00    1.05473   0.90030    0.032
 4405.00    1.04372   0.89510    0.032
 4406.00    1.16214   0.89141    0.031
 4407.00    1.23173   0.89021    0.031
 4408.00    1.10639   0.89180    0.030
 4409.00    1.00164   0.89564    0.030
 4410.00    0.96519   0.90053    0.031
 4411.00    0.95599   0.90486    0.032
 4412.00    1.02313   0.90706    0.032
 4413.00    1.07505   0.90620    0.031
 4414.00    1.09051   0.90241    0.031
 4415.00    1.05245   0.89711    0.031
 4416.00    0.90363   0.89259    0.030
 4417.00    0.76513   0.89100    0.030
 4418.00    0.64521   0.89321    0.030
 4419.00    0.62610   0.89840    0.030
 4420.00    0.76569   0.90465    0.030
 4421.00    0.88718   0.90996    0.030
 4422.00    0.98364   0.91320    0.031
 4423.00    1.08031   0.91434    0.031
 4424.00    1.17723   0.91408    0.031
 4425.00    1.23465   0.91315    0.031
 4426.00    1.24974   0.91199    0.031
 4427.00    1.22889   0.91071    0.030
 4428.00    1.17407   0.90928    0.030
 4429.00    1.20585   0.90767    0.030
 4430.00    1.30986   0.90583    0.031
 4431.00    1.27747   0.90372    0.031
 4432.00    1.14492   0.90128    0.031
 4433.00    0.99291   0.89853    0.030
 4434.00    0.82836   0.89576    0.030
 4435.00    0.90792   0.89367    0.030
 4436.00    1.12517   0.89311    0.031
 4437.00    1.14973   0.89468    0.031
 4438.00    1.07971   0.89811    0.032
 4439.00    0.99865   0.90216    0.031
 4440.00    0.91290   0.90522    0.030
 4441.00    0.74157   0.90619    0.030
 4442.00    0.53913   0.90521    0.031
 4443.00    0.66805   0.90355    0.030
 4444.00    0.89888   0.90273    0.030
 4445.00    1.05304   0.90360    0.030
 4446.00    1.18758   0.90593    0.031
 4447.00    1.16313   0.90877    0.031
 4448.00    1.10555   0.91117    0.030
 4449.00    1.08850   0.91258    0.031
 4450.00    1.07811   0.91283    0.031
 4451.00    1.17154   0.91186    0.031
 4452.00    1.27777   0.90963    0.031
 4453.00    1.08585   0.90617    0.030
 4454.00    0.86856   0.90182    0.030
 4455.00    0.72700   0.89721    0.030
 4456.00    0.58917   0.89307    0.029
 4457.00    0.81469   0.88991    0.029
 4458.00    1.04033   0.88783    0.029
 4459.00    0.91127   0.88656    0.029
 4460.00    0.77999   0.88584    0.030
 4461.00    0.60368   0.88560    0.000
 4462.00    0.45114   0.88597    0.000
 4463.00    0.57778   0.88693    0.000
 4464.00    0.68620   0.88804    0.000
 4465.00    0.64688   0.88838    0.000
 4466.00    0.58993   0.88686    0.000
 4467.00    0.42567   0.88265    0.000
 4468.00    0.27769   0.87554    0.000
 4469.00    0.20784   0.86623    0.000
 4470.00    0.26824   0.85651    0.000
 4471.00    0.83733   0.84909    0.000
 4472.00    1.24052   0.84678    0.000
 4473.00    1.10428   0.85119    0.000
 4474.00    0.94125   0.86176    0.000
 4475.00    0.70452   0.87581    0.000
 4476.00    0.62826   0.88955    0.000
 4477.00    0.93013   0.89957    0.000
 4478.00    1.08983   0.90386    0.000
 4479.00    0.95997   0.90233    0.000
 4480.00    0.97062   0.89680    0.000
 4481.00    1.23035   0.89047    0.000
 4482.00    1.40779   0.88674    0.030
 4483.00    1.45758   0.88771    0.030
 4484.00    1.33054   0.89319    0.030
 4485.00    0.96263   0.90096    0.029
 4486.00    0.78909   0.90796    0.029
 4487.00    0.84861   0.91189    0.029
 4488.00    0.89014   0.91217    0.030
 4489.00    0.91266   0.90985    0.029
 4490.00    0.92582   0.90677    0.030
 4491.00    0.93026   0.90442    0.030
 4492.00    0.91267   0.90331    0.030
 4493.00    0.87696   0.90299    0.030
 4494.00    0.88720   0.90280    0.030
 4495.00    0.93071   0.90249    0.030
 4496.00    1.01802   0.90247    0.030
 4497.00    1.13317   0.90335    0.030
 4498.00    1.06165   0.90539    0.030
 4499.00    0.88647   0.90837    0.029
 4500.00    0.92746   0.91179    0.029
 4501.00    1.07290   0.91538    0.030
 4502.00    0.98426   0.91911    0.029
 4503.00    0.79797   0.92298    0.029
 4504.00    0.93085   0.92662    0.029
 4505.00    1.17764   0.92932    0.030
 4506.00    1.28439   0.93044    0.030
 4507.00    1.34893   0.92984    0.030
 4508.00    1.19486   0.92798    0.030
 4509.00    0.98604   0.92550    0.030
 4510.00    0.97614   0.92279    0.030
 4511.00    1.00667   0.91983    0.029
 4512.00    1.01521   0.91648    0.029
 4513.00    1.02024   0.91282    0.028
 4514.00    1.04550   0.90930    0.029
 4515.00    1.07317   0.90660    0.029
 4516.00    1.13368   0.90519    0.029
 4517.00    1.19686   0.90519    0.029
 4518.00    1.02662   0.90630    0.029
 4519.00    0.84576   0.90796    0.029
 4520.00    0.97415   0.90946    0.029
 4521.00    1.10404   0.91004    0.028
 4522.00    1.11631   0.90906    0.029
 4523.00    1.13007   0.90624    0.030
 4524.00    1.17162   0.90166    0.029
 4525.00    1.19152   0.89571    0.029
 4526.00    0.96887   0.88894    0.028
 4527.00    0.75045   0.88201    0.027
 4528.00    0.56504   0.87573    0.028
 4529.00    0.45457   0.87097    0.028
 4530.00    0.78719   0.86835    0.028
 4531.00    1.03775   0.86795    0.029
 4532.00    0.90417   0.86917    0.029
 4533.00    0.78408   0.87120    0.028
 4534.00    0.71558   0.87351    0.029
 4535.00    0.66009   0.87618    0.029
 4536.00    0.64607   0.87956    0.028
 4537.00    0.67946   0.88359    0.028
 4538.00    0.84099   0.88750    0.028
 4539.00    0.92697   0.89020    0.028
 4540.00    0.83790   0.89104    0.028
 4541.00    0.81869   0.89032    0.028
 4542.00    0.93952   0.88906    0.028
 4543.00    1.00956   0.88826    0.028
 4544.00    0.99092   0.88835    0.028
 4545.00    1.01043   0.88902    0.028
 4546.00    1.08825   0.88960    0.028
 4547.00    1.13480   0.88952    0.029
 4548.00    1.13936   0.88850    0.028
 4549.00    1.09829   0.88661    0.028
 4550.00    1.00327   0.88413    0.000
 4551.00    0.97061   0.88145    0.000
 4552.00    1.00295   0.87899    0.000
 4553.00    1.00259   0.87727    0.000
 4554.00    0.97216   0.87691    0.000
 4555.00    0.87355   0.87854    0.000
 4556.00    0.71968   0.88241    0.000
 4557.00    0.76329   0.88814    0.000
 4558.00    0.94773   0.89473    0.000
 4559.00    1.00880   0.90091    0.000
 4560.00    0.99266   0.90553    0.000
 4561.00    1.11225   0.90789    0.000
 4562.00    1.30606   0.90790    0.000
 4563.00    1.14331   0.90606    0.000
 4564.00    0.81105   0.90329    0.000
 4565.00    0.74196   0.90067    0.000
 4566.00    0.78080   0.89910    0.000
 4567.00    0.88202   0.89887    0.000
 4568.00    1.00509   0.89963    0.000
 4569.00    0.93493   0.90063    0.000
 4570.00    0.80765   0.90124    0.000
 4571.00    0.85065   0.90125    0.000
 4572.00    0.93536   0.90095    0.000
 4573.00    0.94133   0.90080    0.000
 4574.00    0.93170   0.90101    0.000
 4575.00    0.98859   0.90145    0.000
 4576.00    1.05577   0.90164    0.000
 4577.00    1.03715   0.90108    0.000
 4578.00    1.00871   0.89944    0.000
 4579.00    1.08859   0.89680    0.000
 4580.00    1.17679   0.89361    0.000
 4581.00    1.11817   0.89054    0.000
 4582.00    1.05344   0.88812    0.000
 4583.00    1.12436   0.88660    0.000
 4584.00    1.19155   0.88592    0.000
 4585.00    1.04754   0.88594    0.000
 4586.00    0.91128   0.88654    0.000
 4587.00    0.91058   0.88757    0.000
 4588.00    0.91492   0.88868    0.000
 4589.00    0.97318   0.88933    0.000
 4590.00    1.02101   0.88902    0.000
 4591.00    0.98999   0.88755    0.000
 4592.00    0.97080   0.88520    0.000
 4593.00    1.01964   0.88251    0.000
 4594.00    1.06103   0.88007    0.000
 4595.00    1.06845   0.87827    0.000
 4596.00    1.05040   0.87734    0.000
 4597.00    0.93706   0.87726    0.000
 4598.00    0.87745   0.87782    0.000
 4599.00    0.98587   0.87858    0.000
 4600.00    1.05441   0.87912    0.000
 4601.00    1.01710   0.87928    0.000
 4602.00    0.94621   0.87927    0.000
 4603.00    0.79879   0.87948    0.000
 4604.00    0.74548   0.88027    0.000
 4605.00    0.87787   0.88183    0.000
 4606.00    0.99045   0.88420    0.000
 4607.00    1.06899   0.88728    0.000
 4608.00    1.04738   0.89081    0.000
 4609.00    0.87499   0.89431    0.000
 4610.00    0.82271   0.89720    0.000
 4611.00    0.92936   0.89906    0.000
 4612.00    0.94274   0.89986    0.000
 4613.00    0.84742   0.89997    0.000
 4614.00    0.82744   0.89985    0.000
 4615.00    0.88487   0.89976    0.000
 4616.00    0.91032   0.89958    0.000
 4617.00    0.90676   0.89899    0.000
 4618.00    0.85624   0.89781    0.000
 4619.00    0.76819   0.89631    0.000
 4620.00    0.83567   0.89508    0.000
 4621.00    1.01246   0.89469    0.000
 4622.00    0.92848   0.89529    0.000
 4623.00    0.68372   0.89652    0.000
 4624.00    0.65423   0.89766    0.000
 4625.00    0.74069   0.89805    0.000
 4626.00    0.80019   0.89732    0.000
 4627.00    0.84708   0.89551    0.000
 4628.00    0.88756   0.89298    0.000
 4629.00    0.92545   0.89020    0.000
 4630.00    0.90647   0.88763    0.000
 4631.00    0.86793   0.88553    0.000
 4632.00    0.89742   0.88391    0.000
 4633.00    0.94661   0.88248    0.000
 4634.00    0.91752   0.88090    0.000
 4635.00    0.86969   0.87885    0.000
 4636.00    0.90340   0.87613    0.000
 4637.00    0.95286   0.87269    0.000
 4638.00    0.99945   0.86876    0.000
 4639.00    1.04562   0.86482    0.000
 4640.00    0.96661   0.86150    0.000
 4641.00    0.87383   0.85927    0.000
 4642.00    1.02463   0.85817    0.000
 4643.00    1.19314   0.85764    0.000
 4644.00    1.18795   0.85676    0.000
 4645.00    1.17618   0.85469    0.000
 4646.00    1.14704   0.85116    0.000
 4647.00    1.11697   0.84672    0.000
 4648.00    1.05584   0.84259    0.000
 4649.00    1.00038   0.84015    0.000
 4650.00    1.03744   0.84032    0.000
 4651.00    1.06300   0.84322    0.000
 4652.00    0.97073   0.84807    0.000
 4653.00    0.88467   0.85368    0.000
 4654.00    0.84405   0.85903    0.000
 4655.00    0.80107   0.86369    0.000
 4656.00    0.74500   0.86792    0.000
 4657.00    0.70755   0.87223    0.000
 4658.00    0.75321   0.87679    0.000
 4659.00    0.80017   0.88108    0.000
 4660.00    0.85183   0.88414    0.000
 4661.00    0.93227   0.88504    0.000
 4662.00    1.10100   0.88339    0.000
 4663.00    1.16566   0.87947    0.000
 4664.00    0.95894   0.87393    0.000
 4665.00    0.76507   0.86756    0.000
 4666.00    0.59998   0.86111    0.000
 4667.00    0.58544   0.85545    0.000
 4668.00    0.86325   0.85153    0.000
 4669.00    1.01335   0.85003    0.000
 4670.00    0.94717   0.85100    0.000
 4671.00    0.89240   0.85372    0.000
 4672.00    0.85459   0.85701    0.000
 4673.00    0.83542   0.85985    0.000
 4674.00    0.84055   0.86174    0.000
 4675.00    0.88206   0.86279    0.000
 4676.00    0.96536   0.86330    0.000
 4677.00    0.89831   0.86347    0.000
 4678.00    0.67891   0.86326    0.000
 4679.00    0.70099   0.86253    0.000
 4680.00    0.93888   0.86126    0.000
 4681.00    1.00541   0.85954    0.000
 4682.00    0.93699   0.85762    0.000
 4683.00    0.90799   0.85569    0.000
 4684.00    0.90631   0.85391    0.000
 4685.00    0.86868   0.85248    0.000
 4686.00    0.80921   0.85169    0.000
 4687.00    0.76402   0.85183    0.000
 4688.00    0.72639   0.85299    0.000
 4689.00    0.81077   0.85500    0.000
 4690.00    0.95129   0.85746    0.000
 4691.00    0.88583   0.86002    0.000
 4692.00    0.73875   0.86250    0.000
 4693.00    0.75427   0.86484    0.000
 4694.00    0.82468   0.86688    0.000
 4695.00    0.86507   0.86823    0.000
 4696.00    0.89694   0.86838    0.000
 4697.00    0.72059   0.86693    0.000
 4698.00    0.49549   0.86393    0.000
 4699.00    0.43682   0.85995    0.000
 4700.00    0.40945   0.85591    0.000
 4701.00    0.44782   0.85259    0.000
 4702.00    0.49576   0.85042    0.000
 4703.00    0.71959   0.84939    0.000
 4704.00    0.96203   0.84920    0.000
 4705.00    0.88135   0.84948    0.000
 4706.00    0.77848   0.84989    0.000
 4707.00    0.77692   0.85023    0.000
 4708.00    0.77880   0.85041    0.000
 4709.00    0.76805   0.85032    0.000
 4710.00    0.75636   0.84986    0.000
 4711.00    0.71489   0.84890    0.000
 4712.00    0.68746   0.84750    0.000
 4713.00    0.87539   0.84606    0.000
 4714.00    1.02644   0.84539    0.000
 4715.00    0.81583   0.84641    0.000
 4716.00    0.64004   0.84964    0.000
 4717.00    0.71035   0.85491    0.000
 4718.00    0.77511   0.86140    0.000
 4719.00    0.80964   0.86795    0.000
 4720.00    0.81777   0.87356    0.000
 4721.00    0.71089   0.87763    0.000
 4722.00    0.66302   0.88001    0.000
 4723.00    0.82682   0.88082    0.000
 4724.00    0.94136   0.88018    0.000
 4725.00    0.90761   0.87810    0.000
 4726.00    0.91700   0.87451    0.000
 4727.00    1.03695   0.86957    0.000
 4728.00    1.12476   0.86393    0.000
 4729.00    1.14171   0.85861    0.000
 4730.00    1.08656   0.85470    0.000
 4731.00    0.89358   0.85287    0.000
 4732.00    0.74484   0.85318    0.000
 4733.00    0.66991   0.85505    0.000
 4734.00    0.66525   0.85766    0.000
 4735.00    0.76334   0.86027    0.000
 4736.00    0.80093   0.86241    0.000
 4737.00    0.76074   0.86389    0.000
 4738.00    0.69050   0.86479    0.000
 4739.00    0.58620   0.86528    0.000
 4740.00    0.66031   0.86552    0.000
 4741.00    0.91266   0.86568    0.000
 4742.00    1.03047   0.86595    0.000
 4743.00    1.02975   0.86655    0.000
 4744.00    0.90404   0.86761    0.000
 4745.00    0.68131   0.86905    0.000
 4746.00    0.63359   0.87071    0.000
 4747.00    0.70534   0.87229    0.000
 4748.00    0.83514   0.87350    0.000
 4749.00    0.99969   0.87406    0.000
 4750.00    1.01429   0.87384    0.000
 4751.00    0.95061   0.87282    0.000
 4752.00    0.92354   0.87115    0.000
 4753.00    0.91304   0.86911    0.000
 4754.00    0.92295   0.86701    0.000
 4755.00    0.94081   0.86510    0.000
 4756.00    0.86725   0.86351    0.000
 4757.00    0.76338   0.86219    0.000
 4758.00    0.68582   0.86089    0.000
 4759.00    0.61557   0.85924    0.000
 4760.00    0.66586   0.85689    0.000
 4761.00    0.74373   0.85362    0.023
 4762.00    0.73509   0.84944    0.023
 4763.00    0.71060   0.84471    0.023
 4764.00    0.75240   0.84004    0.022
 4765.00    0.80354   0.83619    0.022
 4766.00    0.79889   0.83379    0.022
 4767.00    0.78858   0.83316    0.022
 4768.00    0.78719   0.83417    0.022
 4769.00    0.78637   0.83628    0.022
 4770.00    0.80212   0.83886    0.022
 4771.00    0.81844   0.84141    0.023
 4772.00    0.87506   0.84374    0.023
 4773.00    0.92469   0.84589    0.023
 4774.00    0.77209   0.84801    0.023
 4775.00    0.63880   0.85010    0.022
 4776.00    0.78448   0.85188    0.022
 4777.00    0.91157   0.85298    0.022
 4778.00    0.86373   0.85312    0.022
 4779.00    0.82869   0.85220    0.022
 4780.00    0.88123   0.85033    0.022
 4781.00    0.93239   0.84784    0.022
 4782.00    0.97617   0.84513    0.022
 4783.00    0.99941   0.84257    0.022
 4784.00    0.93516   0.84038    0.022
 4785.00    0.87515   0.83870    0.022
 4786.00    0.83003   0.83756    0.022
 4787.00    0.79420   0.83691    0.021
 4788.00    0.78578   0.83679    0.021
 4789.00    0.81996   0.83730    0.021
 4790.00    0.96143   0.83862    0.022
 4791.00    1.04440   0.84091    0.022
 4792.00    1.00051   0.84417    0.022
 4793.00    0.99270   0.84808    0.022
 4794.00    1.05280   0.85203    0.022
 4795.00    1.10468   0.85525    0.022
 4796.00    1.14305   0.85706    0.022
 4797.00    1.13447   0.85716    0.022
 4798.00    1.05825   0.85583    0.022
 4799.00    1.03095   0.85375    0.022
 4800.00    1.06568   0.85168    0.022
 4801.00    1.05821   0.85011    0.022
 4802.00    1.00364   0.84904    0.022
 4803.00    0.89327   0.84810    0.022
 4804.00    0.72796   0.84683    0.022
 4805.00    0.74257   0.84496    0.022
 4806.00    0.91349   0.84258    0.022
 4807.00    0.86785   0.84012    0.022
 4808.00    0.65650   0.83807    0.022
 4809.00    0.63678   0.83673    0.022
 4810.00    0.74597   0.83611    0.022
 4811.00    0.83335   0.83604    0.022
 4812.00    0.90788   0.83632    0.022
 4813.00    0.85083   0.83683    0.021
 4814.00    0.72618   0.83763    0.021
 4815.00    0.69760   0.83884    0.021
 4816.00    0.71181   0.84046    0.021
 4817.00    0.69278   0.84228    0.022
 4818.00    0.66102   0.84395    0.022
 4819.00    0.71955   0.84507    0.022
 4820.00    0.80743   0.84521    0.022
 4821.00    0.74480   0.84415    0.022
 4822.00    0.64119   0.84211    0.022
 4823.00    0.70605   0.83964    0.021
 4824.00    0.80854   0.83726    0.021
 4825.00    0.79964   0.83532    0.022
 4826.00    0.77089   0.83392    0.022
 4827.00    0.77968   0.83290    0.022
 4828.00    0.79358   0.83204    0.022
 4829.00    0.69378   0.83105    0.022
 4830.00    0.58293   0.82993    0.022
 4831.00    0.58516   0.82899    0.021
 4832.00    0.59424   0.82852    0.021
 4833.00    0.63807   0.82862    0.021
 4834.00    0.68317   0.82921    0.021
 4835.00    0.78867   0.83002    0.022
 4836.00    0.88669   0.83058    0.022
 4837.00    0.78943   0.83043    0.022
 4838.00    0.69273   0.82936    0.021
 4839.00    0.60362   0.82748    0.021
 4840.00    0.52844   0.82502    0.021
 4841.00    0.57914   0.82227    0.021
 4842.00    0.64071   0.81968    0.021
 4843.00    0.77427   0.81754    0.021
 4844.00    0.86285   0.81580    0.021
 4845.00    0.71934   0.81412    0.021
 4846.00    0.63157   0.81203    0.021
 4847.00    0.77582   0.80917    0.021
 4848.00    0.87214   0.80536    0.000
 4849.00    0.80338   0.80053    0.000
 4850.00    0.77046   0.79471    0.000
 4851.00    0.84148   0.78788    0.000
 4852.00    0.87150   0.77961    0.000
 4853.00    0.80008   0.76935    0.000
 4854.00    0.73278   0.75671    0.000
 4855.00    0.67426   0.74142    0.000
 4856.00    0.65490   0.72317    0.000
 4857.00    0.70812   0.70175    0.000
 4858.00    0.71842   0.67729    0.000
 4859.00    0.65924   0.65109    0.000
 4860.00    0.64606   0.62619    0.000
 4861.00    0.69819   0.60656    0.000
 4862.00    0.74130   0.59570    0.000
 4863.00    0.77314   0.59584    0.000
 4864.00    0.79020   0.60696    0.000
 4865.00    0.79096   0.62656    0.000
 4866.00    0.75443   0.65084    0.000
 4867.00    0.68170   0.67589    0.000
 4868.00    0.65442   0.69855    0.000
 4869.00    0.66608   0.71700    0.000
 4870.00    0.66036   0.73113    0.000
 4871.00    0.64153   0.74192    0.000
 4872.00    0.64415   0.75063    0.000
 4873.00    0.66098   0.75845    0.000
 4874.00    0.64583   0.76624    0.000
 4875.00    0.61211   0.77429    0.020
 4876.00    0.68473   0.78241    0.020
 4877.00    0.81113   0.79025    0.020
 4878.00    0.84254   0.79725    0.020
 4879.00    0.83235   0.80283    0.020
 4880.00    0.78249   0.80679    0.020
 4881.00    0.71772   0.80917    0.020
 4882.00    0.64988   0.81008    0.020
 4883.00    0.58106   0.80974    0.020
 4884.00    0.62659   0.80856    0.020
 4885.00    0.70260   0.80701    0.020
 4886.00    0.73777   0.80546    0.020
 4887.00    0.76404   0.80404    0.020
 4888.00    0.77922   0.80275    0.020
 4889.00    0.79249   0.80171    0.020
 4890.00    0.71518   0.80152    0.020
 4891.00    0.62594   0.80291    0.020
 4892.00    0.67855   0.80639    0.020
 4893.00    0.74434   0.81210    0.020
 4894.00    0.83260   0.81951    0.020
 4895.00    0.92214   0.82751    0.020
 4896.00    0.83422   0.83473    0.020
 4897.00    0.74255   0.83992    0.020
 4898.00    0.68203   0.84246    0.020
 4899.00    0.63175   0.84259    0.021
 4900.00    0.82446   0.84101    0.021
 4901.00    0.99373   0.83856    0.020
 4902.00    0.85981   0.83618    0.020
 4903.00    0.73765   0.83460    0.020
 4904.00    0.71772   0.83406    0.020
 4905.00    0.70869   0.83426    0.020
 4906.00    0.76979   0.83463    0.020
 4907.00    0.80406   0.83457    0.020
 4908.00    0.70346   0.83373    0.020
 4909.00    0.63983   0.83224    0.020
 4910.00    0.72668   0.83063    0.020
 4911.00    0.77664   0.82949    0.020
 4912.00    0.70212   0.82927    0.020
 4913.00    0.63990   0.82999    0.020
 4914.00    0.61274   0.83107    0.020
 4915.00    0.62783   0.83133    0.020
 4916.00    0.74575   0.82945    0.020
 4917.00    0.80830   0.82440    0.020
 4918.00    0.75464   0.81603    0.020
 4919.00    0.71533   0.80514    0.020
 4920.00    0.70217   0.79365    0.020
 4921.00    0.70046   0.78394    0.020
 4922.00    0.71701   0.77792    0.020
 4923.00    0.69335   0.77669    0.020
 4924.00    0.61341   0.78057    0.020
 4925.00    0.58669   0.78884    0.020
 4926.00    0.62553   0.79995    0.020
 4927.00    0.66931   0.81217    0.020
 4928.00    0.71844   0.82383    0.020
 4929.00    0.76386   0.83348    0.020
 4930.00    0.80571   0.84014    0.020
 4931.00    0.83160   0.84331    0.020
 4932.00    0.84400   0.84323    0.020
 4933.00    0.76754   0.84087    0.020
 4934.00    0.62501   0.83724    0.020
 4935.00    0.62576   0.83299    0.020
 4936.00    0.72010   0.82852    0.020
 4937.00    0.70934   0.82429    0.020
 4938.00    0.63851   0.82086    0.020
 4939.00    0.63003   0.81880    0.020
 4940.00    0.65258   0.81841    0.000
 4941.00    0.70459   0.81983    0.000
 4942.00    0.76930   0.82298    0.000
 4943.00    0.75482   0.82732    0.000
 4944.00    0.71112   0.83209    0.000
 4945.00    0.73136   0.83674    0.000
 4946.00    0.77161   0.84095    0.000
 4947.00    0.81261   0.84452    0.000
 4948.00    0.85382   0.84745    0.000
 4949.00    0.80565   0.84965    0.000
 4950.00    0.73846   0.85084    0.000
 4951.00    0.77326   0.85049    0.000
 4952.00    0.82524   0.84807    0.000
 4953.00    0.86147   0.84322    0.000
 4954.00    0.89570   0.83588    0.000
 4955.00    0.83560   0.82643    0.000
 4956.00    0.76714   0.81609    0.000
 4957.00    0.70897   0.80678    0.000
 4958.00    0.65135   0.80016    0.000
 4959.00    0.54496   0.79689    0.000
 4960.00    0.44220   0.79676    0.000
 4961.00    0.69657   0.79884    0.000
 4962.00    0.93318   0.80171    0.000
 4963.00    0.78337   0.80397    0.000
 4964.00    0.64905   0.80479    0.000
 4965.00    0.70497   0.80420    0.000
 4966.00    0.75001   0.80277    0.000
 4967.00    0.70397   0.80131    0.000
 4968.00    0.66880   0.80059    0.000
 4969.00    0.70157   0.80104    0.000
 4970.00    0.73530   0.80277    0.000
 4971.00    0.77373   0.80551    0.000
 4972.00    0.81024   0.80877    0.000
 4973.00    0.83909   0.81196    0.000
 4974.00    0.85894   0.81446    0.000
 4975.00    0.84900   0.81575    0.000
 4976.00    0.81954   0.81548    0.000
 4977.00    0.73555   0.81351    0.000
 4978.00    0.68401   0.81001    0.000
 4979.00    0.71008   0.80524    0.000
 4980.00    0.71909   0.79947    0.000
 4981.00    0.69284   0.79329    0.000
 4982.00    0.68740   0.78768    0.000
 4983.00    0.71932   0.78357    0.000
 4984.00    0.71906   0.78158    0.000
 4985.00    0.66826   0.78195    0.000
 4986.00    0.61115   0.78443    0.000
 4987.00    0.54534   0.78816    0.000
 4988.00    0.50974   0.79212    0.000
 4989.00    0.51082   0.79545    0.000
 4990.00    0.55035   0.79781    0.000
 4991.00    0.63102   0.79924    0.000
 4992.00    0.64720   0.79990    0.000
 4993.00    0.60250   0.80015    0.000
 4994.00    0.60982   0.80037    0.000
 4995.00    0.66045   0.80050    0.000
 4996.00    0.66791   0.80015    0.000
 4997.00    0.64373   0.79877    0.000
 4998.00    0.68384   0.79589    0.000
 4999.00    0.76533   0.79143    0.000
 5000.00    0.74625   0.78592    0.000
 5001.00    0.67055   0.78018    0.000
 5002.00    0.70466   0.77488    0.000
 5003.00    0.79256   0.77037    0.000
 5004.00    0.77969   0.76682    0.000
 5005.00    0.72415   0.76447    0.000
 5006.00    0.70685   0.76359    0.000
 5007.00    0.70341   0.76413    0.000
 5008.00    0.67747   0.76554    0.000
 5009.00    0.64463   0.76709    0.000
 5010.00    0.52963   0.76793    0.000
 5011.00    0.39366   0.76728    0.000
 5012.00    0.49671   0.76475    0.000
 5013.00    0.64942   0.76057    0.000
 5014.00    0.63930   0.75570    0.000
 5015.00    0.60253   0.75161    0.000
 5016.00    0.55583   0.74931    0.000
 5017.00    0.50790   0.74924    0.000
 5018.00    0.44099   0.75139    0.000
 5019.00    0.37248   0.75517    0.000
 5020.00    0.46191   0.75960    0.000
 5021.00    0.55905   0.76391    0.000
 5022.00    0.64459   0.76788    0.000
 5023.00    0.72803   0.77137    0.000
 5024.00    0.69505   0.77428    0.000
 5025.00    0.66473   0.77660    0.000
 5026.00    0.68796   0.77847    0.000
 5027.00    0.71406   0.78028    0.000
 5028.00    0.77375   0.78239    0.000
 5029.00    0.82025   0.78484    0.019
 5030.00    0.76016   0.78762    0.019
 5031.00    0.70298   0.79059    0.019
 5032.00    0.66339   0.79329    0.019
 5033.00    0.62470   0.79488    0.018
 5034.00    0.59032   0.79463    0.019
 5035.00    0.56106   0.79247    0.019
 5036.00    0.55179   0.78878    0.019
 5037.00    0.55489   0.78367    0.019
 5038.00    0.59814   0.77737    0.019
 5039.00    0.62579   0.77058    0.019
 5040.00    0.61065   0.76470    0.019
 5041.00    0.60369   0.76138    0.019
 5042.00    0.61601   0.76138    0.018
 5043.00    0.62739   0.76445    0.018
 5044.00    0.63690   0.76987    0.019
 5045.00    0.63683   0.77611    0.019
 5046.00    0.61984   0.78132    0.019
 5047.00    0.61687   0.78436    0.019
 5048.00    0.63559   0.78514    0.019
 5049.00    0.59866   0.78421    0.019
 5050.00    0.48606   0.78245    0.018
 5051.00    0.47323   0.78097    0.018
 5052.00    0.57980   0.78052    0.019
 5053.00    0.64756   0.78126    0.019
 5054.00    0.67437   0.78284    0.019
 5055.00    0.67021   0.78506    0.019
 5056.00    0.63723   0.78793    0.019
 5057.00    0.68344   0.79131    0.018
 5058.00    0.79464   0.79480    0.018
 5059.00    0.80660   0.79819    0.019
 5060.00    0.74687   0.80108    0.019
 5061.00    0.69484   0.80279    0.019
 5062.00    0.64769   0.80263    0.019
 5063.00    0.63515   0.80035    0.019
 5064.00    0.64181   0.79658    0.019
 5065.00    0.68824   0.79234    0.019
 5066.00    0.75384   0.78830    0.019
 5067.00    0.76135   0.78503    0.019
 5068.00    0.74467   0.78308    0.019
 5069.00    0.70291   0.78244    0.019
 5070.00    0.65223   0.78251    0.019
 5071.00    0.58577   0.78280    0.019
 5072.00    0.51457   0.78322    0.019
 5073.00    0.60150   0.78357    0.019
 5074.00    0.72793   0.78354    0.019
 5075.00    0.69119   0.78301    0.019
 5076.00    0.62138   0.78196    0.019
 5077.00    0.60509   0.77998    0.019
 5078.00    0.59730   0.77678    0.019
 5079.00    0.68869   0.77292    0.019
 5080.00    0.79181   0.76931    0.019
 5081.00    0.67951   0.76651    0.018
 5082.00    0.54989   0.76497    0.018
 5083.00    0.63797   0.76508    0.018
 5084.00    0.73584   0.76686    0.018
 5085.00    0.69295   0.76980    0.018
 5086.00    0.64864   0.77332    0.018
 5087.00    0.61690   0.77700    0.018
 5088.00    0.58865   0.78051    0.018
 5089.00    0.62533   0.78354    0.018
 5090.00    0.66045   0.78607    0.018
 5091.00    0.67829   0.78823    0.018
 5092.00    0.68909   0.78997    0.018
 5093.00    0.64500   0.79086    0.018
 5094.00    0.61093   0.79056    0.018
 5095.00    0.63583   0.78899    0.018
 5096.00    0.67294   0.78616    0.018
 5097.00    0.76704   0.78229    0.018
 5098.00    0.83006   0.77804    0.018
 5099.00    0.77464   0.77444    0.018
 5100.00    0.73203   0.77216    0.018
 5101.00    0.73017   0.77119    0.018
 5102.00    0.71572   0.77121    0.018
 5103.00    0.66729   0.77174    0.018
 5104.00    0.60650   0.77233    0.018
 5105.00    0.51714   0.77245    0.018
 5106.00    0.47413   0.77181    0.017
 5107.00    0.52386   0.77066    0.018
 5108.00    0.56514   0.76936    0.018
 5109.00    0.59171   0.76823    0.018
 5110.00    0.59434   0.76786    0.018
 5111.00    0.56044   0.76850    0.018
 5112.00    0.54424   0.77010    0.018
 5113.00    0.55175   0.77270    0.018
 5114.00    0.58812   0.77611    0.018
 5115.00    0.65853   0.77994    0.018
 5116.00    0.70941   0.78375    0.019
 5117.00    0.73996   0.78685    0.019
 5118.00    0.71538   0.78854    0.019
 5119.00    0.64021   0.78835    0.018
 5120.00    0.61537   0.78608    0.018
 5121.00    0.63124   0.78189    0.018
 5122.00    0.66014   0.77624    0.018
 5123.00    0.69831   0.77007    0.018
 5124.00    0.66030   0.76438    0.018
 5125.00    0.57472   0.75961    0.018
 5126.00    0.49049   0.75605    0.018
 5127.00    0.40699   0.75397    0.018
 5128.00    0.41921   0.75343    0.018
 5129.00    0.47684   0.75431    0.018
 5130.00    0.53374   0.75641    0.018
 5131.00    0.59034   0.75924    0.018
 5132.00    0.61684   0.76239    0.018
 5133.00    0.63281   0.76571    0.018
 5134.00    0.58324   0.76895    0.018
 5135.00    0.51435   0.77134    0.018
 5136.00    0.60856   0.77241    0.018
 5137.00    0.74261   0.77213    0.018
 5138.00    0.73224   0.77073    0.018
 5139.00    0.69333   0.76885    0.018
 5140.00    0.65205   0.76669    0.018
 5141.00    0.61040   0.76402    0.018
 5142.00    0.61506   0.76132    0.018
 5143.00    0.62498   0.75901    0.018
 5144.00    0.55540   0.75699    0.018
 5145.00    0.47974   0.75523    0.018
 5146.00    0.44541   0.75395    0.018
 5147.00    0.41279   0.75317    0.018
 5148.00    0.45877   0.75279    0.018
 5149.00    0.50619   0.75238    0.018
 5150.00    0.58687   0.75184    0.018
 5151.00    0.66213   0.75136    0.018
 5152.00    0.64343   0.75117    0.018
 5153.00    0.62464   0.75167    0.019
 5154.00    0.60494   0.75335    0.018
 5155.00    0.58058   0.75650    0.018
 5156.00    0.52107   0.76097    0.018
 5157.00    0.47612   0.76618    0.018
 5158.00    0.51462   0.77121    0.018
 5159.00    0.53880   0.77548    0.018
 5160.00    0.49778   0.77823    0.018
 5161.00    0.49303   0.77861    0.018
 5162.00    0.62361   0.77627    0.018
 5163.00    0.70527   0.77092    0.018
 5164.00    0.63433   0.76212    0.018
 5165.00    0.57323   0.74999    0.018
 5166.00    0.53823   0.73567    0.018
 5167.00    0.51485   0.72106    0.018
 5168.00    0.51789   0.70807    0.018
 5169.00    0.53191   0.69772    0.018
 5170.00    0.56755   0.68995    0.018
 5171.00    0.58742   0.68467    0.018
 5172.00    0.58023   0.68258    0.018
 5173.00    0.54059   0.68424    0.018
 5174.00    0.45219   0.68892    0.018
 5175.00    0.44689   0.69545    0.018
 5176.00    0.55137   0.70284    0.018
 5177.00    0.60713   0.71002    0.017
 5178.00    0.60621   0.71571    0.017
 5179.00    0.54256   0.71898    0.017
 5180.00    0.41454   0.71928    0.017
 5181.00    0.35704   0.71643    0.017
 5182.00    0.36336   0.71128    0.017
 5183.00    0.40509   0.70630    0.017
 5184.00    0.47506   0.70390    0.017
 5185.00    0.49685   0.70494    0.017
 5186.00    0.48484   0.70900    0.017
 5187.00    0.52346   0.71516    0.017
 5188.00    0.59323   0.72226    0.017
 5189.00    0.65220   0.72880    0.017
 5190.00    0.70538   0.73308    0.000
 5191.00    0.70691   0.73469    0.000
 5192.00    0.68433   0.73462    0.000
 5193.00    0.63916   0.73392    0.000
 5194.00    0.58492   0.73340    0.000
 5195.00    0.53905   0.73401    0.000
 5196.00    0.49606   0.73609    0.000
 5197.00    0.54686   0.73922    0.000
 5198.00    0.62475   0.74280    0.000
 5199.00    0.57979   0.74589    0.000
 5200.00    0.50548   0.74763    0.000
 5201.00    0.56176   0.74748    0.000
 5202.00    0.64318   0.74520    0.000
 5203.00    0.66731   0.74055    0.000
 5204.00    0.68287   0.73393    0.000
 5205.00    0.65817   0.72658    0.000
 5206.00    0.62907   0.71968    0.000
 5207.00    0.52392   0.71396    0.000
 5208.00    0.41328   0.71049    0.000
 5209.00    0.53173   0.71013    0.000
 5210.00    0.65872   0.71290    0.000
 5211.00    0.70543   0.71838    0.018
 5212.00    0.74807   0.72567    0.018
 5213.00    0.65656   0.73345    0.018
 5214.00    0.56997   0.74043    0.018
 5215.00    0.56329   0.74619    0.018
 5216.00    0.55959   0.75101    0.018
 5217.00    0.58634   0.75510    0.018
 5218.00    0.60432   0.75853    0.018
 5219.00    0.55843   0.76133    0.018
 5220.00    0.53205   0.76336    0.018
 5221.00    0.61432   0.76413    0.018
 5222.00    0.68651   0.76298    0.018
 5223.00    0.71386   0.75962    0.018
 5224.00    0.72619   0.75429    0.018
 5225.00    0.68360   0.74780    0.018
 5226.00    0.64852   0.74188    0.018
 5227.00    0.63647   0.73854    0.018
 5228.00    0.62286   0.73840    0.018
 5229.00    0.60518   0.74090    0.018
 5230.00    0.58295   0.74524    0.018
 5231.00    0.55053   0.75004    0.018
 5232.00    0.50920   0.75418    0.018
 5233.00    0.45057   0.75752    0.018
 5234.00    0.46550   0.76032    0.017
 5235.00    0.60474   0.76286    0.018
 5236.00    0.68564   0.76535    0.018
 5237.00    0.68014   0.76788    0.018
 5238.00    0.71036   0.77035    0.018
 5239.00    0.78707   0.77257    0.018
 5240.00    0.80517   0.77439    0.018
 5241.00    0.75604   0.77544    0.017
 5242.00    0.76295   0.77556    0.017
 5243.00    0.82655   0.77495    0.017
 5244.00    0.83047   0.77342    0.017
 5245.00    0.78116   0.77034    0.017
 5246.00    0.74091   0.76597    0.017
 5247.00    0.70779   0.76144    0.017
 5248.00    0.69021   0.75711    0.017
 5249.00    0.68338   0.75291    0.017
 5250.00    0.64158   0.74964    0.017
 5251.00    0.57860   0.74805    0.017
 5252.00    0.58551   0.74812    0.017
 5253.00    0.62943   0.74939    0.017
 5254.00    0.64535   0.75165    0.017
 5255.00    0.64841   0.75505    0.017
 5256.00    0.62982   0.75925    0.017
 5257.00    0.60267   0.76344    0.017
 5258.00    0.67252   0.76655    0.017
 5259.00    0.77505   0.76759    0.017
 5260.00    0.70177   0.76595    0.018
 5261.00    0.57872   0.76148    0.018
 5262.00    0.54612   0.75434    0.018
 5263.00    0.53464   0.74528    0.018
 5264.00    0.51113   0.73537    0.018
 5265.00    0.48537   0.72612    0.018
 5266.00    0.47557   0.71889    0.018
 5267.00    0.46808   0.71351    0.018
 5268.00    0.46224   0.70914    0.018
 5269.00    0.45657   0.70660    0.018
 5270.00    0.51337   0.70723    0.018
 5271.00    0.57442   0.71072    0.018
 5272.00    0.53454   0.71605    0.019
 5273.00    0.49127   0.72260    0.019
 5274.00    0.47783   0.72965    0.019
 5275.00    0.46999   0.73706    0.018
 5276.00    0.64071   0.74516    0.018
 5277.00    0.80280   0.75298    0.018
 5278.00    0.83342   0.75912    0.018
 5279.00    0.84368   0.76310    0.019
 5280.00    0.65541   0.76517    0.018
 5281.00    0.48484   0.76575    0.018
 5282.00    0.43895   0.76546    0.018
 5283.00    0.42015   0.76527    0.018
 5284.00    0.54823   0.76625    0.018
 5285.00    0.66479   0.76882    0.018
 5286.00    0.73129   0.77255    0.018
 5287.00    0.76617   0.77680    0.018
 5288.00    0.68792   0.78113    0.018
 5289.00    0.63873   0.78505    0.018
 5290.00    0.67683   0.78793    0.018
 5291.00    0.69060   0.78920    0.018
 5292.00    0.64216   0.78866    0.018
 5293.00    0.60304   0.78652    0.018
 5294.00    0.58445   0.78293    0.018
 5295.00    0.58162   0.77775    0.018
 5296.00    0.60888   0.77120    0.018
 5297.00    0.63333   0.76452    0.018
 5298.00    0.65307   0.75924    0.018
 5299.00    0.67086   0.75600    0.018
 5300.00    0.68578   0.75475    0.018
 5301.00    0.69303   0.75573    0.018
 5302.00    0.69045   0.75914    0.018
 5303.00    0.67955   0.76457    0.018
 5304.00    0.65927   0.77089    0.017
 5305.00    0.67803   0.77670    0.017
 5306.00    0.73574   0.78118    0.017
 5307.00    0.77155   0.78449    0.017
 5308.00    0.78809   0.78701    0.017
 5309.00    0.75448   0.78858    0.017
 5310.00    0.68199   0.78905    0.017
 5311.00    0.69905   0.78856    0.017
 5312.00    0.77713   0.78741    0.017
 5313.00    0.78496   0.78595    0.017
 5314.00    0.75085   0.78422    0.017
 5315.00    0.71310   0.78203    0.017
 5316.00    0.67346   0.77965    0.017
 5317.00    0.66429   0.77756    0.017
 5318.00    0.66889   0.77579    0.017
 5319.00    0.67015   0.77414    0.017
 5320.00    0.67011   0.77258    0.017
 5321.00    0.71878   0.77077    0.017
 5322.00    0.78357   0.76821    0.017
 5323.00    0.74154   0.76464    0.017
 5324.00    0.66990   0.76036    0.017
 5325.00    0.59108   0.75521    0.017
 5326.00    0.51063   0.74861    0.017
 5327.00    0.56705   0.74110    0.017
 5328.00    0.64844   0.73497    0.017
 5329.00    0.65039   0.73197    0.017
 5330.00    0.64119   0.73220    0.017
 5331.00    0.60829   0.73498    0.017
 5332.00    0.57299   0.73974    0.017
 5333.00    0.59429   0.74613    0.017
 5334.00    0.61922   0.75332    0.017
 5335.00    0.65154   0.75975    0.017
 5336.00    0.68408   0.76411    0.018
 5337.00    0.71535   0.76605    0.018
 5338.00    0.74335   0.76566    0.018
 5339.00    0.67811   0.76340    0.018
 5340.00    0.61658   0.76044    0.017
 5341.00    0.60833   0.75799    0.018
 5342.00    0.60539   0.75639    0.018
 5343.00    0.65219   0.75561    0.018
 5344.00    0.69349   0.75524    0.018
 5345.00    0.69728   0.75533    0.018
 5346.00    0.69402   0.75615    0.018
 5347.00    0.65352   0.75726    0.018
 5348.00    0.61640   0.75822    0.017
 5349.00    0.59365   0.75970    0.017
 5350.00    0.59063   0.76245    0.017
 5351.00    0.65677   0.76648    0.017
 5352.00    0.70886   0.77145    0.017
 5353.00    0.71954   0.77701    0.017
 5354.00    0.71426   0.78274    0.017
 5355.00    0.66891   0.78805    0.017
 5356.00    0.64299   0.79240    0.017
 5357.00    0.65917   0.79529    0.017
 5358.00    0.67460   0.79647    0.017
 5359.00    0.68864   0.79600    0.017
 5360.00    0.71957   0.79394    0.017
 5361.00    0.77819   0.79056    0.017
 5362.00    0.79660   0.78651    0.017
 5363.00    0.75717   0.78220    0.017
 5364.00    0.72603   0.77777    0.017
 5365.00    0.70538   0.77345    0.017
 5366.00    0.70125   0.76937    0.017
 5367.00    0.71556   0.76542    0.017
 5368.00    0.73859   0.76132   -2.000
 5369.00    0.77021   0.75679   -2.000
 5370.00    0.74681   0.75247   -2.000
 5371.00    0.67571   0.74987   -2.000
 5372.00    0.57130   0.74996   -2.000
 5373.00    0.44144   0.75245   -2.000
 5374.00    0.43647   0.75656   -2.000
 5375.00    0.51533   0.76155   -2.000
 5376.00    0.61326   0.76693   -2.000
 5377.00    0.72241   0.77236   -2.000
 5378.00    0.75231   0.77690   -2.000
 5379.00    0.74156   0.77954   -2.000
 5380.00    0.75842   0.78026   -2.000
 5381.00    0.78754   0.77976   -2.000
 5382.00    0.81870   0.77861   -2.000
 5383.00    0.85063   0.77736    0.017
 5384.00    0.81994   0.77621    0.017
 5385.00    0.76892   0.77498    0.017
 5386.00    0.72974   0.77361    0.017
 5387.00    0.69378   0.77207    0.017
 5388.00    0.64620   0.77001    0.017
 5389.00    0.59603   0.76730    0.017
 5390.00    0.64604   0.76419    0.017
 5391.00    0.71384   0.76088    0.017
 5392.00    0.68191   0.75753    0.017
 5393.00    0.63645   0.75423    0.017
 5394.00    0.68630   0.75106    0.017
 5395.00    0.74535   0.74786    0.017
 5396.00    0.74427   0.74493    0.017
 5397.00    0.73957   0.74333    0.018
 5398.00    0.71073   0.74325    0.018
 5399.00    0.68137   0.74382    0.018
 5400.00    0.66989   0.74452    0.018
 5401.00    0.65831   0.74522    0.018
 5402.00    0.64394   0.74534    0.018
 5403.00    0.63392   0.74406    0.017
 5404.00    0.68265   0.74092    0.017
 5405.00    0.72046   0.73664    0.017
 5406.00    0.66009   0.73274    0.017
 5407.00    0.60968   0.72980    0.017
 5408.00    0.62516   0.72745    0.017
 5409.00    0.64806   0.72606    0.017
 5410.00    0.70918   0.72690    0.017
 5411.00    0.73593   0.73041    0.017
 5412.00    0.61998   0.73569    0.017
 5413.00    0.55325   0.74156    0.017
 5414.00    0.65552   0.74760    0.017
 5415.00    0.72293   0.75404    0.017
 5416.00    0.68946   0.76057    0.017
 5417.00    0.67876   0.76608    0.017
 5418.00    0.72424   0.76977    0.016
 5419.00    0.77943   0.77169    0.016
 5420.00    0.85530   0.77251    0.017
 5421.00    0.87055   0.77277    0.017
 5422.00    0.77370   0.77218    0.016
 5423.00    0.69876   0.77062    0.016
 5424.00    0.65924   0.76897    0.016
 5425.00    0.65643   0.76785    0.016
 5426.00    0.70565   0.76696    0.016
 5427.00    0.74906   0.76516    0.016
 5428.00    0.78523   0.76148    0.016
 5429.00    0.75177   0.75702    0.016
 5430.00    0.64179   0.75327    0.016
 5431.00    0.60976   0.74974    0.016
 5432.00    0.65332   0.74591    0.017
 5433.00    0.66310   0.74237    0.017
 5434.00    0.64402   0.74027    0.017
 5435.00    0.63354   0.74063    0.017
 5436.00    0.62954   0.74334    0.017
 5437.00    0.63734   0.74763    0.017
 5438.00    0.65296   0.75320    0.017
 5439.00    0.68499   0.75967    0.017
 5440.00    0.72651   0.76613    0.017
 5441.00    0.70785   0.77155    0.017
 5442.00    0.65881   0.77508    0.017
 5443.00    0.67379   0.77597    0.017
 5444.00    0.71675   0.77355    0.017
 5445.00    0.70949   0.76792    0.017
 5446.00    0.68339   0.76042    0.017
 5447.00    0.70530   0.75299    0.017
 5448.00    0.74248   0.74654    0.017
 5449.00    0.71318   0.74106    0.017
 5450.00    0.66620   0.73650    0.017
 5451.00    0.70705   0.73297    0.017
 5452.00    0.76700   0.73039    0.017
 5453.00    0.69878   0.72820    0.017
 5454.00    0.60843   0.72561    0.017
 5455.00    0.61993   0.72319    0.017
 5456.00    0.64478   0.72203    0.017
 5457.00    0.63853   0.72241    0.017
 5458.00    0.62941   0.72373    0.017
 5459.00    0.70355   0.72541    0.017
 5460.00    0.78237   0.72722    0.017
 5461.00    0.75081   0.72911    0.017
 5462.00    0.71687   0.73059    0.017
 5463.00    0.69128   0.73152    0.017
 5464.00    0.66916   0.73208    0.017
 5465.00    0.72815   0.73244    0.016
 5466.00    0.78052   0.73304    0.016
 5467.00    0.74794   0.73403    0.016
 5468.00    0.70951   0.73496    0.016
 5469.00    0.62044   0.73539    0.016
 5470.00    0.54944   0.73517    0.016
 5471.00    0.59431   0.73417    0.016
 5472.00    0.63061   0.73238    0.016
 5473.00    0.62389   0.73006    0.016
 5474.00    0.63088   0.72742    0.016
 5475.00    0.69350   0.72446    0.016
 5476.00    0.72619   0.72180    0.017
 5477.00    0.65810   0.72042    0.016
 5478.00    0.60579   0.72039   -2.000
 5479.00    0.59828   0.72112   -2.000
 5480.00    0.67673   0.72197   -2.000
 5481.00    0.96385   0.72314   -2.000
 5482.00    1.07656   0.72541   -2.000
 5483.00    0.82388   0.72867   -2.000
 5484.00    0.59831   0.73185   -2.000
 5485.00    0.42211   0.73415   -2.000
 5486.00    0.13405   0.73562   -2.000
 5487.00   -0.33206   0.73694   -2.000
 5488.00   -0.46641   0.73824   -2.000
 5489.00   -0.13730   0.73905   -2.000
 5490.00    0.15906   0.73932   -2.000
 5491.00    0.41516   0.73934   -2.000
 5492.00    0.75358   0.73921   -2.000
 5493.00    1.18120   0.73919   -2.000
 5494.00    1.21768   0.73930   -2.000
 5495.00    0.88027   0.73901   -2.000
 5496.00    0.73947   0.73810   -2.000
 5497.00    0.76438   0.73700   -2.000
 5498.00    0.75729   0.73615   -2.000
 5499.00    0.72646   0.73532   -2.000
 5500.00    0.69718   0.73394   -2.000
 5501.00    0.66889   0.73211   -2.000
 5502.00    0.65745   0.73044    0.053
 5503.00    0.65562   0.72926    0.021
 5504.00    0.59684   0.72802    0.017
 5505.00    0.50975   0.72621    0.017
 5506.00    0.57193   0.72460    0.017
 5507.00    0.69826   0.72411    0.017
 5508.00    0.68533   0.72423    0.017
 5509.00    0.62111   0.72407    0.016
 5510.00    0.62312   0.72334    0.016
 5511.00    0.64579   0.72220    0.016
 5512.00    0.71292   0.72121    0.016
 5513.00    0.79162   0.72058    0.016
 5514.00    0.77981   0.72027    0.016
 5515.00    0.74879   0.72080    0.016
 5516.00    0.70768   0.72264    0.016
 5517.00    0.66488   0.72596    0.016
 5518.00    0.65433   0.73039    0.016
 5519.00    0.64787   0.73498    0.016
 5520.00    0.63091   0.73906    0.016
 5521.00    0.61302   0.74233    0.016
 5522.00    0.62553   0.74450    0.016
 5523.00    0.63962   0.74531    0.016
 5524.00    0.66463   0.74465    0.016
 5525.00    0.69010   0.74276    0.016
 5526.00    0.73461   0.74011    0.016
 5527.00    0.77626   0.73715    0.016
 5528.00    0.75660   0.73472    0.016
 5529.00    0.72797   0.73342    0.016
 5530.00    0.59000   0.73302    0.016
 5531.00    0.47540   0.73308    0.016
 5532.00    0.55560   0.73349    0.016
 5533.00    0.62378   0.73427    0.016
 5534.00    0.61725   0.73523    0.017
 5535.00    0.61837   0.73614    0.017
 5536.00    0.65684   0.73693    0.017
 5537.00    0.68280   0.73766    0.016
 5538.00    0.65905   0.73872    0.017
 5539.00    0.65209   0.74031    0.017
 5540.00    0.70052   0.74221    0.017
 5541.00    0.75239   0.74387    0.017
 5542.00    0.81386   0.74484    0.017
 5543.00    0.84812   0.74532    0.017
 5544.00    0.81741   0.74567    0.017
 5545.00    0.77894   0.74578    0.017
 5546.00    0.72448   0.74580    0.017
 5547.00    0.68112   0.74619    0.017
 5548.00    0.65768   0.74707    0.017
 5549.00    0.68305   0.74813    0.016
 5550.00    0.78497   0.74900    0.017
 5551.00    0.81135   0.74942    0.017
 5552.00    0.73374   0.74919    0.017
 5553.00    0.69832   0.74822    0.016
 5554.00    0.71403   0.74664    0.016
 5555.00    0.71251   0.74480    0.016
 5556.00    0.69258   0.74284    0.016
 5557.00    0.66346   0.74094    0.016
 5558.00    0.62569   0.73941    0.016
 5559.00    0.64360   0.73826    0.016
 5560.00    0.70776   0.73717    0.016
 5561.00    0.71126   0.73589    0.016
 5562.00    0.67038   0.73446    0.016
 5563.00    0.66854   0.73310    0.016
 5564.00    0.69177   0.73165    0.016
 5565.00    0.68164   0.72998    0.016
 5566.00    0.65276   0.72847    0.016
 5567.00    0.65650   0.72743    0.016
 5568.00    0.67618   0.72678    0.016
 5569.00    0.66720   0.72650    0.016
 5570.00    0.64611   0.72671    0.016
 5571.00    0.59486   0.72715    0.016
 5572.00    0.53270   0.72757    0.015
 5573.00    0.55287   0.72834    0.016
 5574.00    0.59822   0.72952    0.016
 5575.00    0.61297   0.73074    0.016
 5576.00    0.61993   0.73177    0.016
 5577.00    0.71304   0.73262    0.016
 5578.00    0.82400   0.73347    0.016
 5579.00    0.74690   0.73426    0.016
 5580.00    0.63913   0.73441    0.016
 5581.00    0.67074   0.73370    0.016
 5582.00    0.71938   0.73234    0.016
 5583.00    0.70071   0.73029    0.017
 5584.00    0.67638   0.72743    0.017
 5585.00    0.63283   0.72362    0.017
 5586.00    0.58835   0.71896    0.017
 5587.00    0.57472   0.71423    0.017
 5588.00    0.56265   0.71019    0.016
 5589.00    0.61555   0.70723    0.017
 5590.00    0.66385   0.70555    0.017
 5591.00    0.62105   0.70505    0.017
 5592.00    0.58067   0.70571    0.017
 5593.00    0.56839   0.70740    0.017
 5594.00    0.55691   0.70982    0.017
 5595.00    0.55180   0.71244    0.016
 5596.00    0.54938   0.71412    0.016
 5597.00    0.56319   0.71413    0.016
 5598.00    0.58110   0.71304    0.017
 5599.00    0.61852   0.71170    0.017
 5600.00    0.64281   0.71019    0.017
 5601.00    0.61608   0.70840    0.016
 5602.00    0.60941   0.70696    0.016
 5603.00    0.66763   0.70711    0.016
 5604.00    0.71154   0.70911    0.016
 5605.00    0.71623   0.71228    0.016
 5606.00    0.72249   0.71608    0.016
 5607.00    0.73246   0.72018    0.016
 5608.00    0.73152   0.72409    0.016
 5609.00    0.70844   0.72719    0.016
 5610.00    0.69064   0.72916    0.015
 5611.00    0.68219   0.73001    0.015
 5612.00    0.67957   0.72960    0.015
 5613.00    0.68597   0.72745    0.015
 5614.00    0.67869   0.72359    0.016
 5615.00    0.65286   0.71928    0.016
 5616.00    0.62250   0.71582    0.015
 5617.00    0.58672   0.71311    0.015
 5618.00    0.59126   0.71057    0.015
 5619.00    0.63827   0.70858    0.016
 5620.00    0.65385   0.70812    0.016
 5621.00    0.64023   0.70901    0.016
 5622.00    0.63883   0.70969    0.016
 5623.00    0.64744   0.70923    0.016
 5624.00    0.65836   0.70833    0.016
 5625.00    0.67097   0.70812    0.016
 5626.00    0.64981   0.70855    0.016
 5627.00    0.60729   0.70901    0.016
 5628.00    0.65423   0.70963    0.016
 5629.00    0.75067   0.71100    0.016
 5630.00    0.77770   0.71313    0.016
 5631.00    0.77134   0.71520    0.016
 5632.00    0.76900   0.71658    0.016
 5633.00    0.76833   0.71721    0.016
 5634.00    0.69351   0.71703    0.016
 5635.00    0.59235   0.71596    0.016
 5636.00    0.61566   0.71413    0.016
 5637.00    0.67630   0.71195    0.016
 5638.00    0.64278   0.70969    0.016
 5639.00    0.58580   0.70742    0.016
 5640.00    0.58713   0.70533    0.016
 5641.00    0.60023   0.70396    0.015
 5642.00    0.62858   0.70353    0.015
 5643.00    0.65935   0.70368    0.015
 5644.00    0.66654   0.70419    0.015
 5645.00    0.67096   0.70512    0.015
 5646.00    0.65806   0.70658    0.015
 5647.00    0.64377   0.70833    0.015
 5648.00    0.70738   0.71007    0.015
 5649.00    0.77447   0.71189    0.015
 5650.00    0.74446   0.71392    0.015
 5651.00    0.71284   0.71605    0.015
 5652.00    0.65637   0.71778    0.015
 5653.00    0.60288   0.71857    0.015
 5654.00    0.60452   0.71848    0.015
 5655.00    0.61325   0.71785    0.015
 5656.00    0.70058   0.71624    0.015
 5657.00    0.77320   0.71303    0.015
 5658.00    0.73169   0.70913    0.015
 5659.00    0.68836   0.70619    0.015
 5660.00    0.63430   0.70425    0.015
 5661.00    0.59349   0.70224    0.015
 5662.00    0.61440   0.70051    0.015
 5663.00    0.62853   0.70045    0.015
 5664.00    0.61685   0.70187    0.016
 5665.00    0.61090   0.70311    0.016
 5666.00    0.62309   0.70372    0.016
 5667.00    0.63619   0.70446    0.016
 5668.00    0.65175   0.70580    0.016
 5669.00    0.66100   0.70719    0.016
 5670.00    0.65570   0.70837    0.016
 5671.00    0.66454   0.70984    0.016
 5672.00    0.70162   0.71203    0.016
 5673.00    0.71742   0.71460    0.016
 5674.00    0.69620   0.71678    0.016
 5675.00    0.67700   0.71860    0.016
 5676.00    0.66085   0.72034    0.016
 5677.00    0.67487   0.72151    0.016
 5678.00    0.72924   0.72149    0.016
 5679.00    0.73738   0.72074    0.016
 5680.00    0.69106   0.71998    0.016
 5681.00    0.64969   0.71901    0.016
 5682.00    0.61346   0.71755    0.016
 5683.00    0.61461   0.71628    0.015
 5684.00    0.65001   0.71562    0.015
 5685.00    0.68170   0.71501    0.015
 5686.00    0.71039   0.71411    0.015
 5687.00    0.70702   0.71357    0.015
 5688.00    0.68087   0.71401    0.015
 5689.00    0.64085   0.71505    0.015
 5690.00    0.59219   0.71630    0.015
 5691.00    0.62983   0.71786    0.015
 5692.00    0.71450   0.71980    0.015
 5693.00    0.70550   0.72154    0.015
 5694.00    0.65214   0.72247    0.015
 5695.00    0.63925   0.72247    0.015
 5696.00    0.64288   0.72167    0.015
 5697.00    0.62933   0.71997    0.015
 5698.00    0.60979   0.71760    0.016
 5699.00    0.64852   0.71509    0.016
 5700.00    0.70439   0.71271    0.016
 5701.00    0.68872   0.71045    0.016
 5702.00    0.65563   0.70853    0.016
 5703.00    0.64580   0.70728    0.016
 5704.00    0.64055   0.70630    0.015
 5705.00    0.63718   0.70494    0.015
 5706.00    0.63409   0.70322    0.015
 5707.00    0.69337   0.70155    0.015
 5708.00    0.75972   0.69996    0.016
 5709.00    0.74879   0.69858    0.015
 5710.00    0.73201   0.69763    0.015
 5711.00    0.71023   0.69748    0.015
 5712.00    0.68824   0.69871    0.015
 5713.00    0.61565   0.70138    0.015
 5714.00    0.54532   0.70500    0.015
 5715.00    0.58472   0.70882    0.015
 5716.00    0.62376   0.71249    0.015
 5717.00    0.65654   0.71610    0.015
 5718.00    0.69273   0.71927    0.015
 5719.00    0.76491   0.72179    0.015
 5720.00    0.82037   0.72380    0.015
 5721.00    0.75058   0.72533    0.015
 5722.00    0.68740   0.72641    0.015
 5723.00    0.66198   0.72713    0.015
 5724.00    0.64192   0.72738    0.015
 5725.00    0.64625   0.72684    0.015
 5726.00    0.65475   0.72549    0.015
 5727.00    0.67877   0.72391    0.015
 5728.00    0.69972   0.72280    0.015
 5729.00    0.71114   0.72203    0.015
 5730.00    0.70597   0.72103    0.015
 5731.00    0.65696   0.72039    0.015
 5732.00    0.62408   0.72105    0.015
 5733.00    0.62779   0.72256    0.015
 5734.00    0.64296   0.72367    0.015
 5735.00    0.68062   0.72418    0.015
 5736.00    0.70149   0.72475    0.015
 5737.00    0.69361   0.72539    0.015
 5738.00    0.68160   0.72545    0.015
 5739.00    0.66339   0.72503    0.015
 5740.00    0.64731   0.72467    0.000
 5741.00    0.63405   0.72463    0.000
 5742.00    0.63262   0.72465    0.000
 5743.00    0.64493   0.72487    0.000
 5744.00    0.61615   0.72569    0.000
 5745.00    0.54528   0.72685    0.000
 5746.00    0.55967   0.72749    0.000
 5747.00    0.65107   0.72722    0.000
 5748.00    0.71357   0.72699    0.000
 5749.00    0.75306   0.72713    0.000
 5750.00    0.75112   0.72698    0.000
 5751.00    0.72018   0.72595    0.000
 5752.00    0.68819   0.72451    0.000
 5753.00    0.65555   0.72369    0.000
 5754.00    0.65544   0.72367    0.000
 5755.00    0.67280   0.72396    0.000
 5756.00    0.67590   0.72411    0.000
 5757.00    0.67236   0.72412    0.000
 5758.00    0.71251   0.72403    0.000
 5759.00    0.77021   0.72363    0.000
 5760.00    0.75945   0.72251    0.000
 5761.00    0.72524   0.72053    0.000
 5762.00    0.69609   0.71840    0.000
 5763.00    0.66838   0.71698    0.000
 5764.00    0.68476   0.71658    0.000
 5765.00    0.71163   0.71703    0.000
 5766.00    0.75202   0.71820    0.000
 5767.00    0.79500   0.72012    0.000
 5768.00    0.74688   0.72240    0.000
 5769.00    0.68519   0.72409    0.000
 5770.00    0.63431   0.72486    0.000
 5771.00    0.58461   0.72501    0.000
 5772.00    0.63596   0.72474    0.000
 5773.00    0.69455   0.72412    0.000
 5774.00    0.66041   0.72329    0.000
 5775.00    0.62286   0.72232    0.000
 5776.00    0.64517   0.72116    0.000
 5777.00    0.66821   0.71981    0.000
 5778.00    0.70841   0.71798    0.000
 5779.00    0.74229   0.71531    0.000
 5780.00    0.67470   0.71172    0.000
 5781.00    0.61290   0.70777    0.000
 5782.00    0.60965   0.70421    0.000
 5783.00    0.60831   0.70103    0.000
 5784.00    0.62075   0.69809    0.000
 5785.00    0.63789   0.69626    0.000
 5786.00    0.68122   0.69655    0.000
 5787.00    0.70356   0.69844    0.000
 5788.00    0.63288   0.70084    0.000
 5789.00    0.57730   0.70347    0.000
 5790.00    0.57676   0.70660    0.000
 5791.00    0.58042   0.71019   -2.000
 5792.00    0.59690   0.71376   -2.000
 5793.00    0.62406   0.71705   -2.000
 5794.00    0.67892   0.71995   -2.000
 5795.00    0.69346   0.72254   -2.000
 5796.00    0.61797   0.72484   -2.000
 5797.00    0.60955   0.72664   -2.000
 5798.00    0.73084   0.72837   -2.000
 5799.00    0.77573   0.73027   -2.000
 5800.00    0.69173   0.73185   -2.000
 5801.00    0.65907   0.73300   -2.000
 5802.00    0.70233   0.73415   -2.000
 5803.00    0.71426   0.73519   -2.000
 5804.00    0.68546   0.73552   -2.000
 5805.00    0.68633   0.73518   -2.000
 5806.00    0.72117   0.73455   -2.000
 5807.00    0.74681   0.73357   -2.000
 5808.00    0.76315   0.73231   -2.000
 5809.00    0.72250   0.73123   -2.000
 5810.00    0.63108   0.73024   -2.000
 5811.00    0.58662   0.72896    0.000
 5812.00    0.57900   0.72736    0.000
 5813.00    0.57976   0.72557    0.000
 5814.00    0.58631   0.72354    0.000
 5815.00    0.60975   0.72139    0.000
 5816.00    0.64342   0.71970    0.000
 5817.00    0.67245   0.71892    0.000
 5818.00    0.69903   0.71881    0.000
 5819.00    0.67265   0.71904    0.000
 5820.00    0.62200   0.71985    0.000
 5821.00    0.62445   0.72120    0.000
 5822.00    0.64785   0.72249    0.000
 5823.00    0.70702   0.72336    0.000
 5824.00    0.77821   0.72412    0.000
 5825.00    0.79914   0.72488    0.000
 5826.00    0.80589   0.72540    0.000
 5827.00    0.76545   0.72585    0.000
 5828.00    0.71403   0.72652    0.000
 5829.00    0.71085   0.72728    0.000
 5830.00    0.71668   0.72772    0.000
 5831.00    0.73531   0.72789    0.000
 5832.00    0.75579   0.72790    0.000
 5833.00    0.72421   0.72749    0.000
 5834.00    0.68719   0.72664    0.000
 5835.00    0.65271   0.72588    0.000
 5836.00    0.61840   0.72542    0.000
 5837.00    0.62849   0.72477    0.000
 5838.00    0.64006   0.72407    0.000
 5839.00    0.67424   0.72408    0.000
 5840.00    0.70734   0.72488    0.000
 5841.00    0.70557   0.72559    0.000
 5842.00    0.70648   0.72585    0.000
 5843.00    0.74794   0.72598    0.000
 5844.00    0.78261   0.72586    0.000
 5845.00    0.75143   0.72489    0.000
 5846.00    0.72017   0.72283    0.000
 5847.00    0.68827   0.71992    0.000
 5848.00    0.66506   0.71655    0.000
 5849.00    0.68881   0.71294    0.000
 5850.00    0.70816   0.70915    0.000
 5851.00    0.70844   0.70517    0.000
 5852.00    0.70736   0.70125    0.000
 5853.00    0.70144   0.69780    0.000
 5854.00    0.69074   0.69503    0.000
 5855.00    0.66569   0.69257    0.000
 5856.00    0.63092   0.69008    0.000
 5857.00    0.57135   0.68804    0.000
 5858.00    0.53557   0.68723    0.000
 5859.00    0.55199   0.68737    0.000
 5860.00    0.58580   0.68763    0.000
 5861.00    0.65272   0.68782    0.000
 5862.00    0.70663   0.68835    0.000
 5863.00    0.73895   0.68943    0.000
 5864.00    0.75541   0.69055    0.000
 5865.00    0.74875   0.69107    0.000
 5866.00    0.72289   0.69106    0.000
 5867.00    0.67246   0.69131    0.000
 5868.00    0.62405   0.69204    0.000
 5869.00    0.57794   0.69245    0.000
 5870.00    0.57593   0.69199    0.000
 5871.00    0.61782   0.69091    0.000
 5872.00    0.65186   0.68938    0.000
 5873.00    0.67901   0.68692    0.000
 5874.00    0.70130   0.68310    0.000
 5875.00    0.71983   0.67873    0.000
 5876.00    0.71275   0.67507    0.000
 5877.00    0.68824   0.67276    0.000
 5878.00    0.65740   0.67102    0.000
 5879.00    0.62280   0.66982    0.000
 5880.00    0.62616   0.67003    0.000
 5881.00    0.64926   0.67153    0.000
 5882.00    0.64851   0.67279    0.000
 5883.00    0.63703   0.67239    0.000
 5884.00    0.62702   0.67063    0.000
 5885.00    0.61759   0.66748    0.000
 5886.00    0.62242   0.66247    0.000
 5887.00    0.63194   0.65487    0.000
 5888.00    0.61809   0.64458    0.000
 5889.00    0.59779   0.63295    0.000
 5890.00    0.62435   0.62246    0.000
 5891.00    0.66157   0.61439    0.000
 5892.00    0.65523   0.60810    0.000
 5893.00    0.64097   0.60371    0.000
 5894.00    0.63856   0.60206    0.000
 5895.00    0.63780   0.60305    0.000
 5896.00    0.62566   0.60618    0.000
 5897.00    0.61238   0.61093    0.000
 5898.00    0.58292   0.61621    0.000
 5899.00    0.55244   0.62169    0.000
 5900.00    0.56152   0.62878    0.000
 5901.00    0.57173   0.63731    0.013
 5902.00    0.57212   0.64520    0.013
 5903.00    0.57341   0.65161    0.013
 5904.00    0.59998   0.65714    0.013
 5905.00    0.62706   0.66173    0.013
 5906.00    0.66132   0.66516    0.013
 5907.00    0.69236   0.66772    0.013
 5908.00    0.69346   0.66953    0.014
 5909.00    0.69091   0.67057    0.014
 5910.00    0.66356   0.67130    0.014
 5911.00    0.64303   0.67190    0.014
 5912.00    0.65837   0.67186    0.014
 5913.00    0.66637   0.67103    0.014
 5914.00    0.64330   0.67005    0.014
 5915.00    0.62281   0.66933    0.014
 5916.00    0.61136   0.66871    0.014
 5917.00    0.59886   0.66821    0.014
 5918.00    0.58326   0.66812    0.013
 5919.00    0.58031   0.66868    0.013
 5920.00    0.60910   0.66961    0.013
 5921.00    0.63909   0.67048    0.013
 5922.00    0.67168   0.67119    0.013
 5923.00    0.68529   0.67194    0.013
 5924.00    0.66333   0.67266    0.013
 5925.00    0.64622   0.67307    0.013
 5926.00    0.63707   0.67329    0.013
 5927.00    0.63152   0.67347    0.013
 5928.00    0.63116   0.67347    0.013
 5929.00    0.61826   0.67320    0.013
 5930.00    0.58950   0.67300    0.013
 5931.00    0.57048   0.67314    0.013
 5932.00    0.56228   0.67337    0.013
 5933.00    0.59278   0.67342    0.013
 5934.00    0.66126   0.67367    0.013
 5935.00    0.69332   0.67450    0.013
 5936.00    0.69384   0.67547    0.013
 5937.00    0.70027   0.67600    0.013
 5938.00    0.71119   0.67642    0.013
 5939.00    0.70646   0.67698    0.013
 5940.00    0.69125   0.67721    0.013
 5941.00    0.67422   0.67710    0.013
 5942.00    0.65613   0.67726    0.013
 5943.00    0.62394   0.67757    0.013
 5944.00    0.58453   0.67769    0.013
 5945.00    0.57253   0.67798    0.013
 5946.00    0.57268   0.67863    0.013
 5947.00    0.59914   0.67883    0.013
 5948.00    0.63562   0.67819    0.013
 5949.00    0.64684   0.67734    0.013
 5950.00    0.64989   0.67656    0.013
 5951.00    0.63410   0.67518    0.013
 5952.00    0.61319   0.67320    0.013
 5953.00    0.61801   0.67178    0.013
 5954.00    0.62854   0.67120    0.013
 5955.00    0.65464   0.67045    0.013
 5956.00    0.68348   0.66941    0.013
 5957.00    0.67780   0.66920    0.013
 5958.00    0.66745   0.67004    0.014
 5959.00    0.64784   0.67114    0.013
 5960.00    0.62735   0.67235    0.013
 5961.00    0.65799   0.67408    0.013
 5962.00    0.69167   0.67619    0.013
 5963.00    0.72988   0.67822    0.013
 5964.00    0.76786   0.67984    0.013
 5965.00    0.75394   0.68104    0.013
 5966.00    0.74052   0.68215    0.013
 5967.00    0.74001   0.68332    0.013
 5968.00    0.73981   0.68433    0.013
 5969.00    0.74377   0.68517    0.013
 5970.00    0.74776   0.68608    0.013
 5971.00    0.75202   0.68678    0.013
 5972.00    0.75488   0.68687    0.013
 5973.00    0.74851   0.68635    0.013
 5974.00    0.73534   0.68522    0.013
 5975.00    0.68734   0.68344    0.013
 5976.00    0.64818   0.68128    0.013
 5977.00    0.64563   0.67904    0.013
 5978.00    0.65218   0.67693    0.013
 5979.00    0.68992   0.67524    0.013
 5980.00    0.71856   0.67417    0.013
 5981.00    0.72093   0.67358    0.013
 5982.00    0.71061   0.67321    0.013
 5983.00    0.66904   0.67299    0.013
 5984.00    0.63358   0.67312    0.013
 5985.00    0.61107   0.67381    0.013
 5986.00    0.59225   0.67470    0.013
 5987.00    0.58021   0.67549    0.013
 5988.00    0.58356   0.67681    0.013
 5989.00    0.61174   0.67904    0.013
 5990.00    0.64081   0.68129    0.013
 5991.00    0.67113   0.68303    0.013
 5992.00    0.68871   0.68489    0.013
 5993.00    0.69043   0.68696    0.013
 5994.00    0.67434   0.68841    0.013
 5995.00    0.63871   0.68897    0.013
 5996.00    0.61462   0.68909    0.013
 5997.00    0.60172   0.68881    0.013
 5998.00    0.60977   0.68784    0.013
 5999.00    0.63571   0.68641    0.013
 6000.00    0.65039   0.68496    0.013
 6001.00    0.65661   0.68351    0.013
 6002.00    0.64430   0.68201    0.013
 6003.00    0.61977   0.68087    0.013
 6004.00    0.62827   0.68014    0.013
 6005.00    0.65588   0.67931    0.013
 6006.00    0.67889   0.67827    0.013
 6007.00    0.69957   0.67748    0.013
 6008.00    0.68172   0.67711    0.013
 6009.00    0.64706   0.67712    0.013
 6010.00    0.63233   0.67736    0.013
 6011.00    0.62505   0.67753    0.013
 6012.00    0.62299   0.67769    0.013
 6013.00    0.62259   0.67824    0.013
 6014.00    0.63217   0.67892    0.013
 6015.00    0.64439   0.67894    0.013
 6016.00    0.65067   0.67835    0.013
 6017.00    0.65567   0.67813    0.013
 6018.00    0.65030   0.67838    0.013
 6019.00    0.64315   0.67834    0.013
 6020.00    0.62725   0.67819    0.013
 6021.00    0.61021   0.67876    0.013
 6022.00    0.60234   0.67983    0.013
 6023.00    0.59531   0.68090    0.013
 6024.00    0.61313   0.68230    0.013
 6025.00    0.63233   0.68429    0.013
 6026.00    0.65658   0.68630    0.013
 6027.00    0.68073   0.68813    0.013
 6028.00    0.68385   0.69023    0.013
 6029.00    0.68616   0.69236    0.013
 6030.00    0.66937   0.69390    0.013
 6031.00    0.65414   0.69514    0.013
 6032.00    0.65890   0.69655    0.013
 6033.00    0.66448   0.69783    0.013
 6034.00    0.67702   0.69858    0.013
 6035.00    0.69129   0.69909    0.013
 6036.00    0.71654   0.69964    0.013
 6037.00    0.73245   0.70010    0.013
 6038.00    0.70167   0.70026    0.013
 6039.00    0.67798   0.70025    0.013
 6040.00    0.68295   0.70042    0.013
 6041.00    0.68738   0.70091    0.013
 6042.00    0.68998   0.70163    0.013
 6043.00    0.68907   0.70264    0.013
 6044.00    0.67824   0.70393    0.013
 6045.00    0.67601   0.70531    0.013
 6046.00    0.69462   0.70671    0.013
 6047.00    0.70498   0.70794    0.013
 6048.00    0.69808   0.70865    0.013
 6049.00    0.68831   0.70895    0.013
 6050.00    0.67333   0.70901    0.013
 6051.00    0.65683   0.70852    0.013
 6052.00    0.63792   0.70736    0.013
 6053.00    0.62991   0.70598    0.013
 6054.00    0.63706   0.70458    0.013
 6055.00    0.64805   0.70292    0.013
 6056.00    0.66374   0.70115    0.013
 6057.00    0.67394   0.69967    0.013
 6058.00    0.67821   0.69867    0.013
 6059.00    0.69232   0.69797    0.013
 6060.00    0.71580   0.69733    0.013
 6061.00    0.73498   0.69667    0.013
 6062.00    0.75054   0.69611    0.013
 6063.00    0.74168   0.69562    0.013
 6064.00    0.71473   0.69493    0.013
 6065.00    0.70817   0.69443    0.013
 6066.00    0.71487   0.69504    0.013
 6067.00    0.72986   0.69665    0.013
 6068.00    0.74958   0.69860    0.013
 6069.00    0.76454   0.70119    0.013
 6070.00    0.77714   0.70462    0.013
 6071.00    0.78378   0.70788    0.013
 6072.00    0.78786   0.71020    0.013
 6073.00    0.76193   0.71176    0.013
 6074.00    0.72498   0.71262    0.013
 6075.00    0.68759   0.71251    0.013
 6076.00    0.65006   0.71143    0.013
 6077.00    0.65806   0.70948    0.013
 6078.00    0.67786   0.70692    0.013
 6079.00    0.68964   0.70430    0.013
 6080.00    0.69972   0.70167    0.013
 6081.00    0.70054   0.69876    0.012
 6082.00    0.69981   0.69632    0.012
 6083.00    0.68124   0.69509    0.012
 6084.00    0.66042   0.69431    0.013
 6085.00    0.64003   0.69341    0.013
 6086.00    0.61968   0.69319    0.013
 6087.00    0.64169   0.69376    0.013
 6088.00    0.66589   0.69398    0.013
 6089.00    0.65700   0.69355    0.012
 6090.00    0.64738   0.69338    0.012
 6091.00    0.62799   0.69378    0.012
 6092.00    0.61032   0.69399    0.012
 6093.00    0.62905   0.69405    0.012
 6094.00    0.64622   0.69500    0.013
 6095.00    0.64453   0.69664    0.013
 6096.00    0.64334   0.69781    0.013
 6097.00    0.64635   0.69855    0.013
 6098.00    0.65191   0.69928    0.013
 6099.00    0.67331   0.69944    0.013
 6100.00    0.68525   0.69856    0.013
 6101.00    0.65110   0.69666    0.013
 6102.00    0.62977   0.69425    0.013
 6103.00    0.65918   0.69243    0.013
 6104.00    0.67897   0.69143    0.013
 6105.00    0.66711   0.69053    0.013
 6106.00    0.65887   0.69021    0.013
 6107.00    0.66069   0.69145    0.013
 6108.00    0.65944   0.69364    0.013
 6109.00    0.65086   0.69573    0.012
 6110.00    0.64918   0.69739    0.012
 6111.00    0.66172   0.69888    0.012
 6112.00    0.67012   0.70060    0.012
 6113.00    0.67110   0.70219    0.012
 6114.00    0.66415   0.70291    0.012
 6115.00    0.64477   0.70285    0.012
 6116.00    0.63695   0.70249    0.012
 6117.00    0.64502   0.70166    0.012
 6118.00    0.64550   0.69969    0.012
 6119.00    0.63679   0.69664    0.012
 6120.00    0.62613   0.69341    0.013
 6121.00    0.61339   0.69029    0.012
 6122.00    0.60645   0.68746    0.012
 6123.00    0.60497   0.68576    0.012
 6124.00    0.59931   0.68515    0.013
 6125.00    0.59016   0.68510    0.013
 6126.00    0.60742   0.68627    0.013
 6127.00    0.64395   0.68851    0.013
 6128.00    0.66901   0.69042    0.013
 6129.00    0.68672   0.69205    0.013
 6130.00    0.67478   0.69377    0.013
 6131.00    0.64621   0.69472    0.012
 6132.00    0.64563   0.69440    0.012
 6133.00    0.65871   0.69319    0.012
 6134.00    0.66773   0.69095    0.013
 6135.00    0.67503   0.68750    0.013
 6136.00    0.65674   0.68341    0.013
 6137.00    0.62922   0.67978    0.013
 6138.00    0.60473   0.67781    0.013
 6139.00    0.58116   0.67753    0.013
 6140.00    0.58523   0.67820    0.013
 6141.00    0.59631   0.68035    0.013
 6142.00    0.62038   0.68453    0.013
 6143.00    0.64714   0.68917    0.013
 6144.00    0.63596   0.69246    0.012
 6145.00    0.61862   0.69470    0.012
 6146.00    0.63930   0.69664    0.012
 6147.00    0.66459   0.69747    0.012
 6148.00    0.69437   0.69633    0.012
 6149.00    0.72452   0.69385    0.013
 6150.00    0.67330   0.69130    0.013
 6151.00    0.61819   0.68882    0.013
 6152.00    0.57187   0.68615    0.012
 6153.00    0.52683   0.68341    0.012
 6154.00    0.54834   0.68086    0.012
 6155.00    0.57023   0.67839    0.013
 6156.00    0.59969   0.67532    0.013
 6157.00    0.62413   0.67068    0.013
 6158.00    0.59060   0.66476    0.013
 6159.00    0.56252   0.65839    0.013
 6160.00    0.57796   0.65114    0.013
 6161.00    0.59527   0.64294    0.013
 6162.00    0.62381   0.63541    0.013
 6163.00    0.64636   0.62984    0.013
 6164.00    0.64046   0.62561    0.013
 6165.00    0.63375   0.62252    0.012
 6166.00    0.62389   0.62167    0.013
 6167.00    0.61621   0.62295    0.013
 6168.00    0.61561   0.62439    0.012
 6169.00    0.61721   0.62533    0.012
 6170.00    0.62481   0.62723    0.012
 6171.00    0.62335   0.62990    0.012
 6172.00    0.60066   0.63154    0.012
 6173.00    0.58528   0.63279    0.012
 6174.00    0.58472   0.63522    0.012
 6175.00    0.59047   0.63792    0.012
 6176.00    0.60736   0.63961    0.012
 6177.00    0.61639   0.64133    0.012
 6178.00    0.61332   0.64368    0.012
 6179.00    0.61148   0.64563    0.012
 6180.00    0.61132   0.64694    0.012
 6181.00    0.62498   0.64829    0.012
 6182.00    0.65513   0.64914    0.012
 6183.00    0.67579   0.64878    0.012
 6184.00    0.68647   0.64774    0.013
 6185.00    0.68162   0.64603    0.013
 6186.00    0.66238   0.64299    0.013
 6187.00    0.63933   0.63908    0.013
 6188.00    0.61319   0.63525    0.013
 6189.00    0.59427   0.63140    0.013
 6190.00    0.58053   0.62742    0.013
 6191.00    0.57049   0.62431    0.013
 6192.00    0.56278   0.62297    0.012
 6193.00    0.57549   0.62286    0.012
 6194.00    0.59950   0.62319    0.013
 6195.00    0.58620   0.62460    0.013
 6196.00    0.55500   0.62729   -2.000
 6197.00    0.32958   0.62995   -2.000
 6198.00    0.02365   0.63183   -2.000
 6199.00   -0.14596   0.63340   -2.000
 6200.00   -0.26724   0.63508   -2.000
 6201.00   -0.13042   0.63662   -2.000
 6202.00    0.08364   0.63780   -2.000
 6203.00    0.37118   0.63898   -2.000
 6204.00    0.67698   0.64058   -2.000
 6205.00    0.79923   0.64224   -2.000
 6206.00    0.88452   0.64347   -2.000
 6207.00    0.78395   0.64405   -2.000
 6208.00    0.65407   0.64406    0.013
 6209.00    0.61780   0.64324    0.013
 6210.00    0.59251   0.64131    0.013
 6211.00    0.60458   0.63845    0.013
 6212.00    0.61960   0.63480    0.013
 6213.00    0.62420   0.63040    0.013
 6214.00    0.62834   0.62582    0.013
 6215.00    0.60796   0.62160    0.012
 6216.00    0.58752   0.61782    0.012
 6217.00    0.57725   0.61492    0.012
 6218.00    0.56812   0.61297    0.012
 6219.00    0.57999   0.61165    0.012
 6220.00    0.59117   0.61116    0.012
 6221.00    0.59484   0.61126    0.012
 6222.00    0.59972   0.61121    0.012
 6223.00    0.61402   0.61095    0.012
 6224.00    0.62782   0.61092    0.012
 6225.00    0.63872   0.61092    0.012
 6226.00    0.64489   0.61032    0.012
 6227.00    0.62914   0.60933    0.012
 6228.00    0.61649   0.60854    0.012
 6229.00    0.61559   0.60750    0.012
 6230.00    0.61412   0.60616    0.013
 6231.00    0.61083   0.60552    0.012
 6232.00    0.60496   0.60559    0.012
 6233.00    0.59215   0.60585    0.012
 6234.00    0.57797   0.60700    0.012
 6235.00    0.56065   0.60891    0.012
 6236.00    0.55002   0.61045    0.012
 6237.00    0.55276   0.61159    0.012
 6238.00    0.55198   0.61213    0.012
 6239.00    0.54512   0.61139    0.012
 6240.00    0.53419   0.61006    0.012
 6241.00    0.51707   0.60879    0.012
 6242.00    0.52109   0.60698    0.012
 6243.00    0.55333   0.60528    0.012
 6244.00    0.58098   0.60517    0.012
 6245.00    0.60324   0.60576    0.012
 6246.00    0.59302   0.60627    0.012
 6247.00    0.54910   0.60794    0.012
 6248.00    0.51894   0.61029    0.012
 6249.00    0.50135   0.61194    0.012
 6250.00    0.52727   0.61326    0.012
 6251.00    0.58828   0.61413    0.012
 6252.00    0.62941   0.61380    0.012
 6253.00    0.65644   0.61271    0.012
 6254.00    0.63364   0.61117    0.012
 6255.00    0.57983   0.60909    0.012
 6256.00    0.54654   0.60711    0.012
 6257.00    0.52442   0.60552    0.012
 6258.00    0.53193   0.60459    0.013
 6259.00    0.55344   0.60491    0.013
 6260.00    0.51514   0.60615    0.014
 6261.00    0.45247   0.60781    0.015
 6262.00    0.40887   0.61082    0.015
 6263.00    0.37190   0.61485    0.016
 6264.00    0.43417   0.61788    0.016
 6265.00    0.52555   0.62025    0.015
 6266.00    0.65030   0.62303    0.015
 6267.00    0.78316   0.62501    0.014
 6268.00    0.77393   0.62554    0.013
 6269.00    0.73681   0.62615    0.013
 6270.00    0.67115   0.62721    0.013
 6271.00    0.60113   0.62781    0.012
 6272.00    0.59049   0.62815    0.012
 6273.00    0.58656   0.62885    0.012
 6274.00    0.58866   0.62961    0.012
 6275.00    0.59121   0.63014    0.012
 6276.00    0.60135   0.63041    0.012
 6277.00    0.61179   0.63047    0.012
 6278.00    0.63054   0.63060    0.012
 6279.00    0.64858   0.63064    0.012
 6280.00    0.63508   0.63058    0.000
 6281.00    0.62094   0.63091    0.000
 6282.00    0.59575   0.63175    0.000
 6283.00    0.57340   0.63286    0.000
 6284.00    0.58099   0.63443    0.000
 6285.00    0.59190   0.63652    0.000
 6286.00    0.62754   0.63892    0.000
 6287.00    0.65536   0.64133    0.000
 6288.00    0.63872   0.64319    0.000
 6289.00    0.62412   0.64455    0.000
 6290.00    0.61872   0.64550    0.000
 6291.00    0.62390   0.64559    0.000
 6292.00    0.66827   0.64466    0.000
 6293.00    0.70553   0.64315    0.000
 6294.00    0.72068   0.64150    0.000
 6295.00    0.72813   0.63950    0.000
 6296.00    0.71530   0.63727    0.000
 6297.00    0.69944   0.63568    0.000
 6298.00    0.67676   0.63470    0.000
 6299.00    0.65079   0.63382    0.000
 6300.00    0.61838   0.63344    0.000
 6301.00    0.59919   0.63378    0.000
 6302.00    0.60263   0.63466    0.000
 6303.00    0.62212   0.63603    0.000
 6304.00    0.66563   0.63746    0.000
 6305.00    0.67489   0.63901    0.000
 6306.00    0.63906   0.64128    0.000
 6307.00    0.61884   0.64383    0.000
 6308.00    0.61673   0.64574    0.000
 6309.00    0.62297   0.64733    0.000
 6310.00    0.63775   0.64890    0.000
 6311.00    0.66339   0.64957    0.000
 6312.00    0.69881   0.64950    0.000
 6313.00    0.71155   0.64911    0.000
 6314.00    0.70627   0.64788    0.000
 6315.00    0.67923   0.64656    0.000
 6316.00    0.63698   0.64602    0.000
 6317.00    0.63399   0.64516    0.000
 6318.00    0.65508   0.64401    0.000
 6319.00    0.65666   0.64433    0.000
 6320.00    0.64779   0.64541    0.000
 6321.00    0.63121   0.64587    0.012
 6322.00    0.61106   0.64711    0.012
 6323.00    0.60619   0.64949    0.012
 6324.00    0.60745   0.65152    0.012
 6325.00    0.61000   0.65316    0.012
 6326.00    0.61298   0.65508    0.012
 6327.00    0.59733   0.65701    0.012
 6328.00    0.57633   0.65853    0.012
 6329.00    0.61679   0.65979    0.012
 6330.00    0.67185   0.66061    0.012
 6331.00    0.71679   0.66117    0.012
 6332.00    0.75979   0.66154    0.012
 6333.00    0.78415   0.66123    0.012
 6334.00    0.80574   0.66045    0.012
 6335.00    0.78972   0.65945    0.012
 6336.00    0.76961   0.65859    0.012
 6337.00    0.73090   0.65802    0.012
 6338.00    0.69087   0.65712    0.012
 6339.00    0.70188   0.65653    0.012
 6340.00    0.71476   0.65701    0.012
 6341.00    0.73339   0.65744    0.012
 6342.00    0.75113   0.65702    0.012
 6343.00    0.73652   0.65652    0.012
 6344.00    0.72127   0.65606    0.012
 6345.00    0.69569   0.65527    0.012
 6346.00    0.67056   0.65441    0.012
 6347.00    0.64997   0.65403    0.012
 6348.00    0.63067   0.65452    0.012
 6349.00    0.62062   0.65546    0.012
 6350.00    0.61482   0.65642    0.012
 6351.00    0.63248   0.65722    0.012
 6352.00    0.64671   0.65792    0.012
 6353.00    0.64578   0.65762    0.012
 6354.00    0.64375   0.65601    0.012
 6355.00    0.63775   0.65380    0.012
 6356.00    0.63056   0.65123    0.012
 6357.00    0.61976   0.64775    0.012
 6358.00    0.61182   0.64372    0.012
 6359.00    0.61131   0.64054    0.012
 6360.00    0.61350   0.63794    0.012
 6361.00    0.62172   0.63527    0.012
 6362.00    0.62265   0.63364    0.012
 6363.00    0.60951   0.63380    0.012
 6364.00    0.60093   0.63500    0.012
 6365.00    0.60002   0.63695    0.012
 6366.00    0.60463   0.63998    0.012
 6367.00    0.61739   0.64398    0.012
 6368.00    0.62229   0.64831    0.013
 6369.00    0.61700   0.65242    0.013
 6370.00    0.61584   0.65626    0.013
 6371.00    0.61943   0.65996    0.013
 6372.00    0.63450   0.66325    0.012
 6373.00    0.66114   0.66563    0.012
 6374.00    0.67343   0.66737    0.012
 6375.00    0.67296   0.66878    0.012
 6376.00    0.66547   0.66978    0.013
 6377.00    0.65247   0.66974    0.012
 6378.00    0.65233   0.66882    0.012
 6379.00    0.66103   0.66800    0.012
 6380.00    0.66172   0.66702    0.012
 6381.00    0.65758   0.66551    0.012
 6382.00    0.67454   0.66441    0.012
 6383.00    0.70263   0.66399    0.012
 6384.00    0.71202   0.66349    0.012
 6385.00    0.71285   0.66334    0.012
 6386.00    0.69352   0.66370    0.012
 6387.00    0.66626   0.66372    0.012
 6388.00    0.65119   0.66355    0.012
 6389.00    0.64021   0.66348    0.012
 6390.00    0.66066   0.66319    0.012
 6391.00    0.68995   0.66256    0.012
 6392.00    0.68007   0.66167    0.012
 6393.00    0.66110   0.66079    0.012
 6394.00    0.61969   0.66055    0.012
 6395.00    0.57410   0.66050    0.013
 6396.00    0.59147   0.66008    0.013
 6397.00    0.61787   0.66064    0.013
 6398.00    0.63952   0.66210    0.013
 6399.00    0.66067   0.66269    0.013
 6400.00    0.66747   0.66331    0.013
 6401.00    0.67331   0.66507    0.013
 6402.00    0.63167   0.66656    0.013
 6403.00    0.58849   0.66741    0.013
 6404.00    0.59203   0.66933    0.013
 6405.00    0.59692   0.67168    0.013
 6406.00    0.64330   0.67287    0.013
 6407.00    0.68586   0.67336    0.012
 6408.00    0.67135   0.67364    0.012
 6409.00    0.65832   0.67360    0.012
 6410.00    0.65971   0.67268    0.012
 6411.00    0.66363   0.67121    0.012
 6412.00    0.68519   0.67052    0.012
 6413.00    0.70489   0.66996    0.012
 6414.00    0.71455   0.66869    0.012
 6415.00    0.71355   0.66796    0.012
 6416.00    0.66641   0.66773    0.012
 6417.00    0.62271   0.66698    0.012
 6418.00    0.59128   0.66621    0.012
 6419.00    0.57301   0.66574    0.012
 6420.00    0.59413   0.66498    0.012
 6421.00    0.61661   0.66436    0.012
 6422.00    0.64260   0.66472    0.012
 6423.00    0.66190   0.66547    0.013
 6424.00    0.66656   0.66629    0.013
 6425.00    0.66777   0.66793    0.013
 6426.00    0.66242   0.66985    0.013
 6427.00    0.63531   0.67073    0.013
 6428.00    0.57213   0.67106    0.013
 6429.00    0.54048   0.67117    0.014
 6430.00    0.55467   0.67038    0.014
 6431.00    0.57944   0.66931    0.014
 6432.00    0.61774   0.66879    0.014
 6433.00    0.64127   0.66830    0.013
 6434.00    0.64818   0.66802    0.013
 6435.00    0.65497   0.66878    0.012
 6436.00    0.66165   0.67014    0.012
 6437.00    0.66137   0.67130    0.012
 6438.00    0.65499   0.67230    0.012
 6439.00    0.66109   0.67385    0.012
 6440.00    0.67683   0.67598    0.012
 6441.00    0.68421   0.67766    0.012
 6442.00    0.68591   0.67923    0.012
 6443.00    0.66772   0.68157    0.012
 6444.00    0.63771   0.68340    0.012
 6445.00    0.62350   0.68368    0.012
 6446.00    0.61748   0.68301    0.012
 6447.00    0.59854   0.68146    0.013
 6448.00    0.57380   0.67847    0.013
 6449.00    0.55771   0.67455    0.013
 6450.00    0.54498   0.67104    0.013
 6451.00    0.56843   0.66833    0.013
 6452.00    0.60377   0.66608    0.013
 6453.00    0.62854   0.66541    0.013
 6454.00    0.65039   0.66680    0.012
 6455.00    0.64847   0.66870    0.012
 6456.00    0.64116   0.67108    0.012
 6457.00    0.62635   0.67418    0.012
 6458.00    0.61019   0.67639    0.012
 6459.00    0.61716   0.67780    0.012
 6460.00    0.62735   0.67923    0.012
 6461.00    0.63416   0.67964    0.012
 6462.00    0.64064   0.67884    0.012
 6463.00    0.64117   0.67849    0.012
 6464.00    0.64133   0.67859    0.012
 6465.00    0.63959   0.67812    0.012
 6466.00    0.63795   0.67839    0.012
 6467.00    0.68080   0.68003    0.012
 6468.00    0.72241   0.68122    0.012
 6469.00    0.72932   0.68197    0.012
 6470.00    0.73149   0.68279    0.012
 6471.00    0.66641   0.68281    0.013
 6472.00    0.60689   0.68210    0.013
 6473.00    0.59890   0.68117    0.013
 6474.00    0.59846   0.67958    0.013
 6475.00    0.64906   0.67789    0.013
 6476.00    0.69090   0.67680    0.013
 6477.00    0.68680   0.67527    0.013
 6478.00    0.68435   0.67326    0.012
 6479.00    0.68887   0.67178    0.013
 6480.00    0.69232   0.67014    0.012
 6481.00    0.69207   0.66756    0.012
 6482.00    0.68504   0.66506    0.012
 6483.00    0.65810   0.66323    0.012
 6484.00    0.63832   0.66142    0.012
 6485.00    0.63643   0.65989    0.012
 6486.00    0.63327   0.65929    0.012
 6487.00    0.62735   0.65910    0.012
 6488.00    0.62329   0.65865    0.012
 6489.00    0.62273   0.65770    0.012
 6490.00    0.62014   0.65580    0.012
 6491.00    0.61423   0.65281    0.012
 6492.00    0.60406   0.64871    0.012
 6493.00    0.58778   0.64327    0.012
 6494.00    0.58536   0.63731    0.012
 6495.00    0.60041   0.63193    0.012
 6496.00    0.62119   0.62718    0.013
 6497.00    0.64835   0.62358    0.013
 6498.00    0.64918   0.62227    0.013
 6499.00    0.62421   0.62313    0.013
 6500.00    0.61458   0.62574    0.013
 6501.00    0.61820   0.62998    0.013
 6502.00    0.62893   0.63508    0.013
 6503.00    0.64507   0.64061    0.013
 6504.00    0.66811   0.64600    0.012
 6505.00    0.69576   0.65064    0.012
 6506.00    0.71367   0.65462    0.012
 6507.00    0.72586   0.65762    0.012
 6508.00    0.72398   0.65963    0.012
 6509.00    0.71490   0.66124    0.012
 6510.00    0.70293   0.66232    0.012
 6511.00    0.68969   0.66269    0.012
 6512.00    0.67787   0.66287    0.012
 6513.00    0.66658   0.66310    0.012
 6514.00    0.64091   0.66283    0.012
 6515.00    0.61058   0.66205    0.012
 6516.00    0.63634   0.66150    0.012
 6517.00    0.67723   0.66105    0.012
 6518.00    0.71635   0.66039    0.012
 6519.00    0.75508   0.66029    0.012
 6520.00    0.70199   0.66094    0.013
 6521.00    0.63270   0.66175    0.013
 6522.00    0.61021   0.66288    0.013
 6523.00    0.59402   0.66441    0.013
 6524.00    0.61508   0.66585    0.013
 6525.00    0.63970   0.66701    0.013
 6526.00    0.67135   0.66784    0.013
 6527.00    0.70341   0.66848    0.013
 6528.00    0.73410   0.66901    0.000
 6529.00    0.76459   0.66921    0.000
 6530.00    0.77168   0.66929    0.000
 6531.00    0.77733   0.66963    0.000
 6532.00    0.74673   0.67002    0.000
 6533.00    0.71606   0.67043    0.000
 6534.00    0.68442   0.67108    0.000
 6535.00    0.65660   0.67197    0.000
 6536.00    0.66266   0.67293    0.000
 6537.00    0.67127   0.67381    0.000
 6538.00    0.69659   0.67459    0.000
 6539.00    0.71391   0.67503    0.000
 6540.00    0.69031   0.67472    0.000
 6541.00    0.66878   0.67366    0.000
 6542.00    0.65575   0.67185    0.000
 6543.00    0.65030   0.66909    0.000
 6544.00    0.67077   0.66567    0.000
 6545.00    0.68901   0.66179    0.000
 6546.00    0.70082   0.65760    0.000
 6547.00    0.70951   0.65371    0.000
 6548.00    0.71050   0.65005    0.000
 6549.00    0.72036   0.64628    0.000
 6550.00    0.74901   0.64289    0.000
 6551.00    0.76366   0.63963    0.000
 6552.00    0.75252   0.63585    0.000
 6553.00    0.73449   0.63170    0.000
 6554.00    0.70535   0.62699    0.000
 6555.00    0.65745   0.62145    0.000
 6556.00    0.58303   0.61513    0.000
 6557.00    0.55751   0.60776    0.000
 6558.00    0.59276   0.59889    0.000
 6559.00    0.62151   0.58875    0.000
 6560.00    0.64316   0.57835    0.000
 6561.00    0.66729   0.56753    0.000
 6562.00    0.69381   0.55654    0.000
 6563.00    0.73468   0.54881    0.000
 6564.00    0.78776   0.54554    0.000
 6565.00    0.82519   0.54468    0.000
 6566.00    0.85086   0.54818    0.000
 6567.00    0.85701   0.55755    0.000
 6568.00    0.85029   0.56805    0.000
 6569.00    0.82151   0.57820    0.000
 6570.00    0.78001   0.58980    0.000
 6571.00    0.70752   0.60004    0.000
 6572.00    0.61947   0.60705    0.000
 6573.00    0.59443   0.61289    0.000
 6574.00    0.59682   0.61773    0.000
 6575.00    0.58054   0.62100    0.000
 6576.00    0.55729   0.62391    0.000
 6577.00    0.56865   0.62688    0.000
 6578.00    0.59098   0.62952    0.000
 6579.00    0.61147   0.63220    0.000
 6580.00    0.63149   0.63489    0.000
 6581.00    0.71516   0.63733    0.000
 6582.00    0.81258   0.63993    0.000
 6583.00    0.85051   0.64260    0.000
 6584.00    0.87823   0.64504    0.000
 6585.00    0.83426   0.64764    0.000
 6586.00    0.78096   0.65019    0.000
 6587.00    0.79129   0.65233    0.000
 6588.00    0.80744   0.65406    0.000
 6589.00    0.82629   0.65481    0.000
 6590.00    0.84529   0.65483    0.000
 6591.00    0.79795   0.65418    0.000
 6592.00    0.74969   0.65231    0.000
 6593.00    0.74900   0.65020    0.000
 6594.00    0.74661   0.64855    0.000
 6595.00    0.70513   0.64693    0.000
 6596.00    0.66573   0.64586    0.000
 6597.00    0.65281   0.64607    0.000
 6598.00    0.63940   0.64693    0.000
 6599.00    0.62173   0.64810    0.000
 6600.00    0.60704   0.64988    0.000
 6601.00    0.61133   0.65164    0.000
 6602.00    0.61418   0.65285    0.000
 6603.00    0.60980   0.65381    0.000
 6604.00    0.60991   0.65408    0.000
 6605.00    0.62813   0.65341    0.000
 6606.00    0.64236   0.65242    0.000
 6607.00    0.64325   0.65129    0.000
 6608.00    0.63896   0.64984    0.000
 6609.00    0.62005   0.64867    0.012
 6610.00    0.59702   0.64839    0.012
 6611.00    0.56405   0.64873    0.012
 6612.00    0.55717   0.64943    0.012
 6613.00    0.60473   0.65086    0.013
 6614.00    0.64657   0.65282    0.013
 6615.00    0.67807   0.65463    0.013
 6616.00    0.69729   0.65613    0.013
 6617.00    0.69705   0.65747    0.013
 6618.00    0.71842   0.65846    0.013
 6619.00    0.76984   0.65869    0.013
 6620.00    0.77058   0.65828    0.013
 6621.00    0.70922   0.65746    0.013
 6622.00    0.65372   0.65608    0.013
 6623.00    0.60454   0.65424    0.013
 6624.00    0.61039   0.65208    0.013
 6625.00    0.66866   0.64992    0.013
 6626.00    0.67028   0.64803    0.013
 6627.00    0.62431   0.64625    0.013
 6628.00    0.62441   0.64480    0.013
 6629.00    0.65857   0.64390    0.013
 6630.00    0.66899   0.64309    0.013
 6631.00    0.66399   0.64240    0.013
 6632.00    0.66066   0.64196    0.013
 6633.00    0.65828   0.64141    0.013
 6634.00    0.68051   0.64104    0.013
 6635.00    0.71492   0.64099    0.013
 6636.00    0.69953   0.64094    0.013
 6637.00    0.66283   0.64121    0.013
 6638.00    0.63840   0.64188    0.013
 6639.00    0.61847   0.64236    0.013
 6640.00    0.59286   0.64276    0.013
 6641.00    0.56550   0.64339    0.013
 6642.00    0.58706   0.64361    0.013
 6643.00    0.62129   0.64335    0.013
 6644.00    0.62236   0.64333    0.013
 6645.00    0.61643   0.64321    0.014
 6646.00    0.60895   0.64253    0.014
 6647.00    0.60122   0.64186    0.014
 6648.00    0.59364   0.64129    0.014
 6649.00    0.58607   0.64024    0.013
 6650.00    0.59226   0.63878    0.013
 6651.00    0.59966   0.63731    0.013
 6652.00    0.59585   0.63580    0.013
 6653.00    0.59148   0.63412    0.013
 6654.00    0.57619   0.63257    0.013
 6655.00    0.56128   0.63142    0.013
 6656.00    0.58731   0.63046    0.013
 6657.00    0.61383   0.62962    0.013
 6658.00    0.65068   0.62907    0.013
 6659.00    0.68375   0.62846    0.013
 6660.00    0.67124   0.62769    0.013
 6661.00    0.65888   0.62707    0.013
 6662.00    0.64781   0.62628    0.013
 6663.00    0.63554   0.62533    0.014
 6664.00    0.61588   0.62491    0.013
 6665.00    0.59896   0.62483    0.013
 6666.00    0.59531   0.62483    0.014
 6667.00    0.58475   0.62564    0.014
 6668.00    0.54692   0.62709    0.014
 6669.00    0.52892   0.62856    0.014
 6670.00    0.57602   0.63026    0.014
 6671.00    0.61514   0.63193    0.014
 6672.00    0.63212   0.63308    0.014
 6673.00    0.65680   0.63338    0.014
 6674.00    0.69977   0.63262    0.014
 6675.00    0.72849   0.63100    0.014
 6676.00    0.72795   0.62843    0.014
 6677.00    0.71998   0.62484    0.014
 6678.00    0.69875   0.62119    0.014
 6679.00    0.66708   0.61804    0.013
 6680.00    0.61910   0.61514    0.013
 6681.00    0.59059   0.61297    0.013
 6682.00    0.58881   0.61227    0.013
 6683.00    0.58145   0.61246    0.014
 6684.00    0.56735   0.61287    0.014
 6685.00    0.55923   0.61399    0.014
 6686.00    0.55748   0.61555    0.014
 6687.00    0.57742   0.61671    0.014
 6688.00    0.61772   0.61775    0.014
 6689.00    0.66968   0.61880    0.014
 6690.00    0.73128   0.61947    0.014
 6691.00    0.73979   0.61986    0.014
 6692.00    0.70960   0.62008    0.014
 6693.00    0.66868   0.62005    0.014
 6694.00    0.62090   0.61989    0.014
 6695.00    0.59399   0.61956    0.014
 6696.00    0.57878   0.61920    0.000
 6697.00    0.57978   0.61915    0.000
 6698.00    0.58868   0.61919    0.000
 6699.00    0.58652   0.61943    0.000
 6700.00    0.57969   0.62016    0.000
 6701.00    0.59631   0.62094    0.000
 6702.00    0.62135   0.62172    0.000
 6703.00    0.66615   0.62257    0.000
 6704.00    0.71696   0.62315    0.000
 6705.00    0.70053   0.62357    0.000
 6706.00    0.66707   0.62381    0.000
 6707.00    0.62550   0.62368    0.000
 6708.00    0.58225   0.62343    0.000
 6709.00    0.59180   0.62289    0.000
 6710.00    0.60989   0.62175    0.000
 6711.00    0.62270   0.62026    0.000
 6712.00    0.63488   0.61828    0.000
 6713.00    0.56697   0.61551    0.000
 6714.00    0.49243   0.61234    0.000
 6715.00    0.55233   0.60899    0.000
 6716.00    0.61861   0.60551    0.000
 6717.00    0.61264   0.60220    0.000
 6718.00    0.60577   0.59961    0.000
 6719.00    0.60532   0.59785    0.000
 6720.00    0.60430   0.59678    0.000
 6721.00    0.59206   0.59661    0.000
 6722.00    0.58205   0.59725    0.000
 6723.00    0.59769   0.59831    0.000
 6724.00    0.61250   0.59963    0.000
 6725.00    0.62070   0.60107    0.000
 6726.00    0.62531   0.60256    0.000
 6727.00    0.60831   0.60399    0.000
 6728.00    0.59589   0.60525    0.000
 6729.00    0.60514   0.60645    0.000
 6730.00    0.62188   0.60762    0.000
 6731.00    0.66758   0.60859    0.000
 6732.00    0.70124   0.60938    0.000
 6733.00    0.69615   0.61003    0.000
 6734.00    0.68315   0.61045    0.000
 6735.00    0.64856   0.61059    0.000
 6736.00    0.64906   0.61053    0.000
 6737.00    0.73154   0.61028    0.000
 6738.00    0.78408   0.60987    0.000
 6739.00    0.77611   0.60927    0.000
 6740.00    0.74728   0.60868    0.000
 6741.00    0.68176   0.60815    0.000
 6742.00    0.61906   0.60742    0.000
 6743.00    0.56072   0.60673    0.000
 6744.00    0.52266   0.60622    0.000
 6745.00    0.51205   0.60539    0.000
 6746.00    0.52017   0.60441    0.000
 6747.00    0.55062   0.60358    0.000
 6748.00    0.58744   0.60257    0.000
 6749.00    0.63096   0.60139    0.000
 6750.00    0.62818   0.60050    0.000
 6751.00    0.58252   0.59999    0.000
 6752.00    0.54457   0.59960    0.000
 6753.00    0.51291   0.59976    0.015
 6754.00    0.51884   0.60077    0.016
 6755.00    0.55177   0.60202    0.016
 6756.00    0.55566   0.60369    0.016
 6757.00    0.54123   0.60604    0.016
 6758.00    0.55730   0.60828    0.016
 6759.00    0.59016   0.61038    0.017
 6760.00    0.63303   0.61252    0.017
 6761.00    0.68070   0.61415    0.017
 6762.00    0.76734   0.61523    0.018
 6763.00    0.87012   0.61600    0.019
 6764.00    0.91420   0.61626    0.019
 6765.00    0.93754   0.61614    0.018
 6766.00    0.90370   0.61585    0.018
 6767.00    0.85279   0.61544    0.018
 6768.00    0.75277   0.61513    0.017
 6769.00    0.64060   0.61509    0.017
 6770.00    0.65821   0.61528    0.016
 6771.00    0.70187   0.61592    0.016
 6772.00    0.72568   0.61707    0.016
 6773.00    0.74636   0.61843    0.015
 6774.00    0.73900   0.61999    0.015
 6775.00    0.72838   0.62170    0.015
 6776.00    0.74828   0.62315    0.015
 6777.00    0.77058   0.62404    0.016
 6778.00    0.79487   0.62434    0.016
 6779.00    0.81926   0.62383    0.016
 6780.00    0.78941   0.62227    0.016
 6781.00    0.75925   0.61988    0.017
 6782.00    0.74066   0.61684    0.017
 6783.00    0.72245   0.61332    0.017
 6784.00    0.71121   0.60982    0.016
 6785.00    0.70355   0.60669    0.016
 6786.00    0.73492   0.60415    0.017
 6787.00    0.75916   0.60248    0.017
 6788.00    0.72859   0.60174    0.017
 6789.00    0.69039   0.60165    0.017
 6790.00    0.60777   0.60210    0.016
 6791.00    0.53794   0.60301    0.016
 6792.00    0.52726   0.60397    0.016
 6793.00    0.53873   0.60485    0.016
 6794.00    0.63393   0.60591    0.016
 6795.00    0.68835   0.60692    0.016
 6796.00    0.61400   0.60783    0.016
 6797.00    0.56095   0.60904    0.015
 6798.00    0.56497   0.61028    0.015
 6799.00    0.58970   0.61151    0.016
 6800.00    0.66202   0.61292    0.016
 6801.00    0.68514   0.61416    0.016
 6802.00    0.61044   0.61532    0.016
 6803.00    0.58210   0.61633    0.016
 6804.00    0.63409   0.61699    0.016
 6805.00    0.66042   0.61764    0.016
 6806.00    0.64784   0.61799    0.016
 6807.00    0.60671   0.61810    0.016
 6808.00    0.52755   0.61841    0.016
 6809.00    0.50362   0.61841    0.016
 6810.00    0.54454   0.61832    0.016
 6811.00    0.60144   0.61843    0.016
 6812.00    0.67489   0.61820    0.016
 6813.00    0.69438   0.61797    0.016
 6814.00    0.66459   0.61784    0.017
 6815.00    0.63786   0.61749    0.016
 6816.00    0.61358   0.61738    0.016
 6817.00    0.64593   0.61744    0.016
 6818.00    0.71836   0.61752    0.016
 6819.00    0.73464   0.61800    0.015
 6820.00    0.71605   0.61863    0.015
 6821.00    0.68231   0.61935    0.015
 6822.00    0.64034   0.62026    0.015
 6823.00    0.62029   0.62115    0.015
 6824.00    0.61058   0.62192    0.015
 6825.00    0.66412   0.62258    0.015
 6826.00    0.74337   0.62305    0.016
 6827.00    0.64879   0.62324    0.016
 6828.00    0.49385   0.62328    0.016
 6829.00    0.48578   0.62328    0.016
 6830.00    0.52068   0.62322    0.016
 6831.00    0.60765   0.62332    0.016
 6832.00    0.70722   0.62357    0.016
 6833.00    0.73189   0.62391    0.016
 6834.00    0.74190   0.62448    0.016
 6835.00    0.79887   0.62491    0.016
 6836.00    0.86300   0.62513    0.017
 6837.00    0.72339   0.62524    0.017
 6838.00    0.56093   0.62488    0.017
 6839.00    0.63790   0.62417    0.017
 6840.00    0.73276   0.62343    0.017
 6841.00    0.69214   0.62257    0.017
 6842.00    0.64613   0.62190    0.017
 6843.00    0.56983   0.62166    0.016
 6844.00    0.49770   0.62179    0.016
 6845.00    0.59955   0.62232    0.015
 6846.00    0.68925   0.62304    0.015
 6847.00    0.57392   0.62376    0.015
 6848.00    0.47546   0.62435    0.016
 6849.00    0.55365   0.62442    0.016
 6850.00    0.61745   0.62409    0.016
 6851.00    0.57435   0.62336    0.016
 6852.00    0.54690   0.62207    0.016
 6853.00    0.60809   0.62068    0.016
 6854.00    0.64676   0.61916    0.016
 6855.00    0.58371   0.61751    0.016
 6856.00    0.54256   0.61624    0.016
 6857.00    0.58246   0.61515    0.016
 6858.00    0.60170   0.61420    0.016
 6859.00    0.55694   0.61385    0.016
 6860.00    0.53165   0.61377    0.016
 6861.00    0.55761   0.61386    0.016
 6862.00    0.58416   0.61441    0.016
 6863.00    0.61204   0.61521    0.016
 6864.00    0.61057   0.61596    0.016
 6865.00    0.55164   0.61671    0.016
 6866.00    0.51930   0.61748    0.016
 6867.00    0.53233   0.61791    0.016
 6868.00    0.53955   0.61796    0.016
 6869.00    0.53809   0.61807    0.016
 6870.00    0.56006   0.61808    0.016
 6871.00    0.61281   0.61794    0.016
 6872.00    0.62112   0.61821    0.016
 6873.00    0.57802   0.61885    0.016
 6874.00    0.59042   0.61961    0.016
 6875.00    0.65946   0.62079    0.016
 6876.00    0.71476   0.62226    0.016
 6877.00    0.75772   0.62366    0.016
 6878.00    0.72832   0.62501    0.016
 6879.00    0.64154   0.62616    0.016
 6880.00    0.59942   0.62687    0.016
 6881.00    0.58847   0.62726    0.016
 6882.00    0.63266   0.62736    0.016
 6883.00    0.71059   0.62717    0.016
 6884.00    0.70866   0.62716    0.016
 6885.00    0.66407   0.62735    0.016
 6886.00    0.66084   0.62767    0.016
 6887.00    0.67681   0.62869    0.016
 6888.00    0.64820   0.63000    0.016
 6889.00    0.60179   0.63134    0.016
 6890.00    0.53155   0.63314    0.016
 6891.00    0.45320   0.63481    0.016
 6892.00    0.51516   0.63612    0.016
 6893.00    0.61735   0.63747    0.016
 6894.00    0.63240   0.63847    0.016
 6895.00    0.62681   0.63909    0.016
 6896.00    0.62073   0.63966    0.016
 6897.00    0.61456   0.64002    0.016
 6898.00    0.15413   0.64030    0.014
 6899.00   -0.37342   0.64064    0.000
 6900.00    0.11586   0.64097    0.023
 6901.00    0.71484   0.64147    0.379
 6902.00    0.70748   0.64214   -1.000
 6903.00    0.65726   0.64292   -1.000
 6904.00    0.59927   0.64393   -1.000
 6905.00    0.54100   0.64499   -1.000
 6906.00    0.60854   0.64611   -1.000
 6907.00    0.67483   0.64722   -1.000
 6908.00    0.68361   0.64806   -1.000
 6909.00    0.69376   0.64877   -1.000
 6910.00    0.72542   0.64913   -1.000
 6911.00    0.74960   0.64899   -1.000
 6912.00    0.69877   0.64876   -1.000
 6913.00    0.65523   0.64815   -1.000
 6914.00    0.66416   0.64726   -1.000
 6915.00    0.68422   0.64667   -1.000
 6916.00    0.76563   0.64593   -1.000
 6917.00    0.81782   0.64528   -1.000
 6918.00    0.74113   0.64503   -1.000
 6919.00    0.66771   0.64462   -1.000
 6920.00    0.60618   0.64430   -1.000
 6921.00    0.58096   0.64405   -1.000
 6922.00    0.66610   0.64353   -1.000
 6923.00    0.72574   0.64301   -1.000
 6924.00    0.71945   0.64244   -1.000
 6925.00    0.71697   0.64189   -1.000
 6926.00    0.72297   0.64152   -1.000
 6927.00    0.70900   0.64140   -1.000
 6928.00    0.65652   0.64159   -1.000
 6929.00    0.63629   0.64206   -1.000
 6930.00    0.67026   0.64267   -1.000
 6931.00    0.68819   0.64346   -1.000
 6932.00    0.68250   0.64429   -1.000
 6933.00    0.67720   0.64495   -1.000
 6934.00    0.67240   0.64575   -1.000
 6935.00    0.65257   0.64652   -1.000
 6936.00    0.61558   0.64719   -1.000
 6937.00    0.62357   0.64812   -1.000
 6938.00    0.67681   0.64899   -1.000
 6939.00    0.67141   0.64971   -1.000
 6940.00    0.61398   0.65058   -1.000
 6941.00    0.59082   0.65120   -1.000
 6942.00    0.59447   0.65145   -1.000
 6943.00    0.58964   0.65180   -1.000
 6944.00    0.57899   0.65195   -1.000
 6945.00    0.58096   0.65182   -1.000
 6946.00    0.59053   0.65206   -1.000
 6947.00    0.62626   0.65228   -1.000
 6948.00    0.67574   0.65235   -1.000
 6949.00    0.65111   0.65281   -1.000
 6950.00    0.59266   0.65306   -1.000
 6951.00    0.58918   0.65299   -1.000
 6952.00    0.60729   0.65318   -1.000
 6953.00    0.63889   0.65312   -1.000
 6954.00    0.67501   0.65298   -1.000
 6955.00    0.70575   0.65335   -1.000
 6956.00    0.73498   0.65384   -1.000
 6957.00    0.75607   0.65463   -1.000
 6958.00    0.77529   0.65599   -1.000
 6959.00    0.76823   0.65743   -1.000
 6960.00    0.75630   0.65905   -1.000
 6961.00    0.72666   0.66088   -1.000
 6962.00    0.69450   0.66249   -1.000
 6963.00    0.67349   0.66402   -1.000
 6964.00    0.65363   0.66547   -1.000
 6965.00    0.68022   0.66665   -1.000
 6966.00    0.70989   0.66767   -1.000
 6967.00    0.67295   0.66854   -1.000
 6968.00    0.63386   0.66915   -1.000
 6969.00    0.58298   0.66951   -1.000
 6970.00    0.53603   0.66970   -1.000
 6971.00    0.60943   0.66943   -1.000
 6972.00    0.67766   0.66872   -1.000
 6973.00    0.66875   0.66773   -1.000
 6974.00    0.66041   0.66622   -1.000
 6975.00    0.65752   0.66419   -1.000
 6976.00    0.64993   0.66205   -1.000
 6977.00    0.60964   0.65994   -1.000
 6978.00    0.58068   0.65791   -1.000
 6979.00    0.61255   0.65659   -1.000
 6980.00    0.62834   0.65623   -1.000
 6981.00    0.57489   0.65657   -1.000
 6982.00    0.53205   0.65812   -1.000
 6983.00    0.52688   0.66037   -1.000
 6984.00    0.53274   0.66271   -1.000
 6985.00    0.57150   0.66540   -1.000
 6986.00    0.62385   0.66756   -1.000
 6987.00    0.71073   0.66894   -1.000
 6988.00    0.74670   0.66985   -1.000
 6989.00    0.67134   0.67001   -1.000
 6990.00    0.63017   0.66969   -1.000
 6991.00    0.65387   0.66917   -1.000
 6992.00    0.64963   0.66862   -1.000
 6993.00    0.59911   0.66817   -1.000
 6994.00    0.58839   0.66780   -1.000
 6995.00    0.63544   0.66766   -1.000
 6996.00    0.66016   0.66750   -1.000
 6997.00    0.65636   0.66729   -1.000
 6998.00    0.67413   0.66715   -1.000
 6999.00    0.71615   0.66678   -1.000
 7000.00    0.70511   0.66643   -1.000
 7001.00    0.64143   0.66612   -1.000
 7002.00    0.60706   0.66573   -1.000
 7003.00    0.59835   0.66561   -1.000
 7004.00    0.59789   0.66553   -1.000
 7005.00    0.60379   0.66547   -1.000
 7006.00    0.57515   0.66577   -1.000
 7007.00    0.52312   0.66613   -1.000
 7008.00    0.53192   0.66649   -1.000
 7009.00    0.57684   0.66705   -1.000
 7010.00    0.60916   0.66748   -1.000
 7011.00    0.63494   0.66782   -1.000
 7012.00    0.62796   0.66808   -1.000
 7013.00    0.60628   0.66783   -1.000
 7014.00    0.58750   0.66755   -1.000
 7015.00    0.56983   0.66737   -1.000
 7016.00    0.58203   0.66688   -1.000
 7017.00    0.60402   0.66677   -1.000
 7018.00    0.61769   0.66719   -1.000
 7019.00    0.62906   0.66773   -1.000
 7020.00    0.60230   0.66864   -1.000
 7021.00    0.56691   0.66965   -1.000
 7022.00    0.59685   0.67047   -1.000
 7023.00    0.63861   0.67124   -1.000
 7024.00    0.63083   0.67157   -1.000
 7025.00    0.61620   0.67158   -1.000
 7026.00    0.59334   0.67175   -1.000
 7027.00    0.56966   0.67189   -1.000
 7028.00    0.55073   0.67215   -1.000
 7029.00    0.53210   0.67275   -1.000
 7030.00    0.60268   0.67357   -1.000
 7031.00    0.67519   0.67461   -1.000
 7032.00    0.59041   0.67552   -1.000
 7033.00    0.51125   0.67638   -1.000
 7034.00    0.58659   0.67727   -1.000
 7035.00    0.65282   0.67768   -1.000
 7036.00    0.59121   0.67812   -1.000
 7037.00    0.53581   0.67879   -1.000
 7038.00    0.53769   0.67934   -1.000
 7039.00    0.53802   0.68047   -1.000
 7040.00    0.52784   0.68217   -1.000
 7041.00    0.52120   0.68416   -1.000
 7042.00    0.53302   0.68682   -1.000
 7043.00    0.55102   0.68961   -1.000
 7044.00    0.59503   0.69219   -1.000
 7045.00    0.63198   0.69478   -1.000
 7046.00    0.64438   0.69663   -1.000
 7047.00    0.64028   0.69730   -1.000
 7048.00    0.58788   0.69718   -1.000
 7049.00    0.56581   0.69560   -1.000
 7050.00    0.61944   0.69219   -2.000
 7051.00    0.66620   0.68736   -2.000
 7052.00    0.69818   0.68077   -2.000
 7053.00    0.69078   0.67283   -2.000
 7054.00    0.60982   0.66407   -2.000
 7055.00    0.59701   0.65473   -2.000
 7056.00    0.69533   0.64576   -2.000
 7057.00    0.70499   0.63739   -2.000
 7058.00    0.58783   0.63011   -2.000
 7059.00    0.54991   0.62422   -2.000
 7060.00    0.61169   0.61930   -2.000
 7061.00    0.65021   0.61576   -2.000
 7062.00    0.66293   0.61320   -2.000
 7063.00    0.70818   0.61116   -2.000
 7064.00    0.78523   0.61001   -2.000
 7065.00    0.76182   0.60923   -2.000
 7066.00    0.65174   0.60887   -2.000
 7067.00    0.60103   0.60922   -2.000
 7068.00    0.59543   0.60976   -2.000
 7069.00    0.57977   0.61091   -2.000
 7070.00    0.55741   0.61277   -2.000
 7071.00    0.59375   0.61487   -2.000
 7072.00    0.66442   0.61745   -2.000
 7073.00    0.68270   0.62031   -2.000
 7074.00    0.67426   0.62305   -2.000
 7075.00    0.63527   0.62578   -2.000
 7076.00    0.58280   0.62820   -2.000
 7077.00    0.54401   0.63009   -2.000
 7078.00    0.51040   0.63149   -2.000
 7079.00    0.47298   0.63223   -2.000
 7080.00    0.43431   0.63220   -2.000
 7081.00    0.55736   0.63116   -2.000
 7082.00    0.72397   0.62910   -2.000
 7083.00    0.74702   0.62623   -2.000
 7084.00    0.73838   0.62201   -2.000
 7085.00    0.68947   0.61678   -2.000
 7086.00    0.63347   0.61123   -2.000
 7087.00    0.61160   0.60496   -2.000
 7088.00    0.59429   0.59872   -2.000
 7089.00    0.62576   0.59302   -2.000
 7090.00    0.66186   0.58752   -2.000
 7091.00    0.69247   0.58332   -2.000
 7092.00    0.72276   0.58010   -2.000
 7093.00    0.69471   0.57737   -2.000
 7094.00    0.66484   0.57609   -2.000
 7095.00    0.58459   0.57545   -2.000
 7096.00    0.50728   0.57532   -2.000
 7097.00    0.50327   0.57592   -2.000
 7098.00    0.49691   0.57666   -2.000
 7099.00    0.45930   0.57782   -2.000
 7100.00    0.42454   0.57905   -2.000
 7101.00    0.41500   0.58039   -2.000
 7102.00    0.41019   0.58191   -2.000
 7103.00    0.43628   0.58323   -2.000
 7104.00    0.46239   0.58469   -2.000
 7105.00    0.48868   0.58614   -2.000
 7106.00    0.49885   0.58745   -2.000
 7107.00    0.44269   0.58875   -2.000
 7108.00    0.42033   0.58981   -2.000
 7109.00    0.51319   0.59078   -2.000
 7110.00    0.59817   0.59177   -2.000
 7111.00    0.66048   0.59254   -2.000
 7112.00    0.70281   0.59322   -2.000
 7113.00    0.69609   0.59415   -2.000
 7114.00    0.68437   0.59526   -2.000
 7115.00    0.66205   0.59645   -2.000
 7116.00    0.62321   0.59775   -2.000
 7117.00    0.55401   0.59912   -2.000
 7118.00    0.49709   0.60044   -2.000
 7119.00    0.45991   0.60127   -2.000
 7120.00    0.51324   0.60146   -2.000
 7121.00    0.69417   0.60112   -2.000
 7122.00    0.76879   0.59964   -2.000
 7123.00    0.71156   0.59709   -2.000
 7124.00    0.63896   0.59368   -2.000
 7125.00    0.54957   0.58936   -2.000
 7126.00    0.54638   0.58447   -2.000
 7127.00    0.62632   0.57909   -2.000
 7128.00    0.60842   0.57379   -2.000
 7129.00    0.50730   0.56922   -2.000
 7130.00    0.46152   0.56515   -2.000
 7131.00    0.45717   0.56190   -2.000
 7132.00    0.41609   0.55992   -2.000
 7133.00    0.35084   0.55896   -2.000
 7134.00    0.42664   0.55891   -2.000
 7135.00    0.58367   0.55947   -2.000
 7136.00    0.64070   0.56044   -2.000
 7137.00    0.64755   0.56200   -2.000
 7138.00    0.64324   0.56361   -2.000
 7139.00    0.63407   0.56518   -2.000
 7140.00    0.53405   0.56686   -2.000
 7141.00    0.40018   0.56831   -2.000
 7142.00    0.40099   0.56971   -2.000
 7143.00    0.44436   0.57111   -2.000
 7144.00    0.49874   0.57214   -2.000
 7145.00    0.55604   0.57296   -2.000
 7146.00    0.53754   0.57393   -2.000
 7147.00    0.50271   0.57463   -2.000
 7148.00    0.49350   0.57517   -2.000
 7149.00    0.48868   0.57607   -2.000
 7150.00    0.48697   0.57707   -2.000
 7151.00    0.48567   0.57836   -2.000
 7152.00    0.48668   0.58005   -2.000
 7153.00    0.48789   0.58177   -2.000
 7154.00    0.41327   0.58384   -2.000
 7155.00    0.33451   0.58583   -2.000
 7156.00    0.50982   0.58736   -2.000
 7157.00    0.68947   0.58859   -2.000
 7158.00    0.78001   0.58937   -2.000
 7159.00    0.85144   0.58970   -2.000
 7160.00    0.48906   0.58939   -2.000
 7161.00    0.14838   0.58865   -2.000
 7162.00    0.08091   0.58803   -2.000
 7163.00    0.02879   0.58732   -2.000
 7164.00    0.10760   0.58663   -2.000
 7165.00    0.25233   0.58635   -2.000
 7166.00    0.81488   0.58642   -2.000
 7167.00    1.20399   0.58700   -2.000
 7168.00    0.73192   0.58812   -2.000
 7169.00    0.35932   0.58937   -2.000
 7170.00    0.38712   0.59086   -2.000
 7171.00    0.41396   0.59263   -2.000
 7172.00    0.43764   0.59436   -2.000
 7173.00    0.47298   0.59589   -2.000
 7174.00    0.54121   0.59705   -2.000
 7175.00    0.61050   0.59800   -2.000
 7176.00    0.68232   0.59868   -2.000
 7177.00    0.71903   0.59901   -2.000
 7178.00    0.68265   0.59912   -2.000
 7179.00    0.63802   0.59915   -2.000
 7180.00    0.57847   0.59926   -2.000
 7181.00    0.51305   0.59927   -2.000
 7182.00    0.43835   0.59934   -2.000
 7183.00    0.46137   0.59962   -2.000
 7184.00    0.62016   0.59972   -2.000
 7185.00    0.67330   0.59968   -2.000
 7186.00    0.59727   0.59953   -2.000
 7187.00    0.56711   0.59923   -2.000
 7188.00    0.58640   0.59902   -2.000
 7189.00    0.52997   0.59859   -2.000
 7190.00    0.40155   0.59817   -2.000
 7191.00    0.41076   0.59817   -2.000
 7192.00    0.53536   0.59827   -2.000
 7193.00    0.58924   0.59857   -2.000
 7194.00    0.59092   0.59900   -2.000
 7195.00    0.55281   0.59941   -2.000
 7196.00    0.48889   0.60000   -2.000
 7197.00    0.52687   0.60021   -2.000
 7198.00    0.62265   0.60006   -2.000
 7199.00    0.54635   0.59990   -2.000
 7200.00    0.38506   0.59984   -2.000
 7201.00    0.21573   0.59979   -2.000
 7202.00    0.04296   0.59947   -2.000
 7203.00    0.14779   0.59918   -2.000
 7204.00    0.35419   0.59895   -2.000
 7205.00    0.51303   0.59876   -2.000
 7206.00    0.65713   0.59846   -2.000
 7207.00    0.68905   0.59791   -2.000
 7208.00    0.69201   0.59778   -2.000
 7209.00    0.65356   0.59784   -2.000
 7210.00    0.60640   0.59810   -2.000
 7211.00    0.57592   0.59889   -2.000
 7212.00    0.54820   0.59980   -2.000
 7213.00    0.40190   0.60125   -2.000
 7214.00    0.24077   0.60309   -2.000
 7215.00    0.34196   0.60497   -2.000
 7216.00    0.46588   0.60703   -2.000
 7217.00    0.52309   0.60902   -2.000
 7218.00    0.57692   0.61090   -2.000
