###################################################################
## OUTPUT of StarlightChains_v04.for    [Cid@UFSC - 01/Apr/2007] ##
###################################################################

## Some input info
KUG0210-078._25_22.txt                   [arq_obs]
Base.CB07.vall.4m                        [arq_base]
Masks.EmLines.NEW.gm                     [arq_masks]
StCv04.C11.config                        [arq_config]
   66                                    [N_base]
    0                                    [N_YAV_components = # of components with extra extinction!]
    0                                    [i_FitPowerLaw (1/0 = Yes/No)]
-9.99                                    [alpha_PowerLaw]
CCM                                      [red_law_option]
 1.458241                                [q_norm = A(l_norm)/A(V)]

## (Re)Sampling Parameters
 3741.00                                 [l_ini (A)]
 7218.00                                 [l_fin (A)]
    1.00                                 [dl    (A)]     (OBS: dl_cushion =    50.00 A)

## Normalization info
 4020.00                                 [l_norm (A) - for base]
 4010.00                                 [llow_norm (A) - window for f_obs]
 4060.00                                 [lupp_norm (A) - window for f_obs]
1.309577E-17                             [fobs_norm (in input units)]

## S/N
 3691.00                                 [llow_SN (A) - window for S/N]
 7268.00                                 [lupp_SN (A) - window for S/N]
   4.915                                 [S/N in S/N window]
   5.089                                 [S/N in norm. window]
   0.016                                 [S/N_err in S/N window]
   0.016                                 [S/N_err in norm. window]
  1.0000                                 [fscale_chi2]

## etc...
    -2007295                             [idum_orig]
  2424                                   [NOl_eff]
  2400                                   [Nl_eff]
    24    NSIGMA                         [Ntot_cliped & clip_method]
  4373390                                [Nglobal_steps]
   7                                     [N_chains]
  50                                     [NEX0s_base = N_base in EX0s-fits]
 0   1   1       25   2.0   2.738E+03    [Clip-Bug, RC-Crash & Burn-In warning-flags, n_censored_weights, wei_nsig_threshold & wei_limit]
    79     78.380     77.830      0.551  [idt_all, wdt_TotTime, wdt_UsrTime & wdt_SysTime (sec)]

## Synthesis Results - Best model ##

 2.93847E-05                             [chi2/Nl_eff]
    19.09238                             [adev (%)]

    99.01787                             [sum-of-x (%)]
 2.59909E-17                             [Flux_tot (units of input spectrum!)]
 7.18441E-13                             [Mini_tot (???)]
 3.65613E-13                             [Mcor_tot (???)]

   0.00                                  [v0_min  (km/s)]
 473.55                                  [vd_min  (km/s)]
 0.5177                                  [AV_min  (mag)]
 0.0000                                  [YAV_min (mag)]

# j     x_j(%)      Mini_j(%)     Mcor_j(%)     age_j(yr)     Z_j      (L/M)_j    YAV?  Mstars   component_j        a/Fe...       SSP_chi2r SSP_adev(%)   SSP_AV   SSP_x(%)
  1      9.0931     3.0368E-02    5.9673E-02    1.000000E+06  0.00400  1.094E-02    0   1.0000   age020_m42            0.0000     2.9229E-05    19.5683   3.1773    85.1411
  2      3.4628     3.1573E-03    6.2036E-03    3.160000E+06  0.00400  4.007E-02    0   0.9999   age045_m42            0.0000     3.0204E-05    19.0385   2.4487    91.4333
  3      0.0000     0.0000E+00    0.0000E+00    5.010000E+06  0.00400  2.539E-02    0   0.9488   age055_m42            0.0000     3.0012E-05    19.2821   2.7731    88.9649
  4      1.4631     2.0403E-03    3.6966E-03    6.610000E+06  0.00400  2.620E-02    0   0.9220   age061_m42            0.0000     3.0652E-05    19.0349   2.3770    91.5898
  5      1.7008     4.7003E-03    8.1852E-03    1.000000E+07  0.00400  1.322E-02    0   0.8862   age070_m42            0.0000     3.1209E-05    19.8883   2.1116    92.5128
  6      0.5890     2.7296E-03    4.5973E-03    1.445000E+07  0.00400  7.883E-03    0   0.8571   age078_m42            0.0000     3.0914E-05    19.9514   2.4419    90.1375
  7      0.0000     0.0000E+00    0.0000E+00    2.512000E+07  0.00400  5.251E-03    0   0.8174   age090_m42            0.0000     3.1495E-05    20.0709   1.9815    92.8733
  8      1.0069     1.0081E-02    1.5553E-02    4.000000E+07  0.00400  3.649E-03    0   0.7851   age104_m42            0.0000     3.1395E-05    19.8227   1.7463    93.9206
  9      0.6681     7.8794E-03    1.1812E-02    5.500000E+07  0.00400  3.098E-03    0   0.7629   age110_m42            0.0000     3.1670E-05    19.3035   1.8942    94.4280
 10      0.0000     0.0000E+00    0.0000E+00    1.015200E+08  0.00400  2.228E-03    0   0.7207   age116_m42            0.0000     3.2238E-05    18.9605   1.9098    94.9617
 11      0.3167     1.0585E-02    1.3828E-02    2.861200E+08  0.00400  1.093E-03    0   0.6648   age125_m42            0.0000     3.3988E-05    19.4220   1.3711    97.7404
 12      1.7823     9.8710E-02    1.2346E-01    5.088000E+08  0.00400  6.597E-04    0   0.6365   age130_m42            0.0000     3.4155E-05    18.6842   1.3438    99.0566
 13      0.0988     1.6935E-02    1.9295E-02    1.434000E+09  0.00400  2.132E-04    0   0.5798   age139_m42            0.0000     3.1813E-05    17.9099   0.3252   101.7372
 14      3.7303     2.3119E+00    2.4428E+00    4.250000E+09  0.00400  5.895E-05    0   0.5377   age158_m42            0.0000     2.8364E-05    17.4094  -0.1387    98.9188
 15      0.8996     9.3636E-01    9.5900E-01    7.500000E+09  0.00400  3.510E-05    0   0.5212   age171_m42            0.0000     2.7935E-05    17.2212  -0.3329    98.6400
 16      1.9037     3.4689E+00    3.4314E+00    1.300000E+10  0.00400  2.005E-05    0   0.5034   age193_m42            0.0000     2.7692E-05    17.1221  -0.5035    98.5118
 17      3.1056     7.4404E+00    7.2620E+00    1.800000E+10  0.00400  1.525E-05    0   0.4967   age213_m42            0.0000     2.7705E-05    17.1421  -0.5228    98.0057
 18      0.0000     0.0000E+00    0.0000E+00    1.000000E+06  0.00800  1.238E-02    0   1.0000   age020_m52            0.0000     2.9210E-05    19.5416   3.1737    85.2860
 19      2.9251     3.4766E-03    6.8083E-03    3.160000E+06  0.00800  3.074E-02    0   0.9966   age045_m52            0.0000     2.9362E-05    19.4684   3.0941    86.0606
 20      0.0000     0.0000E+00    0.0000E+00    5.010000E+06  0.00800  2.668E-02    0   0.9443   age055_m52            0.0000     2.9789E-05    19.3266   2.8529    88.0591
 21      0.8048     1.3767E-03    2.4825E-03    6.610000E+06  0.00800  2.136E-02    0   0.9177   age061_m52            0.0000     2.9212E-05    19.5439   1.5950    93.7219
 22      0.4480     1.3472E-03    2.3368E-03    1.000000E+07  0.00800  1.215E-02    0   0.8827   age070_m52            0.0000     3.1607E-05    20.3523   2.3022    92.0815
 23      0.0000     0.0000E+00    0.0000E+00    1.445000E+07  0.00800  8.717E-03    0   0.8552   age078_m52            0.0000     3.1088E-05    19.9054   2.4021    91.4984
 24      0.8511     5.5605E-03    8.9182E-03    2.512000E+07  0.00800  5.592E-03    0   0.8162   age090_m52            0.0000     3.1931E-05    20.1270   2.0459    94.0888
 25      0.9277     8.6998E-03    1.3404E-02    4.000000E+07  0.00800  3.896E-03    0   0.7841   age104_m52            0.0000     3.2012E-05    19.8294   1.9549    95.1541
 26      0.5063     8.6122E-03    1.2229E-02    1.015200E+08  0.00800  2.148E-03    0   0.7226   age116_m52            0.0000     3.2011E-05    19.1719   1.8824    95.4946
 27      2.6081     9.6009E-02    1.2608E-01    2.861200E+08  0.00800  9.925E-04    0   0.6683   age125_m52            0.0000     3.3618E-05    18.5377   1.3923    99.9508
 28      1.1771     1.3692E-01    1.6515E-01    9.047900E+08  0.00800  3.141E-04    0   0.6138   age135_m52            0.0000     3.2230E-05    17.5472   0.5623   105.5360
 29      0.3841     8.1647E-02    9.3905E-02    1.434000E+09  0.00800  1.719E-04    0   0.5853   age139_m52            0.0000     3.0660E-05    17.5721  -0.0204   103.7868
 30      0.2839     1.3174E-01    1.4497E-01    2.500000E+09  0.00800  7.872E-05    0   0.5600   age150_m52            0.0000     2.8556E-05    17.0743  -0.3262   101.9356
 31      1.9954     1.6814E+00    1.7927E+00    4.250000E+09  0.00800  4.336E-05    0   0.5426   age158_m52            0.0000     2.8123E-05    17.0416  -0.3392   100.9932
 32      0.0005     6.1127E-04    6.3890E-04    6.250000E+09  0.00800  3.159E-05    0   0.5319   age166_m52            0.0000     2.8257E-05    16.8781  -0.5577   101.7452
 33      0.4234     1.1365E+00    1.1330E+00    1.300000E+10  0.00800  1.361E-05    0   0.5073   age193_m52            0.0000     2.8840E-05    16.4010  -1.0000    99.3163
 34      1.2702     4.6943E+00    4.6030E+00    1.800000E+10  0.00800  9.886E-06    0   0.4990   age213_m52            0.0000     3.0790E-05    15.5342  -1.0000    93.6840
 35      1.1054     2.6157E-03    5.1399E-03    1.000000E+06  0.02000  1.544E-02    0   1.0000   age020_m62            0.0000     2.9234E-05    19.5394   3.1700    85.4696
 36      0.0000     0.0000E+00    0.0000E+00    3.160000E+06  0.02000  3.762E-02    0   0.9858   age045_m62            0.0000     2.9383E-05    19.5044   3.1102    86.2108
 37      0.0000     0.0000E+00    0.0000E+00    5.010000E+06  0.02000  3.296E-02    0   0.9342   age055_m62            0.0000     3.0121E-05    19.0364   2.7228    90.3176
 38      2.7720     8.7763E-03    1.5281E-02    8.710000E+06  0.02000  1.154E-02    0   0.8861   age067_m62            0.0000     3.5321E-05    23.3733   1.7901    92.8280
 39      0.0000     0.0000E+00    0.0000E+00    1.445000E+07  0.02000  7.663E-03    0   0.8472   age078_m62            0.0000     3.2719E-05    21.2654   1.9659    93.8033
 40      0.0000     0.0000E+00    0.0000E+00    2.512000E+07  0.02000  4.532E-03    0   0.8099   age090_m62            0.0000     3.3688E-05    21.5027   1.9631    93.5702
 41      0.0000     0.0000E+00    0.0000E+00    5.500000E+07  0.02000  2.733E-03    0   0.7595   age110_m62            0.0000     3.1973E-05    19.7969   1.9372    94.4176
 42      3.8389     1.0245E-01    1.4062E-01    1.609000E+08  0.02000  1.369E-03    0   0.6985   age120_m62            0.0000     3.3202E-05    18.8782   1.7599    97.8349
 43      3.8030     1.5416E-01    2.0339E-01    2.861200E+08  0.02000  9.013E-04    0   0.6714   age125_m62            0.0000     3.4390E-05    18.2901   1.4945   101.0389
 44      0.8498     6.1751E-02    7.8254E-02    5.088000E+08  0.02000  5.028E-04    0   0.6449   age130_m62            0.0000     3.3985E-05    17.5143   1.0956   104.8379
 45      4.1117     6.1872E-01    7.5124E-01    9.047900E+08  0.02000  2.428E-04    0   0.6179   age135_m62            0.0000     3.0586E-05    17.1574   0.4806   105.3260
 46      1.0493     3.0353E-01    3.5239E-01    1.434000E+09  0.02000  1.263E-04    0   0.5908   age139_m62            0.0000     2.8723E-05    17.0486   0.0181   104.2768
 47      1.8271     1.1153E+00    1.2433E+00    2.500000E+09  0.02000  5.985E-05    0   0.5673   age150_m62            0.0000     2.7928E-05    16.9389  -0.3709   103.9175
 48      0.0000     0.0000E+00    0.0000E+00    4.250000E+09  0.02000  3.271E-05    0   0.5468   age158_m62            0.0000     2.8591E-05    16.9254  -0.6977   104.0001
 49      0.8749     2.3503E+00    2.3864E+00    1.000000E+10  0.02000  1.360E-05    0   0.5167   age181_m62            0.0000     3.0554E-05    16.3274  -1.0000   101.1955
 50      1.5881     8.1444E+00    8.0228E+00    1.800000E+10  0.02000  7.124E-06    0   0.5013   age213_m62            0.0000     3.5308E-05    15.0382  -1.0000    90.4079
 51      4.3820     6.1766E-03    1.2135E-02    1.000000E+06  0.05000  2.592E-02    0   0.9998   age020_m72            0.0000     2.9299E-05    19.5721   3.1627    85.3552
 52      0.0000     0.0000E+00    0.0000E+00    3.160000E+06  0.05000  4.845E-02    0   0.9577   age045_m72            0.0000     2.9695E-05    19.2970   2.9878    87.6100
 53      4.4225     5.2598E-03    9.4540E-03    5.010000E+06  0.05000  3.072E-02    0   0.9147   age055_m72            0.0000     3.2233E-05    20.8252   2.5647    90.7334
 54      0.9443     2.3713E-03    4.1364E-03    6.610000E+06  0.05000  1.455E-02    0   0.8877   age061_m72            0.0000     4.6809E-05    26.8967   1.9476    94.1884
 55      0.0000     0.0000E+00    0.0000E+00    1.000000E+07  0.05000  9.074E-03    0   0.8524   age070_m72            0.0000     3.4493E-05    21.8885   2.7863    90.7320
 56      1.1438     9.8329E-03    1.5268E-02    2.512000E+07  0.05000  4.250E-03    0   0.7902   age090_m72            0.0000     3.4317E-05    21.1392   2.4574    92.5825
 57      0.2008     2.3768E-03    3.5580E-03    4.000000E+07  0.05000  3.087E-03    0   0.7618   age104_m72            0.0000     3.5552E-05    21.2700   2.2322    94.1591
 58      2.3589     5.0697E-02    7.0691E-02    1.015200E+08  0.05000  1.700E-03    0   0.7096   age116_m72            0.0000     3.4018E-05    19.3937   1.9194    97.1693
 59      2.9081     1.4389E-01    1.8755E-01    2.861200E+08  0.05000  7.384E-04    0   0.6633   age125_m72            0.0000     3.4509E-05    17.8130   1.3466   103.1130
 60      0.0000     0.0000E+00    0.0000E+00    5.088000E+08  0.05000  3.819E-04    0   0.6372   age130_m72            0.0000     3.1959E-05    17.2686   0.8149   106.0240
 61      4.4435     9.6865E-01    1.1630E+00    9.047900E+08  0.05000  1.676E-04    0   0.6110   age135_m72            0.0000     2.8720E-05    17.0319   0.0751   105.8040
 62      0.2004     8.2847E-02    9.5627E-02    1.434000E+09  0.05000  8.837E-05    0   0.5874   age139_m72            0.0000     2.8365E-05    16.8655  -0.3805   105.7676
 63      0.0000     0.0000E+00    0.0000E+00    2.500000E+09  0.05000  4.233E-05    0   0.5598   age150_m72            0.0000     2.8837E-05    16.9477  -0.7089   105.4524
 64      3.3379     8.4984E+00    8.7656E+00    6.250000E+09  0.05000  1.435E-05    0   0.5249   age166_m72            0.0000     3.1883E-05    15.6478  -1.0000    95.8252
 65      5.2794     2.9616E+01    2.9307E+01    1.300000E+10  0.05000  6.513E-06    0   0.5036   age193_m72            0.0000     4.0421E-05    14.8319  -1.0000    84.2816
 66      3.1495     2.5419E+01    2.4700E+01    1.800000E+10  0.05000  4.527E-06    0   0.4945   age213_m72            0.0000     4.7048E-05    15.1447  -1.0000    77.6419


## Synthesis Results - Average & Chains ##

# j      x_j: min, <> & last-chain-values for 1 ...  7 chains
  1      9.0931      8.8382      8.1372      8.8327      8.5442      8.8530      8.8220      8.9501      8.8011
  2      3.4628      3.7740      3.5097      3.2260      3.4317      3.4843      3.6914      3.9364      3.4678
  3      0.0000      0.0678      0.5104      0.0765      0.0199      0.1813      0.0000      0.2282      0.0939
  4      1.4631      1.2952      1.9787      1.4288      1.1056      1.1425      1.3465      1.2969      1.1927
  5      1.7008      1.9314      2.2810      1.4789      1.7857      2.3487      1.8143      1.9943      1.9856
  6      0.5890      0.7298      0.7355      0.6176      0.7685      0.6611      0.7915      0.3957      1.0125
  7      0.0000      0.1217      0.1187      0.0000      0.0000      0.0000      0.2153      0.0000      0.0000
  8      1.0069      0.9893      0.2068      1.2737      1.2844      0.8548      0.5238      0.8950      0.8539
  9      0.6681      1.1008      1.1554      1.1292      1.1735      1.1280      0.8705      1.0896      0.8156
 10      0.0000      0.2370      0.1876      0.4011      0.0708      0.1429      0.0000      1.0196      0.2361
 11      0.3167      0.4951      0.2710      0.5043      0.4817      0.7969      0.7869      0.4663      1.0167
 12      1.7823      1.7268      2.3215      2.0940      1.7475      1.5052      1.2428      1.5755      1.2097
 13      0.0988      1.3435      0.6362      0.8697      0.0000      1.0838      1.0548      0.9582      1.0119
 14      3.7303      3.2102      3.3094      3.6429      3.1544      3.1521      3.1060      2.9400      3.3828
 15      0.8996      0.1801      0.0792      0.0577      0.8913      0.5612      0.0000      0.3258      0.3098
 16      1.9037      1.8087      1.8208      1.8647      1.6293      1.7905      1.8687      1.5655      1.7136
 17      3.1056      3.4733      3.4647      3.4770      3.4779      3.2700      3.5773      3.2205      3.7392
 18      0.0000      0.2354      0.3321      0.0000      0.1774      0.3572      0.1808      0.1139      0.1941
 19      2.9251      2.8925      2.9179      2.5805      2.8619      3.0687      2.8428      3.1396      2.9077
 20      0.0000      0.0903      0.0000      0.0000      0.0603      0.0000      0.0000      0.0000      0.2563
 21      0.8048      1.1273      1.1935      0.9123      0.7643      0.1239      0.8613      0.7900      0.8492
 22      0.4480      0.6971      0.7985      0.7384      0.4738      0.7990      0.6497      0.6354      0.5407
 23      0.0000      0.0874      0.0000      0.1298      0.2192      0.0589      0.0000      0.3555      0.1186
 24      0.8511      0.7268      0.8310      0.5545      0.8690      0.9721      0.4377      0.7942      0.7490
 25      0.9277      0.5351      0.6456      0.5128      0.4145      0.6491      0.6431      0.5344      1.4753
 26      0.5063      0.2644      0.4391      0.1948      0.3316      0.1858      0.6854      0.0000      0.5075
 27      2.6081      2.3598      2.5589      2.2507      2.5081      1.7880      2.4488      1.9679      2.4366
 28      1.1771      0.9840      0.7074      1.3304      2.8539      0.6379      1.6056      1.1961      0.4185
 29      0.3841      0.6051      0.6351      0.7414      0.5781      0.4470      0.2114      0.9262      0.4047
 30      0.2839      1.0190      1.0007      0.7948      0.9376      1.1607      0.9463      1.1095      0.9744
 31      1.9954      1.6366      1.6927      1.7894      1.2951      1.5438      1.6494      1.0551      1.6649
 32      0.0005      0.0897      0.0000      0.0000      0.0953      0.0127      0.3114      0.4029      0.2920
 33      0.4234      0.2667      0.2375      0.2947      0.3119      0.2133      0.2937      0.3921      0.4463
 34      1.2702      1.3580      1.4674      1.3378      1.3440      1.2424      1.3685      1.4361      1.3726
 35      1.1054      1.0199      1.0860      0.8389      1.0926      1.1879      1.0760      0.7832      1.1793
 36      0.0000      0.0781      0.2313      0.0000      0.0000      0.0000      0.1367      0.0000      0.1108
 37      0.0000      0.2310      0.0469      0.3091      0.0171      0.0849      0.2174      0.2394      0.0906
 38      2.7720      2.5539      2.0300      2.4920      2.6714      2.8086      2.0002      2.6132      2.5311
 39      0.0000      0.3056      0.4169      0.3488      0.0169      0.3237      0.7186      0.0000      0.0000
 40      0.0000      0.1515      0.0125      0.2811      0.0000      0.1434      0.3229      0.0000      0.2851
 41      0.0000      0.2728      0.1862      0.2507      0.4364      0.9910      0.0000      0.3343      0.0000
 42      3.8389      3.8241      3.7809      3.7754      3.4987      3.9761      3.7969      3.6749      3.7513
 43      3.8030      4.3607      4.5312      4.4597      4.3823      4.2170      4.3635      4.4522      4.4375
 44      0.8498      0.5771      0.0000      0.7393      1.2173      0.3461      0.9038      0.5693      0.3541
 45      4.1117      1.7185      3.0796      3.3299      2.3655      1.7573      1.9818      2.3892      2.6033
 46      1.0493      0.5568      0.1902      0.3217      0.8148      0.7338      0.5211      0.0000      0.3951
 47      1.8271      2.0240      1.8953      1.7998      2.3297      2.0300      1.9219      1.8863      1.6492
 48      0.0000      0.2391      0.0000      0.1066      0.0000      0.0000      0.4566      0.0321      0.2000
 49      0.8749      1.0363      1.1203      0.9855      1.0106      1.0270      0.9887      1.2132      1.0263
 50      1.5881      1.7526      1.6204      1.6511      1.9423      1.7876      1.6975      1.7968      1.7950
 51      4.3820      4.8010      4.7640      4.4471      4.8526      4.5838      4.7740      4.8679      4.8384
 52      0.0000      0.0817      0.0288      0.2894      0.1245      0.0000      0.0436      0.0684      0.0990
 53      4.4225      4.5934      4.5310      4.6076      4.4505      4.5723      5.0410      4.9139      4.3657
 54      0.9443      1.5890      1.3240      1.8106      1.9453      1.7428      1.6434      1.9261      1.4957
 55      0.0000      0.1013      0.4175      0.0000      0.2222      0.0542      0.1516      0.0905      0.0000
 56      1.1438      0.6593      0.4961      0.7049      0.8664      0.5619      0.5214      0.7122      0.9062
 57      0.2008      0.2134      0.1870      0.3494      0.0394      0.3893      0.1789      0.0000      0.5023
 58      2.3589      1.3983      1.5269      0.9890      1.5995      0.9079      1.4223      1.3792      1.3438
 59      2.9081      3.7515      3.9312      4.0604      3.8025      4.2390      3.9256      3.8251      3.6520
 60      0.0000      0.4857      0.4342      0.2104      0.0293      0.0000      0.2425      0.0000      0.0000
 61      4.4435      1.2329      1.6752      2.1403      1.1088      3.2130      2.1394      1.7371      1.9978
 62      0.2004      0.3710      0.3572      0.3167      0.0000      0.8496      0.2629      0.3097      0.4984
 63      0.0000      0.0993      0.2548      0.0000      0.0478      0.0516      0.2412      0.7161      0.1667
 64      3.3379      3.5120      3.6219      3.4380      3.4712      3.4514      3.4372      3.3323      3.5743
 65      5.2794      5.9106      5.9048      5.9000      5.8212      5.6032      5.9058      5.9881      5.6110
 66      3.1495      3.4419      3.4377      3.1602      3.3165      3.4101      3.3191      3.4400      3.2290

# j      m_j: min, <> & last-chain-values for 1 ...  7 chains
  1  5.9673E-02  5.4367E-02  5.0137E-02  5.5857E-02  5.2901E-02  5.5766E-02  5.4618E-02  5.4874E-02  5.4987E-02
  2  6.2036E-03  6.3377E-03  5.9035E-03  5.5693E-03  5.8003E-03  5.9918E-03  6.2391E-03  6.5886E-03  5.9146E-03
  3  0.0000E+00  1.7051E-04  1.2857E-03  1.9774E-04  5.0480E-05  4.6695E-04  0.0000E+00  5.7190E-04  2.3971E-04
  4  3.6966E-03  3.0673E-03  4.6935E-03  3.4785E-03  2.6354E-03  2.7706E-03  3.2095E-03  3.0613E-03  2.8688E-03
  5  8.1852E-03  8.7130E-03  1.0307E-02  6.8585E-03  8.1081E-03  1.0850E-02  8.2375E-03  8.9670E-03  9.0977E-03
  6  4.5973E-03  5.3400E-03  5.3902E-03  4.6453E-03  5.6596E-03  4.9531E-03  5.8285E-03  2.8856E-03  7.5246E-03
  7  0.0000E+00  1.2745E-03  1.2456E-03  0.0000E+00  0.0000E+00  0.0000E+00  2.2699E-03  0.0000E+00  0.0000E+00
  8  1.5553E-02  1.4324E-02  2.9987E-03  1.8959E-02  1.8719E-02  1.2674E-02  7.6333E-03  1.2916E-02  1.2557E-02
  9  1.1812E-02  1.8242E-02  1.9178E-02  1.9237E-02  1.9574E-02  1.9142E-02  1.4519E-02  1.7997E-02  1.3727E-02
 10  0.0000E+00  5.1597E-03  4.0906E-03  8.9757E-03  1.5513E-03  3.1847E-03  0.0000E+00  2.2121E-02  5.2208E-03
 11  1.3828E-02  2.0266E-02  1.1111E-02  2.1221E-02  1.9843E-02  3.3404E-02  3.2416E-02  1.9025E-02  4.2267E-02
 12  1.2346E-01  1.1212E-01  1.5098E-01  1.3977E-01  1.1420E-01  1.0008E-01  8.1219E-02  1.0196E-01  7.9778E-02
 13  1.9295E-02  2.4588E-01  1.1663E-01  1.6364E-01  0.0000E+00  2.0311E-01  1.9428E-01  1.7478E-01  1.8808E-01
 14  2.4428E+00  1.9705E+00  2.0347E+00  2.2988E+00  1.9489E+00  1.9813E+00  1.9189E+00  1.7987E+00  2.1090E+00
 15  9.5900E-01  1.7994E-01  7.9287E-02  5.9312E-02  8.9650E-01  5.7422E-01  0.0000E+00  3.2448E-01  3.1440E-01
 16  3.4314E+00  3.0560E+00  3.0814E+00  3.2389E+00  2.7708E+00  3.0979E+00  3.1778E+00  2.6363E+00  2.9407E+00
 17  7.2620E+00  7.6131E+00  7.6066E+00  7.8349E+00  7.6726E+00  7.3396E+00  7.8916E+00  7.0357E+00  8.3242E+00
 18  0.0000E+00  1.2798E-03  1.8081E-03  0.0000E+00  9.7045E-04  1.9881E-03  9.8938E-04  6.1718E-04  1.0717E-03
 19  6.8083E-03  6.3106E-03  6.3765E-03  5.7879E-03  6.2847E-03  6.8559E-03  6.2425E-03  6.8272E-03  6.4431E-03
 20  0.0000E+00  2.1517E-04  0.0000E+00  0.0000E+00  1.4451E-04  0.0000E+00  0.0000E+00  0.0000E+00  6.2011E-04
 21  2.4825E-03  3.2595E-03  3.4564E-03  2.7115E-03  2.2240E-03  3.6674E-04  2.5065E-03  2.2766E-03  2.4937E-03
 22  2.3368E-03  3.4084E-03  3.9105E-03  3.7114E-03  2.3315E-03  4.0000E-03  3.1968E-03  3.0962E-03  2.6851E-03
 23  0.0000E+00  5.7697E-04  0.0000E+00  8.8103E-04  1.4565E-03  3.9798E-04  0.0000E+00  2.3394E-03  7.9533E-04
 24  8.9182E-03  7.1393E-03  8.1762E-03  5.5988E-03  8.5912E-03  9.7773E-03  4.3275E-03  7.7750E-03  7.4719E-03
 25  1.3404E-02  7.2476E-03  8.7588E-03  7.1406E-03  5.6510E-03  9.0020E-03  8.7662E-03  7.2144E-03  2.0294E-02
 26  1.2229E-02  5.9856E-03  9.9565E-03  4.5331E-03  7.5562E-03  4.3077E-03  1.5616E-02  0.0000E+00  1.1668E-02
 27  1.2608E-01  1.0693E-01  1.1614E-01  1.0485E-01  1.1439E-01  8.2969E-02  1.1168E-01  8.8878E-02  1.1214E-01
 28  1.6515E-01  1.2941E-01  9.3186E-02  1.7987E-01  3.7776E-01  8.5908E-02  2.1251E-01  1.5678E-01  5.5897E-02
 29  9.3905E-02  1.3865E-01  1.4576E-01  1.7464E-01  1.3332E-01  1.0488E-01  4.8748E-02  2.1152E-01  9.4174E-02
 30  1.4497E-01  4.8784E-01  4.7985E-01  3.9119E-01  4.5180E-01  5.6903E-01  4.5596E-01  5.2942E-01  4.7379E-01
 31  1.7927E+00  1.3783E+00  1.4278E+00  1.5491E+00  1.0977E+00  1.3313E+00  1.3980E+00  8.8565E-01  1.4240E+00
 32  6.3890E-04  1.0163E-01  0.0000E+00  0.0000E+00  1.0865E-01  1.4788E-02  3.5509E-01  4.5508E-01  3.3608E-01
 33  1.1330E+00  6.6891E-01  5.9680E-01  7.5997E-01  7.8755E-01  5.4795E-01  7.4136E-01  9.8024E-01  1.1370E+00
 34  4.6030E+00  4.6129E+00  4.9926E+00  4.6716E+00  4.5951E+00  4.3217E+00  4.6786E+00  4.8620E+00  4.7354E+00
 35  5.1399E-03  4.4453E-03  4.7413E-03  3.7589E-03  4.7932E-03  5.3019E-03  4.7200E-03  3.4024E-03  5.2203E-03
 36  0.0000E+00  1.3777E-04  4.0860E-04  0.0000E+00  0.0000E+00  0.0000E+00  2.4266E-04  0.0000E+00  1.9840E-04
 37  0.0000E+00  4.4055E-04  8.9524E-05  6.0615E-04  3.2856E-05  1.6590E-04  4.1730E-04  4.5511E-04  1.7557E-04
 38  1.5281E-02  1.3197E-02  1.0507E-02  1.3238E-02  1.3894E-02  1.4862E-02  1.0403E-02  1.3459E-02  1.3284E-02
 39  0.0000E+00  2.2734E-03  3.1069E-03  2.6676E-03  1.2649E-04  2.4662E-03  5.3808E-03  0.0000E+00  0.0000E+00
 40  0.0000E+00  1.8221E-03  1.5079E-04  3.4751E-03  0.0000E+00  1.7661E-03  3.9081E-03  0.0000E+00  3.4823E-03
 41  0.0000E+00  5.1016E-03  3.4877E-03  4.8201E-03  8.2144E-03  1.8979E-02  0.0000E+00  6.2313E-03  0.0000E+00
 42  1.4062E-01  1.3130E-01  1.3003E-01  1.3327E-01  1.2092E-01  1.3980E-01  1.3122E-01  1.2577E-01  1.3082E-01
 43  2.0339E-01  2.1860E-01  2.2752E-01  2.2983E-01  2.2112E-01  2.1648E-01  2.2016E-01  2.2246E-01  2.2594E-01
 44  7.8254E-02  4.9811E-02  0.0000E+00  6.5599E-02  1.0576E-01  3.0588E-02  7.8516E-02  4.8974E-02  3.1041E-02
 45  7.5124E-01  2.9431E-01  5.2828E-01  5.8627E-01  4.0775E-01  3.0818E-01  3.4160E-01  4.0784E-01  4.5282E-01
 46  3.5239E-01  1.7528E-01  5.9970E-02  1.0412E-01  2.5818E-01  2.3656E-01  1.6509E-01  0.0000E+00  1.2631E-01
 47  1.2433E+00  1.2911E+00  1.2109E+00  1.1802E+00  1.4957E+00  1.3260E+00  1.2339E+00  1.1993E+00  1.0685E+00
 48  0.0000E+00  2.6896E-01  0.0000E+00  1.2333E-01  0.0000E+00  0.0000E+00  5.1703E-01  3.5996E-02  2.2852E-01
 49  2.3864E+00  2.6495E+00  2.8690E+00  2.5903E+00  2.6007E+00  2.6887E+00  2.5443E+00  3.0916E+00  2.6651E+00
 50  8.0228E+00  8.2996E+00  7.6859E+00  8.0381E+00  9.2576E+00  8.6685E+00  8.0902E+00  8.4807E+00  8.6332E+00
 51  1.2135E-02  1.2462E-02  1.2386E-02  1.1867E-02  1.2678E-02  1.2184E-02  1.2472E-02  1.2594E-02  1.2756E-02
 52  0.0000E+00  1.0874E-04  3.8309E-05  3.9575E-04  1.6668E-04  0.0000E+00  5.8372E-05  9.0734E-05  1.3378E-04
 53  9.4540E-03  9.2041E-03  9.0940E-03  9.4915E-03  8.9757E-03  9.3819E-03  1.0166E-02  9.8139E-03  8.8848E-03
 54  4.1364E-03  6.5242E-03  5.4450E-03  7.6421E-03  8.0388E-03  7.3273E-03  6.7909E-03  7.8822E-03  6.2372E-03
 55  0.0000E+00  6.4047E-04  2.6436E-03  0.0000E+00  1.4139E-03  3.5077E-04  9.6479E-04  5.7053E-04  0.0000E+00
 56  1.5268E-02  8.2490E-03  6.2176E-03  9.0667E-03  1.0911E-02  7.1997E-03  6.5666E-03  8.8823E-03  1.1516E-02
 57  3.5580E-03  3.5444E-03  3.1104E-03  5.9654E-03  6.5838E-04  6.6197E-03  2.9900E-03  0.0000E+00  8.4719E-03
 58  7.0691E-02  3.9279E-02  4.2962E-02  2.8559E-02  4.5222E-02  2.6116E-02  4.0210E-02  3.8613E-02  3.8339E-02
 59  1.8755E-01  2.2679E-01  2.3804E-01  2.5234E-01  2.3136E-01  2.6241E-01  2.3884E-01  2.3047E-01  2.2422E-01
 60  0.0000E+00  5.4534E-02  4.8829E-02  2.4291E-02  3.3138E-03  0.0000E+00  2.7401E-02  0.0000E+00  0.0000E+00
 61  1.1630E+00  3.0248E-01  4.1164E-01  5.3981E-01  2.7381E-01  8.0719E-01  5.2826E-01  4.2475E-01  4.9780E-01
 62  9.5627E-02  1.6598E-01  1.6005E-01  1.4563E-01  0.0000E+00  3.8917E-01  1.1837E-01  1.3808E-01  2.2643E-01
 63  0.0000E+00  8.8395E-02  2.2715E-01  0.0000E+00  4.2773E-02  4.7054E-02  2.1609E-01  6.3520E-01  1.5072E-01
 64  8.7656E+00  8.6450E+00  8.9302E+00  8.7002E+00  8.6004E+00  8.7001E+00  8.5156E+00  8.1757E+00  8.9361E+00
 65  2.9307E+01  3.0755E+01  3.0776E+01  3.1562E+01  3.0488E+01  2.9856E+01  3.0929E+01  3.1056E+01  2.9654E+01
 66  2.4700E+01  2.5301E+01  2.5312E+01  2.3882E+01  2.4538E+01  2.5670E+01  2.4556E+01  2.5204E+01  2.4108E+01

# AV, chi2 & Mass for <> & i_chain = 1 ...  7 solutions
AV       0.5177      0.5081      0.5085      0.5083      0.5091      0.5101      0.5036      0.5083      0.5116
chi2 2.9385E-05  2.9585E-05  2.9570E-05  2.9754E-05  2.9548E-05  2.9492E-05  2.9500E-05  2.9778E-05  3.0223E-05
Mass 3.6561E-13  3.8503E-13  3.8461E-13  3.7464E-13  3.8308E-13  3.7700E-13  3.8024E-13  3.8642E-13  3.8092E-13
   0.00                                  [v0_min (km/s) before EX0s...]
 473.55                                  [vd_min (km/s) before EX0s...]


## Synthetic spectrum (Best Model) ##l_obs f_obs f_syn wei
 3478    [Nl_obs]
 3741.00    0.18162   0.63564    0.000
 3742.00   -0.06828   0.63569    0.000
 3743.00   -0.18087   0.63496    0.000
 3744.00   -0.08286   0.63429    0.000
 3745.00    0.13786   0.63338    0.041
 3746.00    0.61230   0.63207    0.042
 3747.00    1.21558   0.63216    0.045
 3748.00    1.20927   0.63163    0.048
 3749.00    0.93489   0.63212    0.053
 3750.00    1.29998   0.63439    0.053
 3751.00    1.90648   0.63912    0.051
 3752.00    1.96388   0.64534    0.047
 3753.00    1.84529   0.65141    0.044
 3754.00    1.67640   0.65887    0.043
 3755.00    1.49402   0.66614    0.042
 3756.00    1.37276   0.67292    0.042
 3757.00    1.26492   0.67825    0.042
 3758.00    0.84852   0.68265    0.041
 3759.00    0.37827   0.68660    0.039
 3760.00    0.23307   0.68934    0.044
 3761.00    0.13105   0.69041    0.052
 3762.00    0.18889   0.68966    0.045
 3763.00    0.26175   0.68739    0.038
 3764.00   -0.03679   0.68440    0.000
 3765.00   -0.35676   0.68225    0.000
 3766.00   -0.41760   0.67969    0.000
 3767.00   -0.46791   0.67783    0.000
 3768.00    0.01288   0.67760    0.037
 3769.00    0.47293   0.67846    0.036
 3770.00    0.42934   0.68035    0.035
 3771.00    0.40795   0.68469    0.034
 3772.00    0.67745   0.69280    0.036
 3773.00    0.91789   0.70197    0.037
 3774.00    0.90327   0.71177    0.037
 3775.00    0.84044   0.72261    0.037
 3776.00    0.46507   0.73399    0.036
 3777.00    0.22771   0.74601    0.035
 3778.00    0.68884   0.75669    0.036
 3779.00    1.05116   0.76662    0.037
 3780.00    1.00910   0.77511    0.038
 3781.00    0.87990   0.78029    0.039
 3782.00    0.45517   0.78352    0.038
 3783.00    0.14246   0.78421    0.037
 3784.00    0.15012   0.78311    0.038
 3785.00    0.33035   0.77879    0.038
 3786.00    0.93219   0.77085    0.040
 3787.00    1.22140   0.76196    0.042
 3788.00    0.85168   0.75126    0.042
 3789.00    0.63941   0.73930    0.041
 3790.00    0.71555   0.72621    0.040
 3791.00    0.77128   0.71318    0.039
 3792.00    0.79434   0.70051    0.039
 3793.00    0.76985   0.68823    0.038
 3794.00    0.67858   0.67790    0.038
 3795.00    0.77327   0.67003    0.038
 3796.00    1.09782   0.66517    0.039
 3797.00    1.02277   0.66194    0.038
 3798.00    0.51235   0.66182    0.037
 3799.00    0.60368   0.66577    0.038
 3800.00    1.27328   0.67305    0.042
 3801.00    1.37310   0.68237    0.043
 3802.00    0.99010   0.69265    0.040
 3803.00    0.63752   0.70520    0.038
 3804.00    0.30762   0.71825    0.036
 3805.00    0.51427   0.73125    0.036
 3806.00    1.07265   0.74330    0.038
 3807.00    1.24540   0.75396    0.039
 3808.00    1.19685   0.76404    0.039
 3809.00    1.02906   0.77228    0.039
 3810.00    0.80165   0.77869    0.038
 3811.00    0.84753   0.78291    0.042
 3812.00    1.01157   0.78485    0.048
 3813.00    1.08835   0.78461    0.044
 3814.00    1.13277   0.78276    0.037
 3815.00    0.78946   0.77994    0.034
 3816.00    0.32426   0.77637    0.033
 3817.00    0.21344   0.77211    0.034
 3818.00    0.19558   0.76619    0.036
 3819.00    0.49768   0.75753    0.036
 3820.00    0.86834   0.74844    0.035
 3821.00    0.88075   0.74069    0.035
 3822.00    0.83235   0.73245    0.035
 3823.00    0.65687   0.72271    0.035
 3824.00    0.46509   0.71038    0.035
 3825.00    0.72016   0.69763    0.035
 3826.00    1.01535   0.68563    0.036
 3827.00    0.66084   0.67284    0.036
 3828.00    0.27140   0.66010    0.037
 3829.00    0.21677   0.64725    0.036
 3830.00    0.16927   0.63523    0.036
 3831.00    0.15662   0.62501    0.035
 3832.00    0.16229   0.61574    0.035
 3833.00    0.57483   0.60897    0.035
 3834.00    0.93923   0.60511    0.036
 3835.00    0.70509   0.60381    0.035
 3836.00    0.48703   0.60680    0.035
 3837.00    0.40495   0.61301    0.035
 3838.00    0.36592   0.62123    0.036
 3839.00    0.59770   0.63245    0.036
 3840.00    0.77989   0.64535    0.036
 3841.00    0.71732   0.66036    0.035
 3842.00    0.68957   0.67739    0.034
 3843.00    0.80122   0.69375    0.035
 3844.00    0.84178   0.70983    0.036
 3845.00    0.64600   0.72488    0.036
 3846.00    0.48186   0.73923    0.035
 3847.00    0.40656   0.75334    0.000
 3848.00    0.41686   0.76501    0.000
 3849.00    0.63272   0.77449    0.000
 3850.00    0.73606   0.78224    0.000
 3851.00    0.60604   0.78929    0.000
 3852.00    0.49992   0.79595    0.000
 3853.00    0.43691   0.80016    0.000
 3854.00    0.48515   0.80297    0.000
 3855.00    0.70887   0.80521    0.000
 3856.00    0.82255   0.80716    0.000
 3857.00    0.78390   0.80993    0.000
 3858.00    0.67753   0.81139    0.000
 3859.00    0.48864   0.81177    0.000
 3860.00    0.34007   0.81214    0.000
 3861.00    0.23483   0.81317    0.000
 3862.00    0.28907   0.81444    0.000
 3863.00    0.49444   0.81479    0.000
 3864.00    0.52339   0.81461    0.000
 3865.00    0.40496   0.81334    0.000
 3866.00    0.44264   0.81207    0.000
 3867.00    0.59514   0.81023    0.000
 3868.00    0.76813   0.80797    0.000
 3869.00    0.95435   0.80583    0.000
 3870.00    0.88352   0.80185    0.000
 3871.00    0.66742   0.79667    0.000
 3872.00    0.72048   0.79049    0.000
 3873.00    0.90593   0.78400    0.000
 3874.00    0.69264   0.77837    0.000
 3875.00    0.30980   0.77117    0.000
 3876.00    0.14330   0.76156    0.000
 3877.00    0.05561   0.75081    0.000
 3878.00    0.01501   0.73919    0.000
 3879.00   -0.01107   0.72899    0.000
 3880.00    0.27206   0.71839    0.000
 3881.00    0.63457   0.70533    0.035
 3882.00    0.79136   0.69262    0.035
 3883.00    0.90513   0.68056    0.033
 3884.00    0.57122   0.67089    0.033
 3885.00    0.16349   0.66279    0.033
 3886.00    0.18079   0.65517    0.033
 3887.00    0.25073   0.65086    0.032
 3888.00    0.25962   0.64828    0.032
 3889.00    0.26328   0.64862    0.031
 3890.00    0.43933   0.65290    0.032
 3891.00    0.62398   0.65984    0.033
 3892.00    0.72136   0.66957    0.033
 3893.00    0.80968   0.67951    0.033
 3894.00    0.40513   0.69110    0.032
 3895.00    0.03560   0.70415    0.031
 3896.00    0.38230   0.71889    0.031
 3897.00    0.71556   0.73440    0.031
 3898.00    0.88983   0.74731    0.031
 3899.00    1.02845   0.76055    0.031
 3900.00    0.87667   0.77262    0.031
 3901.00    0.73207   0.78511    0.030
 3902.00    0.63132   0.79761    0.029
 3903.00    0.54845   0.80688    0.028
 3904.00    0.55156   0.81681    0.028
 3905.00    0.54800   0.82471    0.028
 3906.00    0.51834   0.83185    0.028
 3907.00    0.52744   0.84003    0.028
 3908.00    0.66293   0.84557    0.029
 3909.00    0.72456   0.85070    0.030
 3910.00    0.58251   0.85439    0.030
 3911.00    0.62383   0.85626    0.031
 3912.00    1.09817   0.85887    0.033
 3913.00    1.29983   0.85904    0.034
 3914.00    0.94498   0.85787    0.034
 3915.00    0.62453   0.85607    0.034
 3916.00    0.36517   0.85193    0.034
 3917.00    0.40221   0.84828    0.034
 3918.00    0.89978   0.84269    0.035
 3919.00    0.99000   0.83589    0.034
 3920.00    0.52441   0.82857    0.033
 3921.00    0.33061   0.81942    0.033
 3922.00    0.46330   0.81107    0.033
 3923.00    0.56345   0.80103    0.033
 3924.00    0.62916   0.79074    0.032
 3925.00    0.54854   0.78044    0.032
 3926.00    0.33122   0.76904    0.032
 3927.00    0.27150   0.75910    0.032
 3928.00    0.34158   0.74854    0.033
 3929.00    0.42383   0.73942    0.033
 3930.00    0.51490   0.73243    0.032
 3931.00    0.33189   0.72610    0.032
 3932.00   -0.02557   0.72213    0.000
 3933.00   -0.15567   0.71902    0.000
 3934.00   -0.15924   0.71863    0.000
 3935.00    0.05676   0.72201    0.032
 3936.00    0.37905   0.72662    0.032
 3937.00    0.45964   0.73274    0.032
 3938.00    0.43917   0.73944    0.032
 3939.00    0.36728   0.74744    0.032
 3940.00    0.27699   0.75821    0.033
 3941.00    0.29133   0.76883    0.033
 3942.00    0.33730   0.77815    0.033
 3943.00    0.32939   0.78672    0.033
 3944.00    0.30796   0.79500    0.033
 3945.00    0.45389   0.80415    0.033
 3946.00    0.63394   0.81201    0.033
 3947.00    0.75344   0.81643    0.033
 3948.00    0.86323   0.81948    0.033
 3949.00    0.74957   0.82258    0.034
 3950.00    0.60923   0.82436    0.034
 3951.00    0.39378   0.82331    0.033
 3952.00    0.17222   0.81898    0.033
 3953.00    0.43242   0.81324    0.034
 3954.00    0.71477   0.80738    0.034
 3955.00    0.63771   0.79854    0.034
 3956.00    0.55948   0.78514    0.034
 3957.00    0.65879   0.77012    0.035
 3958.00    0.72820   0.75462    0.035
 3959.00    0.23113   0.73805    0.035
 3960.00   -0.18786   0.71935    0.000
 3961.00    0.27311   0.69753    0.000
 3962.00    0.67572   0.67651    0.000
 3963.00    0.61952   0.65770    0.000
 3964.00    0.58360   0.63930    0.000
 3965.00    0.66800   0.62253    0.000
 3966.00    0.71879   0.60778    0.000
 3967.00    0.61181   0.59676    0.000
 3968.00    0.53100   0.59039    0.000
 3969.00    0.55048   0.58747    0.000
 3970.00    0.55221   0.58928    0.000
 3971.00    0.49716   0.59563    0.000
 3972.00    0.42964   0.60604    0.000
 3973.00    0.32834   0.62015    0.000
 3974.00    0.26131   0.63688    0.000
 3975.00    0.27387   0.65700    0.000
 3976.00    0.31277   0.67822    0.000
 3977.00    0.40458   0.70000    0.000
 3978.00    0.41053   0.72285    0.000
 3979.00    0.26632   0.74462    0.000
 3980.00    0.39045   0.76666    0.000
 3981.00    0.92540   0.78648    0.034
 3982.00    1.24308   0.80392    0.034
 3983.00    1.26858   0.82189    0.034
 3984.00    1.13350   0.83684    0.033
 3985.00    0.80827   0.85064    0.033
 3986.00    0.70768   0.86275    0.033
 3987.00    0.84165   0.87214    0.032
 3988.00    0.89008   0.88263    0.032
 3989.00    0.85971   0.89030    0.032
 3990.00    0.85971   0.89641    0.032
 3991.00    0.88437   0.90272    0.032
 3992.00    0.97450   0.90704    0.032
 3993.00    1.11143   0.91202    0.032
 3994.00    1.07636   0.91581    0.032
 3995.00    0.93344   0.91812    0.032
 3996.00    0.74113   0.92078    0.032
 3997.00    0.52175   0.92267    0.032
 3998.00    0.69663   0.92489    0.032
 3999.00    1.05931   0.92718    0.033
 4000.00    1.17790   0.92795    0.033
 4001.00    1.19616   0.92873    0.034
 4002.00    1.20928   0.93040    0.033
 4003.00    1.22059   0.93250    0.033
 4004.00    1.24214   0.93391    0.033
 4005.00    1.26672   0.93410    0.034
 4006.00    1.09355   0.93547    0.034
 4007.00    0.87181   0.93819    0.033
 4008.00    0.91253   0.94099    0.033
 4009.00    1.00544   0.94257    0.034
 4010.00    0.90202   0.94401    0.034
 4011.00    0.76808   0.94677    0.034
 4012.00    1.06687   0.94877    0.034
 4013.00    1.41542   0.95104    0.034
 4014.00    1.00000   0.95275    0.034
 4015.00    0.52552   0.95374    0.033
 4016.00    0.60392   0.95508    0.033
 4017.00    0.70560   0.95443    0.033
 4018.00    0.70056   0.95429    0.033
 4019.00    0.69497   0.95436    0.034
 4020.00    0.70779   0.95240    0.033
 4021.00    0.73370   0.95043    0.033
 4022.00    0.99052   0.94818    0.033
 4023.00    1.23068   0.94650    0.034
 4024.00    1.29149   0.94464    0.034
 4025.00    1.35948   0.94065    0.034
 4026.00    1.48197   0.93812    0.034
 4027.00    1.53006   0.93730    0.034
 4028.00    1.14907   0.93648    0.033
 4029.00    0.86876   0.93601    0.032
 4030.00    1.04987   0.93366    0.032
 4031.00    1.14069   0.93315    0.032
 4032.00    0.89279   0.93543    0.032
 4033.00    0.70518   0.93623    0.031
 4034.00    0.70658   0.93773    0.031
 4035.00    0.70560   0.93812    0.030
 4036.00    0.69827   0.93889    0.030
 4037.00    0.80370   0.94230    0.031
 4038.00    1.16663   0.94332    0.031
 4039.00    1.41671   0.94361    0.032
 4040.00    1.44369   0.94302    0.032
 4041.00    1.40840   0.94199    0.032
 4042.00    1.26584   0.94439    0.032
 4043.00    1.15570   0.94488    0.032
 4044.00    1.09445   0.94276    0.032
 4045.00    0.91507   0.94086    0.031
 4046.00    0.57910   0.93953    0.031
 4047.00    0.45818   0.94135    0.031
 4048.00    0.58835   0.94213    0.031
 4049.00    0.83083   0.93973    0.032
 4050.00    1.18896   0.93875    0.032
 4051.00    1.35377   0.93892    0.033
 4052.00    1.34301   0.93854    0.033
 4053.00    1.23464   0.93756    0.032
 4054.00    1.04815   0.93545    0.032
 4055.00    1.03115   0.93399    0.032
 4056.00    1.13350   0.93384    0.032
 4057.00    1.07378   0.93154    0.032
 4058.00    0.91395   0.92754    0.032
 4059.00    0.83308   0.92552    0.032
 4060.00    0.79480   0.92513    0.032
 4061.00    0.69987   0.92385    0.032
 4062.00    0.57837   0.92080    0.031
 4063.00    0.61533   0.91670    0.032
 4064.00    0.71632   0.91529    0.032
 4065.00    0.79027   0.91688    0.032
 4066.00    0.85489   0.91496    0.032
 4067.00    0.65900   0.91151    0.032
 4068.00    0.38746   0.91109    0.032
 4069.00    0.51405   0.91146    0.031
 4070.00    0.73626   0.91174    0.031
 4071.00    0.84817   0.90919    0.031
 4072.00    0.93871   0.90647    0.033
 4073.00    0.74510   0.90885    0.033
 4074.00    0.50867   0.91020    0.032
 4075.00    0.57285   0.90935    0.032
 4076.00    0.67028   0.90884    0.032
 4077.00    0.69795   0.90789    0.032
 4078.00    0.72051   0.90964    0.032
 4079.00    0.38800   0.91138    0.031
 4080.00    0.04190   0.91137    0.031
 4081.00    0.41068   0.91246    0.031
 4082.00    0.77006   0.91220    0.032
 4083.00    0.62635   0.91113    0.032
 4084.00    0.50889   0.90990    0.032
 4085.00    0.82430   0.90714    0.032
 4086.00    1.09302   0.90420    0.032
 4087.00    0.88139   0.89935    0.031
 4088.00    0.70197   0.89260    0.031
 4089.00    0.75885   0.88482    0.031
 4090.00    0.83926   0.87471    0.031
 4091.00    1.05166   0.86380    0.031
 4092.00    1.20669   0.85107    0.000
 4093.00    1.10498   0.83744    0.000
 4094.00    1.04102   0.82487    0.000
 4095.00    1.11570   0.81020    0.000
 4096.00    1.11162   0.79498    0.000
 4097.00    0.86527   0.78239    0.000
 4098.00    0.67381   0.77172    0.000
 4099.00    0.62579   0.76312    0.000
 4100.00    0.60784   0.75595    0.000
 4101.00    0.65744   0.74940    0.000
 4102.00    0.68691   0.74758    0.000
 4103.00    0.67719   0.75105    0.000
 4104.00    0.75050   0.75518    0.000
 4105.00    0.96467   0.76131    0.000
 4106.00    1.07139   0.77009    0.000
 4107.00    1.01837   0.77998    0.000
 4108.00    0.90561   0.79221    0.000
 4109.00    0.71479   0.80432    0.000
 4110.00    0.66580   0.81563    0.000
 4111.00    0.78007   0.82848    0.000
 4112.00    0.87391   0.84069    0.000
 4113.00    0.94701   0.85144    0.030
 4114.00    1.04781   0.86150    0.030
 4115.00    1.17342   0.86983    0.030
 4116.00    1.10682   0.87798    0.030
 4117.00    0.88858   0.88583    0.030
 4118.00    0.70349   0.89040    0.030
 4119.00    0.54141   0.89432    0.029
 4120.00    0.60171   0.89907    0.029
 4121.00    0.79732   0.90216    0.030
 4122.00    0.76296   0.90455    0.030
 4123.00    0.60642   0.90572    0.030
 4124.00    0.59834   0.90664    0.031
 4125.00    0.65870   0.90896    0.031
 4126.00    0.77858   0.90921    0.031
 4127.00    0.92210   0.90864    0.030
 4128.00    0.85648   0.90936    0.030
 4129.00    0.72008   0.90953    0.030
 4130.00    0.76809   0.91055    0.031
 4131.00    0.86856   0.91100    0.031
 4132.00    0.98726   0.91004    0.031
 4133.00    1.11024   0.91170    0.030
 4134.00    1.10332   0.91220    0.030
 4135.00    1.07190   0.91204    0.031
 4136.00    0.56451   0.91388    0.031
 4137.00   -0.01238   0.91337    0.000
 4138.00    0.34749   0.91327    0.031
 4139.00    0.80692   0.91394    0.031
 4140.00    0.76399   0.91338    0.031
 4141.00    0.68631   0.91390    0.030
 4142.00    0.74607   0.91322    0.031
 4143.00    0.81056   0.91084    0.031
 4144.00    0.80641   0.91051    0.032
 4145.00    0.80268   0.91187    0.032
 4146.00    0.81698   0.91185    0.032
 4147.00    0.82706   0.91148    0.031
 4148.00    0.77178   0.91179    0.031
 4149.00    0.71722   0.91173    0.031
 4150.00    0.66971   0.91286    0.030
 4151.00    0.63503   0.91407    0.030
 4152.00    0.69149   0.91484    0.031
 4153.00    0.76813   0.91684    0.031
 4154.00    0.95491   0.91831    0.031
 4155.00    1.09444   0.92016    0.031
 4156.00    1.02747   0.92175    0.030
 4157.00    0.95402   0.92296    0.030
 4158.00    0.85729   0.92534    0.030
 4159.00    0.80204   0.92671    0.030
 4160.00    0.87197   0.92779    0.030
 4161.00    0.89399   0.92828    0.030
 4162.00    0.79297   0.92853    0.029
 4163.00    0.79626   0.92924    0.029
 4164.00    1.03000   0.92740    0.030
 4165.00    1.04852   0.92596    0.030
 4166.00    0.65480   0.92535    0.029
 4167.00    0.48093   0.92226    0.029
 4168.00    0.67451   0.91990    0.029
 4169.00    0.82312   0.91788    0.029
 4170.00    0.90588   0.91521    0.028
 4171.00    0.87882   0.91337    0.028
 4172.00    0.71032   0.91000    0.028
 4173.00    0.54435   0.90721    0.028
 4174.00    0.38125   0.90680    0.029
 4175.00    0.53715   0.90594    0.029
 4176.00    1.01232   0.90521    0.029
 4177.00    1.08817   0.90536    0.029
 4178.00    0.81153   0.90502    0.028
 4179.00    0.73196   0.90536    0.028
 4180.00    0.80565   0.90740    0.028
 4181.00    0.91694   0.90833    0.028
 4182.00    1.05393   0.90886    0.028
 4183.00    0.90053   0.91061    0.028
 4184.00    0.57307   0.91171    0.029
 4185.00    0.53457   0.91408    0.029
 4186.00    0.64721   0.91518    0.029
 4187.00    0.90656   0.91332    0.029
 4188.00    1.23246   0.91441    0.028
 4189.00    1.21135   0.91613    0.028
 4190.00    1.05485   0.91498    0.028
 4191.00    0.66665   0.91343    0.028
 4192.00    0.20149   0.91282    0.028
 4193.00    0.27769   0.91284    0.028
 4194.00    0.50479   0.91166    0.028
 4195.00    0.64895   0.90914    0.028
 4196.00    0.77410   0.90745    0.029
 4197.00    0.73824   0.90778    0.029
 4198.00    0.67279   0.90705    0.028
 4199.00    0.58856   0.90539    0.028
 4200.00    0.50168   0.90728    0.028
 4201.00    0.39793   0.90843    0.028
 4202.00    0.29246   0.90803    0.028
 4203.00    0.54869   0.91106    0.028
 4204.00    0.82849   0.91324    0.028
 4205.00    0.91937   0.91517    0.028
 4206.00    1.00451   0.91874    0.027
 4207.00    1.13376   0.91982    0.028
 4208.00    1.25565   0.92288    0.029
 4209.00    1.16107   0.92657    0.029
 4210.00    1.06989   0.92642    0.029
 4211.00    1.02831   0.92852    0.029
 4212.00    0.97549   0.93074    0.030
 4213.00    0.81641   0.93056    0.029
 4214.00    0.68742   0.93126    0.029
 4215.00    0.76533   0.92927    0.029
 4216.00    0.83329   0.92725    0.028
 4217.00    0.84835   0.92789    0.029
 4218.00    0.86226   0.92496    0.028
 4219.00    0.87125   0.92088    0.028
 4220.00    0.86410   0.91974    0.028
 4221.00    0.80007   0.91734    0.029
 4222.00    0.75007   0.91335    0.029
 4223.00    0.74159   0.91040    0.029
 4224.00    0.73956   0.90708    0.029
 4225.00    0.75379   0.90494    0.029
 4226.00    0.85014   0.90351    0.029
 4227.00    1.12498   0.90050    0.029
 4228.00    1.15072   0.90152    0.029
 4229.00    0.70673   0.90420    0.028
 4230.00    0.58372   0.90342    0.028
 4231.00    0.98913   0.90559    0.028
 4232.00    1.14405   0.90829    0.027
 4233.00    0.93736   0.90890    0.027
 4234.00    0.76180   0.91263    0.027
 4235.00    0.62577   0.91563    0.027
 4236.00    0.80293   0.91779    0.027
 4237.00    1.33051   0.92252    0.027
 4238.00    1.44190   0.92529    0.027
 4239.00    1.14257   0.92641    0.027
 4240.00    0.94365   0.92894    0.027
 4241.00    0.83209   0.93144    0.027
 4242.00    0.94763   0.93174    0.027
 4243.00    1.23728   0.93178    0.027
 4244.00    1.40870   0.93336    0.028
 4245.00    1.50045   0.93354    0.028
 4246.00    1.38506   0.93227    0.029
 4247.00    1.14738   0.93007    0.029
 4248.00    1.04219   0.92907    0.029
 4249.00    1.00523   0.92991    0.030
 4250.00    0.94727   0.92651    0.029
 4251.00    0.87994   0.92396    0.029
 4252.00    0.86563   0.92558    0.029
 4253.00    0.87165   0.92430    0.028
 4254.00    1.03833   0.92270    0.028
 4255.00    1.25737   0.92222    0.028
 4256.00    1.01100   0.92257    0.028
 4257.00    0.63758   0.92482    0.028
 4258.00    0.73180   0.92391    0.028
 4259.00    0.93082   0.92315    0.028
 4260.00    1.08757   0.92448    0.028
 4261.00    1.23675   0.92387    0.028
 4262.00    1.05679   0.92464    0.028
 4263.00    0.83180   0.92464    0.027
 4264.00    0.89101   0.92263    0.028
 4265.00    0.97797   0.92315    0.028
 4266.00    1.02129   0.92169    0.027
 4267.00    1.06194   0.91825    0.027
 4268.00    1.04112   0.91657    0.026
 4269.00    1.01819   0.91450    0.026
 4270.00    0.90676   0.91363    0.026
 4271.00    0.80019   0.91062    0.026
 4272.00    0.82205   0.90705    0.026
 4273.00    0.84597   0.90934    0.027
 4274.00    0.89812   0.90795    0.027
 4275.00    0.93903   0.90499    0.027
 4276.00    0.87778   0.90749    0.027
 4277.00    0.82874   0.90708    0.028
 4278.00    0.86095   0.90700    0.028
 4279.00    0.88926   0.90776    0.028
 4280.00    0.89732   0.90511    0.027
 4281.00    0.87646   0.90614    0.027
 4282.00    0.73485   0.90556   -2.000
 4283.00    0.61720   0.90192   -2.000
 4284.00    0.58227   0.90266   -2.000
 4285.00    0.61012   0.90029   -2.000
 4286.00    0.82044   0.89525   -2.000
 4287.00    1.00175   0.89414   -2.000
 4288.00    1.11108   0.89055   -2.000
 4289.00    1.09203   0.88492   -2.000
 4290.00    0.79850   0.88157   -2.000
 4291.00    0.59395   0.87633   -2.000
 4292.00    0.55460   0.87251   -2.000
 4293.00    0.52682   0.86983   -2.000
 4294.00    0.51781   0.86193   -2.000
 4295.00    0.54909   0.85744   -2.000
 4296.00    0.63768   0.85438   -2.000
 4297.00    0.70164   0.84671   -2.000
 4298.00    0.73477   0.84324    0.028
 4299.00    0.79089   0.83840    0.028
 4300.00    0.87236   0.83198    0.027
 4301.00    0.91536   0.83197    0.027
 4302.00    0.92094   0.82859    0.027
 4303.00    0.80996   0.82504    0.027
 4304.00    0.59897   0.82741    0.027
 4305.00    0.50640   0.82730    0.027
 4306.00    0.50330   0.82860    0.027
 4307.00    0.46283   0.83272    0.026
 4308.00    0.39755   0.83574    0.026
 4309.00    0.54428   0.84175    0.026
 4310.00    0.81431   0.84906    0.027
 4311.00    0.82833   0.85543    0.027
 4312.00    0.71259   0.86303    0.027
 4313.00    0.71689   0.87143    0.027
 4314.00    0.77387   0.87776    0.027
 4315.00    0.83471   0.88340    0.026
 4316.00    0.89702   0.89173    0.026
 4317.00    0.84043   0.89696    0.026
 4318.00    0.74583   0.89879    0.026
 4319.00    0.93096   0.90268    0.027
 4320.00    1.19085   0.90381    0.027
 4321.00    1.24111   0.90286    0.028
 4322.00    1.24548   0.90296    0.028
 4323.00    0.92608   0.89968    0.027
 4324.00    0.55036   0.89671    0.027
 4325.00    0.72653   0.89291    0.027
 4326.00    0.97570   0.88564    0.027
 4327.00    0.99208   0.88190    0.027
 4328.00    0.98670   0.87757    0.027
 4329.00    1.10952   0.86860    0.028
 4330.00    1.23968   0.86075    0.000
 4331.00    0.82468   0.85320    0.000
 4332.00    0.40215   0.84431    0.000
 4333.00    0.57216   0.83557    0.000
 4334.00    0.74576   0.82592    0.000
 4335.00    1.00581   0.81792    0.000
 4336.00    1.22426   0.81129    0.000
 4337.00    0.90126   0.80135    0.000
 4338.00    0.62302   0.79515    0.000
 4339.00    0.73581   0.79419    0.000
 4340.00    0.84725   0.78870    0.000
 4341.00    0.95000   0.78666    0.000
 4342.00    1.04445   0.79328    0.000
 4343.00    1.09701   0.79660    0.000
 4344.00    1.06422   0.79980    0.000
 4345.00    0.68309   0.80946    0.000
 4346.00    0.47529   0.81874    0.000
 4347.00    0.85387   0.82729    0.000
 4348.00    1.12711   0.83712    0.000
 4349.00    1.09978   0.84835    0.000
 4350.00    1.07019   0.86116    0.000
 4351.00    1.03507   0.87002    0.028
 4352.00    1.00175   0.87806    0.028
 4353.00    0.97223   0.89160    0.028
 4354.00    0.96597   0.90270    0.028
 4355.00    1.00223   0.90925    0.028
 4356.00    1.01379   0.91839    0.028
 4357.00    0.98588   0.92817    0.028
 4358.00    1.04106   0.93476    0.028
 4359.00    1.21274   0.93983    0.028
 4360.00    1.29837   0.94591    0.028
 4361.00    1.27781   0.95240    0.028
 4362.00    1.24087   0.95622    0.028
 4363.00    1.18610   0.95779    0.028
 4364.00    1.22654   0.96055    0.028
 4365.00    1.35830   0.96352    0.027
 4366.00    1.32035   0.96377    0.027
 4367.00    1.13885   0.96214    0.027
 4368.00    1.01736   0.96135    0.028
 4369.00    0.94058   0.96076    0.028
 4370.00    0.93229   0.95796    0.028
 4371.00    0.96882   0.95465    0.027
 4372.00    0.91666   0.95222    0.027
 4373.00    0.81370   0.94888    0.027
 4374.00    0.80021   0.94424    0.028
 4375.00    0.83135   0.93998    0.028
 4376.00    1.05662   0.93635    0.027
 4377.00    1.36568   0.93270    0.027
 4378.00    1.13099   0.92903    0.027
 4379.00    0.69511   0.92473    0.027
 4380.00    0.74174   0.92031    0.027
 4381.00    0.93968   0.91781    0.027
 4382.00    0.83107   0.91559    0.027
 4383.00    0.64226   0.91194    0.026
 4384.00    0.68831   0.90937    0.026
 4385.00    0.78454   0.90993    0.026
 4386.00    0.79907   0.91179    0.026
 4387.00    0.79979   0.91169    0.026
 4388.00    0.95317   0.91287    0.026
 4389.00    1.12605   0.91673    0.026
 4390.00    0.96620   0.91875    0.026
 4391.00    0.77666   0.92117    0.026
 4392.00    0.92346   0.92538    0.026
 4393.00    1.08818   0.92887    0.026
 4394.00    1.22275   0.93147    0.026
 4395.00    1.35476   0.93303    0.026
 4396.00    1.32686   0.93649    0.026
 4397.00    1.29666   0.93993    0.026
 4398.00    1.21580   0.93989    0.026
 4399.00    1.11849   0.94186    0.026
 4400.00    0.81782   0.94307    0.026
 4401.00    0.54718   0.94125    0.026
 4402.00    0.52913   0.94382    0.026
 4403.00    0.53979   0.94596    0.026
 4404.00    0.73032   0.94330    0.026
 4405.00    0.89324   0.94358    0.026
 4406.00    0.92031   0.94698    0.026
 4407.00    0.96776   0.94837    0.026
 4408.00    1.09664   0.94800    0.026
 4409.00    1.13045   0.94991    0.026
 4410.00    0.84901   0.95442    0.026
 4411.00    0.67989   0.95522    0.026
 4412.00    0.82541   0.95569    0.026
 4413.00    0.94042   0.96101    0.026
 4414.00    0.98231   0.96239    0.026
 4415.00    1.01048   0.96133    0.025
 4416.00    1.01022   0.96537    0.025
 4417.00    0.98937   0.96799    0.025
 4418.00    0.93145   0.96836    0.025
 4419.00    0.92403   0.97031    0.025
 4420.00    0.99609   0.97197    0.025
 4421.00    0.98128   0.97295    0.025
 4422.00    0.84643   0.97266    0.026
 4423.00    0.80255   0.97301    0.026
 4424.00    0.86931   0.97422    0.025
 4425.00    0.95049   0.97407    0.026
 4426.00    1.04714   0.97405    0.026
 4427.00    1.12458   0.97305    0.026
 4428.00    1.18384   0.97329    0.026
 4429.00    1.10629   0.97452    0.026
 4430.00    0.91467   0.97197    0.026
 4431.00    0.87009   0.97220    0.025
 4432.00    0.93346   0.97431    0.025
 4433.00    0.94014   0.97270    0.026
 4434.00    0.91028   0.97325    0.026
 4435.00    0.92427   0.97399    0.026
 4436.00    0.96299   0.97383    0.026
 4437.00    0.82953   0.97630    0.025
 4438.00    0.61153   0.97685    0.025
 4439.00    0.72791   0.97785    0.025
 4440.00    0.98618   0.98030    0.026
 4441.00    1.10645   0.97931    0.026
 4442.00    1.17656   0.98052    0.026
 4443.00    1.03148   0.98262    0.025
 4444.00    0.82023   0.98052    0.025
 4445.00    0.83489   0.98226    0.025
 4446.00    0.90738   0.98403    0.025
 4447.00    0.93480   0.97968    0.025
 4448.00    0.95282   0.97962    0.025
 4449.00    1.06362   0.98025    0.026
 4450.00    1.18967   0.97517    0.026
 4451.00    1.20741   0.97349    0.025
 4452.00    1.21180   0.97233    0.025
 4453.00    1.10931   0.96801    0.025
 4454.00    0.99774   0.96594    0.024
 4455.00    0.86843   0.96249    0.024
 4456.00    0.73824   0.95918    0.024
 4457.00    0.68011   0.95957    0.024
 4458.00    0.62597   0.95672    0.024
 4459.00    0.74998   0.95389    0.024
 4460.00    0.87320   0.95642    0.024
 4461.00    0.98067   0.95562    0.000
 4462.00    1.08502   0.95376    0.000
 4463.00    1.15279   0.95783    0.000
 4464.00    1.21696   0.96010    0.000
 4465.00    1.25201   0.96019    0.000
 4466.00    1.28378   0.96373    0.000
 4467.00    1.29554   0.96759    0.000
 4468.00    1.28676   0.97005    0.000
 4469.00    1.17947   0.97295    0.000
 4470.00    1.09737   0.97714    0.000
 4471.00    1.11370   0.98091    0.000
 4472.00    1.10659   0.98347    0.000
 4473.00    1.02327   0.98740    0.000
 4474.00    0.97533   0.99156    0.000
 4475.00    1.02473   0.99328    0.000
 4476.00    1.10836   0.99544    0.000
 4477.00    1.27267   0.99886    0.000
 4478.00    1.37447   1.00047    0.000
 4479.00    1.34895   1.00131    0.000
 4480.00    1.24474   1.00291    0.000
 4481.00    1.00103   1.00347    0.000
 4482.00    0.87089   1.00366    0.024
 4483.00    0.91688   1.00536    0.024
 4484.00    0.92770   1.00623    0.024
 4485.00    0.89059   1.00586    0.024
 4486.00    0.86281   1.00684    0.024
 4487.00    0.84621   1.00768    0.024
 4488.00    0.89929   1.00717    0.024
 4489.00    1.02604   1.00788    0.024
 4490.00    0.99516   1.00900    0.024
 4491.00    0.81727   1.00946    0.024
 4492.00    0.77920   1.01145    0.024
 4493.00    0.85607   1.01352    0.024
 4494.00    0.93515   1.01447    0.024
 4495.00    1.01585   1.01676    0.024
 4496.00    1.10778   1.01991    0.024
 4497.00    1.20685   1.02294    0.024
 4498.00    1.20798   1.02575    0.024
 4499.00    1.15472   1.02917    0.024
 4500.00    1.12265   1.03355    0.024
 4501.00    1.10080   1.03558    0.024
 4502.00    1.13455   1.03804    0.024
 4503.00    1.19149   1.04278    0.024
 4504.00    1.24297   1.04468    0.024
 4505.00    1.29251   1.04570    0.024
 4506.00    1.43372   1.04793    0.024
 4507.00    1.60257   1.04864    0.024
 4508.00    1.48982   1.04832    0.024
 4509.00    1.30653   1.04792    0.024
 4510.00    1.23665   1.04781    0.024
 4511.00    1.18982   1.04615    0.024
 4512.00    1.13956   1.04319    0.024
 4513.00    1.08876   1.04193    0.024
 4514.00    0.94492   1.03876    0.023
 4515.00    0.79004   1.03462    0.023
 4516.00    0.79450   1.03272    0.023
 4517.00    0.81186   1.02826    0.024
 4518.00    1.17127   1.02383    0.024
 4519.00    1.54624   1.02059    0.024
 4520.00    1.23311   1.01509    0.024
 4521.00    0.92052   1.01188    0.024
 4522.00    1.06640   1.00735    0.024
 4523.00    1.20978   1.00087    0.024
 4524.00    1.30617   0.99870    0.024
 4525.00    1.37930   0.99427    0.023
 4526.00    1.19183   0.98891    0.024
 4527.00    1.03205   0.98744    0.024
 4528.00    1.08906   0.98389    0.023
 4529.00    1.13873   0.98111    0.023
 4530.00    1.14509   0.98101    0.023
 4531.00    1.12936   0.97953    0.024
 4532.00    1.01021   0.97943    0.024
 4533.00    0.92585   0.98040    0.023
 4534.00    0.97449   0.98121    0.023
 4535.00    1.00290   0.98201    0.023
 4536.00    0.96683   0.98363    0.024
 4537.00    0.96142   0.98723    0.024
 4538.00    1.03887   0.98834    0.024
 4539.00    1.06105   0.98950    0.024
 4540.00    0.95516   0.99291    0.024
 4541.00    0.88306   0.99305    0.024
 4542.00    0.87867   0.99432    0.024
 4543.00    0.86986   0.99723    0.024
 4544.00    0.85333   0.99675    0.023
 4545.00    0.87544   0.99786    0.023
 4546.00    0.95660   0.99885    0.023
 4547.00    1.06555   0.99873    0.023
 4548.00    1.21182   1.00133    0.023
 4549.00    1.27614   1.00035    0.023
 4550.00    1.24361   1.00049    0.000
 4551.00    1.19558   1.00507    0.000
 4552.00    1.13139   1.00417    0.000
 4553.00    1.11687   1.00503    0.000
 4554.00    1.14799   1.00986    0.000
 4555.00    1.11031   1.00963    0.000
 4556.00    1.01687   1.01173    0.000
 4557.00    1.05709   1.01632    0.000
 4558.00    1.19264   1.01711    0.000
 4559.00    1.18158   1.01966    0.000
 4560.00    1.07876   1.02240    0.000
 4561.00    0.98025   1.02391    0.000
 4562.00    0.88412   1.02647    0.000
 4563.00    0.99425   1.02721    0.000
 4564.00    1.20244   1.02916    0.000
 4565.00    1.15221   1.03047    0.000
 4566.00    0.99599   1.02963    0.000
 4567.00    1.04451   1.03291    0.000
 4568.00    1.16476   1.03270    0.000
 4569.00    1.25490   1.03005    0.000
 4570.00    1.33614   1.03385    0.000
 4571.00    1.27027   1.03203    0.000
 4572.00    1.16836   1.02794    0.000
 4573.00    1.09133   1.03183    0.000
 4574.00    1.01923   1.02974    0.000
 4575.00    0.95628   1.02515    0.000
 4576.00    0.89475   1.02760    0.000
 4577.00    1.06155   1.02516    0.000
 4578.00    1.25449   1.02143    0.000
 4579.00    1.14082   1.02290    0.000
 4580.00    1.00361   1.02003    0.000
 4581.00    1.13418   1.01739    0.000
 4582.00    1.27590   1.01900    0.000
 4583.00    1.24534   1.01648    0.000
 4584.00    1.21207   1.01494    0.000
 4585.00    1.12641   1.01646    0.000
 4586.00    1.04721   1.01429    0.000
 4587.00    1.08106   1.01408    0.000
 4588.00    1.10910   1.01551    0.000
 4589.00    1.07502   1.01367    0.000
 4590.00    1.03778   1.01452    0.000
 4591.00    0.97668   1.01538    0.000
 4592.00    0.94334   1.01344    0.000
 4593.00    1.06959   1.01538    0.000
 4594.00    1.16542   1.01621    0.000
 4595.00    1.12221   1.01453    0.000
 4596.00    1.06097   1.01734    0.000
 4597.00    0.93228   1.01827    0.000
 4598.00    0.87512   1.01739    0.000
 4599.00    1.04168   1.02115    0.000
 4600.00    1.16254   1.02252    0.000
 4601.00    1.16212   1.02248    0.000
 4602.00    1.16452   1.02666    0.000
 4603.00    1.17335   1.02918    0.000
 4604.00    1.19197   1.02996    0.000
 4605.00    1.22993   1.03372    0.000
 4606.00    1.22412   1.03733    0.000
 4607.00    1.14305   1.03813    0.000
 4608.00    1.10060   1.04127    0.000
 4609.00    1.11630   1.04595    0.000
 4610.00    1.13921   1.04567    0.000
 4611.00    1.17167   1.04753    0.000
 4612.00    1.14020   1.05274    0.000
 4613.00    1.03426   1.05098    0.000
 4614.00    0.96207   1.05188    0.000
 4615.00    0.92460   1.05743    0.000
 4616.00    0.93286   1.05427    0.000
 4617.00    0.98260   1.05412    0.000
 4618.00    1.05080   1.05944    0.000
 4619.00    1.13376   1.05563    0.000
 4620.00    1.06802   1.05428    0.000
 4621.00    0.89777   1.05891    0.000
 4622.00    0.90303   1.05554    0.000
 4623.00    1.01650   1.05296    0.000
 4624.00    1.10295   1.05594    0.000
 4625.00    1.17483   1.05344    0.000
 4626.00    1.13258   1.04992    0.000
 4627.00    1.03693   1.05085    0.000
 4628.00    1.12262   1.04914    0.000
 4629.00    1.28141   1.04518    0.000
 4630.00    1.29390   1.04406    0.000
 4631.00    1.25607   1.04238    0.000
 4632.00    1.26044   1.03883    0.000
 4633.00    1.27703   1.03655    0.000
 4634.00    1.25986   1.03368    0.000
 4635.00    1.23461   1.03067    0.000
 4636.00    1.23108   1.02877    0.000
 4637.00    1.23174   1.02469    0.000
 4638.00    1.14180   1.02211    0.000
 4639.00    1.03826   1.02113    0.000
 4640.00    1.02357   1.01643    0.000
 4641.00    1.01865   1.01467    0.000
 4642.00    1.08481   1.01491    0.000
 4643.00    1.15613   1.01050    0.000
 4644.00    1.18914   1.00970    0.000
 4645.00    1.22069   1.01079    0.000
 4646.00    1.15451   1.00757    0.000
 4647.00    1.08575   1.00813    0.000
 4648.00    0.94003   1.00962    0.000
 4649.00    0.80508   1.00819    0.000
 4650.00    0.84627   1.01039    0.000
 4651.00    0.89575   1.01160    0.000
 4652.00    1.03015   1.01128    0.000
 4653.00    1.15837   1.01450    0.000
 4654.00    1.24139   1.01488    0.000
 4655.00    1.32104   1.01464    0.000
 4656.00    1.38184   1.01778    0.000
 4657.00    1.43259   1.01716    0.000
 4658.00    1.43847   1.01624    0.000
 4659.00    1.42478   1.01864    0.000
 4660.00    1.33940   1.01698    0.000
 4661.00    1.27995   1.01466    0.000
 4662.00    1.30003   1.01602    0.000
 4663.00    1.29006   1.01384    0.000
 4664.00    1.20170   1.01066    0.000
 4665.00    1.10910   1.01183    0.000
 4666.00    1.00701   1.01007    0.000
 4667.00    0.94929   1.00677    0.000
 4668.00    0.97776   1.00814    0.000
 4669.00    1.00131   1.00752    0.000
 4670.00    1.01653   1.00536    0.000
 4671.00    1.03130   1.00738    0.000
 4672.00    1.04539   1.00735    0.000
 4673.00    1.05631   1.00615    0.000
 4674.00    1.06309   1.00867    0.000
 4675.00    1.13838   1.00879    0.000
 4676.00    1.29238   1.00812    0.000
 4677.00    1.39138   1.01097    0.000
 4678.00    1.43465   1.01089    0.000
 4679.00    1.44438   1.00978    0.000
 4680.00    1.42416   1.01272    0.000
 4681.00    1.35741   1.01275    0.000
 4682.00    1.25402   1.01099    0.000
 4683.00    1.17611   1.01385    0.000
 4684.00    1.11584   1.01433    0.000
 4685.00    1.04814   1.01203    0.000
 4686.00    0.97592   1.01446    0.000
 4687.00    0.95470   1.01540    0.000
 4688.00    0.96052   1.01295    0.000
 4689.00    1.05932   1.01465    0.000
 4690.00    1.20089   1.01576    0.000
 4691.00    1.25355   1.01332    0.000
 4692.00    1.27098   1.01391    0.000
 4693.00    1.24271   1.01473    0.000
 4694.00    1.19899   1.01248    0.000
 4695.00    1.15980   1.01190    0.000
 4696.00    1.12188   1.01219    0.000
 4697.00    1.11506   1.01016    0.000
 4698.00    1.11553   1.00874    0.000
 4699.00    1.08189   1.00868    0.000
 4700.00    1.04184   1.00699    0.000
 4701.00    1.15027   1.00565    0.000
 4702.00    1.28028   1.00608    0.000
 4703.00    1.18862   1.00474    0.000
 4704.00    1.07353   1.00407    0.000
 4705.00    1.01089   1.00582    0.000
 4706.00    0.95185   1.00528    0.000
 4707.00    0.98413   1.00561    0.000
 4708.00    1.01952   1.00875    0.000
 4709.00    1.15349   1.00916    0.000
 4710.00    1.28249   1.01070    0.000
 4711.00    1.24473   1.01497    0.000
 4712.00    1.19812   1.01609    0.000
 4713.00    1.01585   1.01843    0.000
 4714.00    0.86966   1.02298    0.000
 4715.00    1.07726   1.02417    0.000
 4716.00    1.26631   1.02662    0.000
 4717.00    1.32426   1.03080    0.000
 4718.00    1.37070   1.03130    0.000
 4719.00    1.35451   1.03268    0.000
 4720.00    1.33772   1.03596    0.000
 4721.00    1.31836   1.03533    0.000
 4722.00    1.29074   1.03488    0.000
 4723.00    1.23347   1.03730    0.000
 4724.00    1.20738   1.03561    0.000
 4725.00    1.27517   1.03331    0.000
 4726.00    1.31562   1.03556    0.000
 4727.00    1.28601   1.03344    0.000
 4728.00    1.24785   1.02978    0.000
 4729.00    1.19087   1.03276    0.000
 4730.00    1.16416   1.03122    0.000
 4731.00    1.19532   1.02719    0.000
 4732.00    1.19324   1.03136    0.000
 4733.00    1.13571   1.03097    0.000
 4734.00    1.11855   1.02742    0.000
 4735.00    1.16042   1.03262    0.000
 4736.00    1.12934   1.03330    0.000
 4737.00    1.00447   1.03068    0.000
 4738.00    0.90945   1.03622    0.000
 4739.00    0.84824   1.03736    0.000
 4740.00    0.89747   1.03572    0.000
 4741.00    1.05702   1.04075    0.000
 4742.00    1.19810   1.04152    0.000
 4743.00    1.32289   1.04049    0.000
 4744.00    1.39347   1.04442    0.000
 4745.00    1.42196   1.04424    0.000
 4746.00    1.37128   1.04320    0.000
 4747.00    1.26656   1.04566    0.000
 4748.00    1.21747   1.04450    0.000
 4749.00    1.20168   1.04293    0.000
 4750.00    1.19468   1.04371    0.000
 4751.00    1.19227   1.04192    0.000
 4752.00    1.13712   1.03975    0.000
 4753.00    1.05810   1.03880    0.000
 4754.00    0.96615   1.03687    0.000
 4755.00    0.86916   1.03453    0.000
 4756.00    1.03559   1.03210    0.000
 4757.00    1.28931   1.03046    0.000
 4758.00    1.40476   1.02868    0.000
 4759.00    1.48178   1.02542    0.000
 4760.00    1.33832   1.02434    0.000
 4761.00    1.14443   1.02384    0.021
 4762.00    0.96119   1.02070    0.021
 4763.00    0.77990   1.02031    0.021
 4764.00    0.85303   1.02138    0.021
 4765.00    0.96200   1.01933    0.021
 4766.00    1.10862   1.01971    0.021
 4767.00    1.25906   1.02197    0.022
 4768.00    1.28944   1.02140    0.022
 4769.00    1.31205   1.02258    0.022
 4770.00    1.13799   1.02516    0.021
 4771.00    0.95859   1.02558    0.021
 4772.00    1.08669   1.02738    0.021
 4773.00    1.20938   1.02938    0.022
 4774.00    1.17556   1.02971    0.021
 4775.00    1.14416   1.03194    0.021
 4776.00    1.14783   1.03312    0.021
 4777.00    1.16312   1.03205    0.021
 4778.00    1.28770   1.03436    0.021
 4779.00    1.37282   1.03545    0.021
 4780.00    1.18776   1.03242    0.021
 4781.00    1.05877   1.03444    0.020
 4782.00    1.22683   1.03656    0.021
 4783.00    1.36348   1.03209    0.021
 4784.00    1.36639   1.03354    0.021
 4785.00    1.35821   1.03742    0.021
 4786.00    1.31107   1.03281    0.021
 4787.00    1.23378   1.03355    0.021
 4788.00    1.06743   1.03892    0.020
 4789.00    0.94698   1.03536    0.020
 4790.00    0.94208   1.03543    0.021
 4791.00    1.03324   1.04126    0.021
 4792.00    1.33271   1.03919    0.021
 4793.00    1.49409   1.03860    0.021
 4794.00    1.39560   1.04378    0.021
 4795.00    1.29959   1.04293    0.021
 4796.00    1.20768   1.04161    0.021
 4797.00    1.18753   1.04541    0.021
 4798.00    1.27079   1.04518    0.021
 4799.00    1.30049   1.04323    0.021
 4800.00    1.26229   1.04572    0.021
 4801.00    1.29099   1.04585    0.021
 4802.00    1.39440   1.04352    0.021
 4803.00    1.41048   1.04523    0.021
 4804.00    1.34056   1.04565    0.021
 4805.00    1.25263   1.04307    0.021
 4806.00    1.14908   1.04444    0.021
 4807.00    1.08448   1.04549    0.021
 4808.00    1.04968   1.04313    0.021
 4809.00    1.03459   1.04424    0.021
 4810.00    1.03276   1.04592    0.021
 4811.00    1.10541   1.04398    0.021
 4812.00    1.22196   1.04466    0.021
 4813.00    1.23469   1.04666    0.021
 4814.00    1.19407   1.04486    0.021
 4815.00    1.12717   1.04489    0.021
 4816.00    1.04857   1.04692    0.020
 4817.00    1.09906   1.04475    0.021
 4818.00    1.19895   1.04393    0.021
 4819.00    1.21849   1.04576    0.021
 4820.00    1.21192   1.04282    0.021
 4821.00    1.23109   1.04118    0.021
 4822.00    1.25728   1.04274    0.021
 4823.00    1.34487   1.03905    0.021
 4824.00    1.44618   1.03685    0.021
 4825.00    1.25020   1.03813    0.020
 4826.00    1.00123   1.03435    0.020
 4827.00    1.08160   1.03215    0.020
 4828.00    1.20683   1.03288    0.021
 4829.00    1.32140   1.02905    0.021
 4830.00    1.43494   1.02705    0.021
 4831.00    1.36194   1.02747    0.020
 4832.00    1.27763   1.02395    0.020
 4833.00    1.22992   1.02164    0.020
 4834.00    1.18290   1.02151    0.020
 4835.00    1.08549   1.01884    0.020
 4836.00    0.99893   1.01583    0.020
 4837.00    1.19580   1.01423    0.020
 4838.00    1.37850   1.01231    0.021
 4839.00    1.36791   1.00859    0.020
 4840.00    1.34925   1.00474    0.020
 4841.00    1.25763   1.00294    0.020
 4842.00    1.17593   0.99849    0.020
 4843.00    1.15996   0.99195    0.020
 4844.00    1.13579   0.98933    0.020
 4845.00    1.06930   0.98357    0.020
 4846.00    1.04637   0.97412    0.020
 4847.00    1.20472   0.97026    0.020
 4848.00    1.28900   0.96271    0.000
 4849.00    1.11826   0.94987    0.000
 4850.00    0.99304   0.94482    0.000
 4851.00    0.99980   0.93674    0.000
 4852.00    1.01655   0.92109    0.000
 4853.00    1.05802   0.91488    0.000
 4854.00    1.06057   0.90810    0.000
 4855.00    0.98008   0.89156    0.000
 4856.00    0.94411   0.88512    0.000
 4857.00    0.99063   0.88210    0.000
 4858.00    1.02414   0.86799    0.000
 4859.00    1.03662   0.86277    0.000
 4860.00    1.03953   0.86469    0.000
 4861.00    1.02886   0.85542    0.000
 4862.00    1.02813   0.85265    0.000
 4863.00    1.03982   0.86049    0.000
 4864.00    1.06995   0.85869    0.000
 4865.00    1.12040   0.85818    0.000
 4866.00    1.08978   0.86894    0.000
 4867.00    0.98042   0.87444    0.000
 4868.00    0.90220   0.87616    0.000
 4869.00    0.85065   0.88677    0.000
 4870.00    0.89866   0.89757    0.000
 4871.00    1.02177   0.90130    0.000
 4872.00    1.05239   0.90881    0.000
 4873.00    1.02171   0.92180    0.000
 4874.00    1.02736   0.92817    0.000
 4875.00    1.05410   0.93171    0.020
 4876.00    1.02311   0.94300    0.019
 4877.00    0.96292   0.95116    0.019
 4878.00    1.00278   0.95166    0.019
 4879.00    1.08645   0.95943    0.019
 4880.00    1.19570   0.96854    0.019
 4881.00    1.31457   0.96777    0.020
 4882.00    1.34849   0.97120    0.020
 4883.00    1.35531   0.98029    0.020
 4884.00    1.32426   0.98074    0.020
 4885.00    1.28311   0.98102    0.020
 4886.00    1.09891   0.98928    0.020
 4887.00    0.88350   0.99185    0.020
 4888.00    0.92701   0.99084    0.020
 4889.00    1.01540   0.99882    0.020
 4890.00    1.12150   1.00335    0.020
 4891.00    1.22993   1.00144    0.020
 4892.00    1.20949   1.00909    0.020
 4893.00    1.17707   1.01536    0.020
 4894.00    1.26884   1.01364    0.020
 4895.00    1.36766   1.02017    0.020
 4896.00    1.15239   1.02616    0.020
 4897.00    0.93319   1.02406    0.020
 4898.00    1.06660   1.02881    0.020
 4899.00    1.19234   1.03387    0.020
 4900.00    1.13583   1.03106    0.020
 4901.00    1.08278   1.03313    0.020
 4902.00    1.07435   1.03707    0.020
 4903.00    1.06422   1.03422    0.020
 4904.00    1.03927   1.03298    0.020
 4905.00    1.01965   1.03501    0.020
 4906.00    1.03437   1.03312    0.020
 4907.00    1.07103   1.02963    0.020
 4908.00    1.21801   1.02897    0.020
 4909.00    1.33804   1.02749    0.020
 4910.00    1.34836   1.02324    0.020
 4911.00    1.33909   1.02056    0.020
 4912.00    1.26368   1.01937    0.021
 4913.00    1.20192   1.01612    0.021
 4914.00    1.17901   1.01249    0.021
 4915.00    1.13413   1.01064    0.020
 4916.00    1.03579   1.00930    0.020
 4917.00    0.95133   1.00664    0.020
 4918.00    0.89598   1.00383    0.020
 4919.00    0.96988   1.00422    0.020
 4920.00    1.27959   1.00415    0.020
 4921.00    1.38760   1.00136    0.020
 4922.00    1.17394   1.00358    0.020
 4923.00    1.05717   1.00727    0.020
 4924.00    1.07600   1.00464    0.020
 4925.00    1.08769   1.00642    0.020
 4926.00    1.09056   1.01310    0.020
 4927.00    1.12112   1.01152    0.020
 4928.00    1.18171   1.01218    0.020
 4929.00    1.19914   1.01983    0.020
 4930.00    1.17522   1.01873    0.020
 4931.00    1.13531   1.01825    0.020
 4932.00    1.08189   1.02565    0.020
 4933.00    1.07574   1.02465    0.020
 4934.00    1.10473   1.02326    0.020
 4935.00    1.09866   1.02995    0.019
 4936.00    1.06969   1.02986    0.019
 4937.00    1.06505   1.02887    0.019
 4938.00    1.07433   1.03414    0.019
 4939.00    1.08105   1.03387    0.019
 4940.00    1.08651   1.03401    0.000
 4941.00    1.13068   1.03963    0.000
 4942.00    1.19152   1.03941    0.000
 4943.00    1.22609   1.03911    0.000
 4944.00    1.25095   1.04402    0.000
 4945.00    1.27539   1.04398    0.000
 4946.00    1.29970   1.04271    0.000
 4947.00    1.35246   1.04595    0.000
 4948.00    1.41265   1.04577    0.000
 4949.00    1.26435   1.04386    0.000
 4950.00    1.07166   1.04510    0.000
 4951.00    1.09648   1.04359    0.000
 4952.00    1.15795   1.04119    0.000
 4953.00    1.25757   1.04162    0.000
 4954.00    1.36204   1.03835    0.000
 4955.00    1.25492   1.03546    0.000
 4956.00    1.12902   1.03675    0.000
 4957.00    1.19537   1.03260    0.000
 4958.00    1.27186   1.02860    0.000
 4959.00    1.40829   1.03087    0.000
 4960.00    1.54258   1.02945    0.000
 4961.00    1.41860   1.02586    0.000
 4962.00    1.29529   1.02611    0.000
 4963.00    1.18666   1.02636    0.000
 4964.00    1.08477   1.02470    0.000
 4965.00    1.06569   1.02352    0.000
 4966.00    1.04645   1.02388    0.000
 4967.00    1.02579   1.02352    0.000
 4968.00    1.02663   1.02225    0.000
 4969.00    1.16168   1.02200    0.000
 4970.00    1.27620   1.02128    0.000
 4971.00    1.29006   1.02040    0.000
 4972.00    1.29554   1.01907    0.000
 4973.00    1.26762   1.01695    0.000
 4974.00    1.23828   1.01661    0.000
 4975.00    1.20421   1.01434    0.000
 4976.00    1.15803   1.01048    0.000
 4977.00    1.07800   1.01037    0.000
 4978.00    1.01614   1.00820    0.000
 4979.00    0.99773   1.00326    0.000
 4980.00    1.02377   1.00302    0.000
 4981.00    1.14163   1.00251    0.000
 4982.00    1.22736   0.99765    0.000
 4983.00    1.25538   0.99655    0.000
 4984.00    1.27325   0.99788    0.000
 4985.00    1.27519   0.99498    0.000
 4986.00    1.21982   0.99408    0.000
 4987.00    1.08540   0.99591    0.000
 4988.00    1.07692   0.99411    0.000
 4989.00    1.22137   0.99405    0.000
 4990.00    1.27510   0.99496    0.000
 4991.00    1.23175   0.99272    0.000
 4992.00    1.20238   0.99390    0.000
 4993.00    1.18620   0.99385    0.000
 4994.00    1.12605   0.99036    0.000
 4995.00    1.02929   0.99158    0.000
 4996.00    1.02631   0.99037    0.000
 4997.00    1.09206   0.98601    0.000
 4998.00    1.12549   0.98651    0.000
 4999.00    1.13814   0.98408    0.000
 5000.00    1.16122   0.97894    0.000
 5001.00    1.19018   0.97865    0.000
 5002.00    1.13543   0.97635    0.000
 5003.00    1.03967   0.97115    0.000
 5004.00    1.12639   0.97031    0.000
 5005.00    1.29038   0.96877    0.000
 5006.00    1.24442   0.96324    0.000
 5007.00    1.12233   0.96196    0.000
 5008.00    1.10194   0.96241    0.000
 5009.00    1.11275   0.95815    0.000
 5010.00    1.19703   0.95681    0.000
 5011.00    1.30007   0.95760    0.000
 5012.00    1.20196   0.95427    0.000
 5013.00    1.06206   0.95415    0.000
 5014.00    1.06556   0.95559    0.000
 5015.00    1.09254   0.95353    0.000
 5016.00    0.95413   0.95512    0.000
 5017.00    0.79543   0.95803    0.000
 5018.00    0.80439   0.95687    0.000
 5019.00    0.82752   0.95823    0.000
 5020.00    1.00097   0.96306    0.000
 5021.00    1.18177   0.96394    0.000
 5022.00    1.02806   0.96397    0.000
 5023.00    0.87198   0.96920    0.000
 5024.00    0.88654   0.97178    0.000
 5025.00    0.90431   0.97109    0.000
 5026.00    0.98667   0.97585    0.000
 5027.00    1.05760   0.97839    0.000
 5028.00    0.99504   0.97680    0.000
 5029.00    0.94626   0.98016    0.019
 5030.00    1.00864   0.98287    0.019
 5031.00    1.07075   0.98136    0.018
 5032.00    1.13117   0.98147    0.019
 5033.00    1.14523   0.98345    0.019
 5034.00    0.93755   0.98366    0.019
 5035.00    0.79167   0.98087    0.018
 5036.00    0.88650   0.98080    0.019
 5037.00    0.98164   0.98309    0.019
 5038.00    1.07778   0.98008    0.019
 5039.00    1.13980   0.97957    0.019
 5040.00    1.10816   0.98285    0.019
 5041.00    1.06296   0.97959    0.018
 5042.00    0.98590   0.97940    0.018
 5043.00    0.95106   0.98502    0.018
 5044.00    1.00203   0.98440    0.018
 5045.00    1.04364   0.98353    0.018
 5046.00    1.06868   0.98847    0.018
 5047.00    1.06992   0.99098    0.018
 5048.00    1.03432   0.98992    0.018
 5049.00    1.02837   0.99242    0.018
 5050.00    1.06271   0.99720    0.018
 5051.00    1.10097   0.99795    0.018
 5052.00    1.14392   0.99860    0.018
 5053.00    1.17029   1.00289    0.018
 5054.00    1.17917   1.00517    0.018
 5055.00    1.16000   1.00512    0.018
 5056.00    1.11474   1.00683    0.018
 5057.00    1.09342   1.00914    0.018
 5058.00    1.09177   1.00908    0.017
 5059.00    1.06503   1.00815    0.017
 5060.00    1.02017   1.00995    0.017
 5061.00    0.99143   1.00966    0.018
 5062.00    0.97292   1.00632    0.018
 5063.00    1.10150   1.00714    0.019
 5064.00    1.31162   1.00658    0.021
 5065.00    1.24861   1.00105    0.022
 5066.00    1.05391   1.00014    0.022
 5067.00    1.02416   1.00131    0.022
 5068.00    1.06308   0.99652    0.022
 5069.00    1.10304   0.99212    0.021
 5070.00    1.14337   0.99343    0.019
 5071.00    1.09829   0.99199    0.019
 5072.00    1.02753   0.98578    0.018
 5073.00    1.02217   0.98467    0.018
 5074.00    1.03315   0.98634    0.018
 5075.00    1.05533   0.98254    0.018
 5076.00    1.07978   0.97887    0.018
 5077.00    1.03395   0.98073    0.018
 5078.00    0.97695   0.98131    0.018
 5079.00    1.01779   0.97742    0.019
 5080.00    1.07021   0.97694    0.019
 5081.00    1.04711   0.98021    0.019
 5082.00    1.01793   0.97999    0.018
 5083.00    1.01930   0.97886    0.018
 5084.00    1.02206   0.98153    0.018
 5085.00    1.04838   0.98353    0.018
 5086.00    1.07363   0.98329    0.018
 5087.00    1.03211   0.98482    0.018
 5088.00    0.99608   0.98689    0.018
 5089.00    1.06204   0.98736    0.018
 5090.00    1.12569   0.98812    0.018
 5091.00    1.16362   0.98926    0.018
 5092.00    1.19025   0.98946    0.018
 5093.00    1.12892   0.98957    0.018
 5094.00    1.06956   0.98983    0.018
 5095.00    1.02178   0.98936    0.018
 5096.00    1.01631   0.98827    0.018
 5097.00    1.20821   0.98758    0.019
 5098.00    1.34908   0.98718    0.018
 5099.00    1.29537   0.98574    0.018
 5100.00    1.22350   0.98453    0.018
 5101.00    1.09381   0.98471    0.018
 5102.00    0.99586   0.98478    0.018
 5103.00    0.98348   0.98338    0.018
 5104.00    0.98996   0.98211    0.018
 5105.00    1.04005   0.98351    0.018
 5106.00    1.08466   0.98394    0.018
 5107.00    1.11831   0.98136    0.018
 5108.00    1.12440   0.98295    0.018
 5109.00    1.08248   0.98552    0.018
 5110.00    1.05573   0.98241    0.018
 5111.00    1.05213   0.98324    0.018
 5112.00    1.07512   0.98697    0.018
 5113.00    1.13371   0.98447    0.018
 5114.00    1.11998   0.98370    0.018
 5115.00    1.02090   0.98663    0.018
 5116.00    0.98241   0.98501    0.018
 5117.00    1.00699   0.98248    0.018
 5118.00    1.05745   0.98390    0.018
 5119.00    1.13167   0.98363    0.018
 5120.00    1.12830   0.97927    0.018
 5121.00    1.06216   0.97821    0.018
 5122.00    1.07451   0.97962    0.018
 5123.00    1.14273   0.97507    0.018
 5124.00    1.17838   0.97186    0.018
 5125.00    1.19368   0.97411    0.018
 5126.00    1.08348   0.97106    0.017
 5127.00    0.90478   0.96735    0.017
 5128.00    0.93909   0.96963    0.017
 5129.00    1.07445   0.96770    0.018
 5130.00    1.08475   0.96358    0.018
 5131.00    1.04386   0.96606    0.018
 5132.00    1.02584   0.96648    0.017
 5133.00    1.01581   0.96161    0.017
 5134.00    1.02859   0.96242    0.018
 5135.00    1.04809   0.96532    0.018
 5136.00    0.95773   0.96052    0.017
 5137.00    0.84053   0.95953    0.017
 5138.00    0.95675   0.96345    0.017
 5139.00    1.11909   0.95828    0.017
 5140.00    1.19861   0.95652    0.017
 5141.00    1.26535   0.96207    0.017
 5142.00    1.13875   0.95776    0.017
 5143.00    0.99013   0.95383    0.017
 5144.00    1.02335   0.95906    0.017
 5145.00    1.07044   0.95823    0.017
 5146.00    0.98943   0.95384    0.017
 5147.00    0.90315   0.95619    0.017
 5148.00    0.94612   0.95750    0.017
 5149.00    0.98803   0.95459    0.018
 5150.00    0.94061   0.95504    0.018
 5151.00    0.89816   0.95647    0.017
 5152.00    0.94171   0.95363    0.018
 5153.00    0.98618   0.95227    0.018
 5154.00    1.04048   0.95322    0.018
 5155.00    1.07633   0.95030    0.018
 5156.00    0.97340   0.94653    0.018
 5157.00    0.89040   0.94646    0.018
 5158.00    0.92154   0.94354    0.018
 5159.00    0.96080   0.93600    0.018
 5160.00    1.03706   0.93311    0.018
 5161.00    1.11015   0.93100    0.018
 5162.00    1.17147   0.92194    0.018
 5163.00    1.21197   0.91572    0.018
 5164.00    1.18755   0.91413    0.018
 5165.00    1.13364   0.90686    0.018
 5166.00    1.00164   0.89821    0.018
 5167.00    0.89766   0.89570    0.018
 5168.00    0.85738   0.89221    0.018
 5169.00    0.80176   0.88486    0.018
 5170.00    0.71592   0.88353    0.018
 5171.00    0.68974   0.88479    0.017
 5172.00    0.76597   0.87846    0.018
 5173.00    0.82867   0.87446    0.018
 5174.00    0.87103   0.87991    0.018
 5175.00    0.88777   0.88167    0.018
 5176.00    0.87067   0.87821    0.018
 5177.00    0.88813   0.88141    0.018
 5178.00    0.94580   0.88629    0.018
 5179.00    0.96252   0.88556    0.018
 5180.00    0.93722   0.88727    0.018
 5181.00    0.90964   0.89295    0.017
 5182.00    0.87998   0.89467    0.017
 5183.00    0.85959   0.89489    0.017
 5184.00    0.84658   0.89987    0.017
 5185.00    0.80671   0.90420    0.017
 5186.00    0.74798   0.90705    0.017
 5187.00    0.81525   0.91324    0.017
 5188.00    0.96007   0.91518    0.017
 5189.00    1.01833   0.91605    0.017
 5190.00    1.03005   0.92444    0.000
 5191.00    1.01652   0.92683    0.000
 5192.00    0.99120   0.92322    0.000
 5193.00    1.00958   0.93012    0.000
 5194.00    1.04555   0.93650    0.000
 5195.00    1.02390   0.93176    0.000
 5196.00    0.98248   0.93433    0.000
 5197.00    1.02654   0.94255    0.000
 5198.00    1.09531   0.93878    0.000
 5199.00    1.12479   0.93697    0.000
 5200.00    1.14489   0.94513    0.000
 5201.00    1.17257   0.94410    0.000
 5202.00    1.20170   0.93811    0.000
 5203.00    1.12748   0.94407    0.000
 5204.00    1.03779   0.94758    0.000
 5205.00    1.04904   0.94035    0.000
 5206.00    1.07135   0.94226    0.000
 5207.00    0.97549   0.94964    0.000
 5208.00    0.87111   0.94623    0.000
 5209.00    1.01955   0.94542    0.000
 5210.00    1.17744   0.95231    0.000
 5211.00    1.18594   0.95373    0.017
 5212.00    1.19181   0.95285    0.017
 5213.00    1.12739   0.95691    0.017
 5214.00    1.06319   0.96042    0.017
 5215.00    1.00259   0.96001    0.017
 5216.00    0.95319   0.96077    0.018
 5217.00    1.01776   0.96350    0.017
 5218.00    1.07666   0.96642    0.017
 5219.00    1.09425   0.96762    0.017
 5220.00    1.10541   0.96710    0.018
 5221.00    1.08071   0.97007    0.017
 5222.00    1.06333   0.97251    0.017
 5223.00    1.07855   0.96982    0.018
 5224.00    1.06400   0.97035    0.018
 5225.00    0.94071   0.97475    0.018
 5226.00    0.84104   0.97294    0.018
 5227.00    0.81366   0.97032    0.018
 5228.00    0.82133   0.97727    0.018
 5229.00    0.92024   0.98025    0.018
 5230.00    0.96461   0.97629    0.018
 5231.00    0.88702   0.98183    0.018
 5232.00    0.87169   0.98695    0.018
 5233.00    0.97704   0.98314    0.018
 5234.00    1.00783   0.98580    0.018
 5235.00    0.91255   0.99319    0.018
 5236.00    0.93529   0.99260    0.018
 5237.00    1.13279   0.99132    0.018
 5238.00    1.21435   0.99833    0.018
 5239.00    1.14496   1.00088    0.017
 5240.00    1.09172   0.99644    0.017
 5241.00    1.05700   1.00026    0.017
 5242.00    1.02409   1.00465    0.017
 5243.00    0.99301   0.99990    0.017
 5244.00    1.03857   0.99899    0.017
 5245.00    1.15251   1.00357    0.017
 5246.00    1.14776   1.00135    0.017
 5247.00    1.04969   0.99576    0.017
 5248.00    1.03548   0.99784    0.017
 5249.00    1.07926   0.99895    0.017
 5250.00    1.10263   0.99254    0.017
 5251.00    1.11364   0.99046    0.017
 5252.00    1.09661   0.99095    0.017
 5253.00    1.06474   0.98677    0.017
 5254.00    1.08188   0.98331    0.017
 5255.00    1.12152   0.98041    0.017
 5256.00    1.10379   0.97580    0.016
 5257.00    1.06338   0.97369    0.016
 5258.00    1.08840   0.97203    0.016
 5259.00    1.13546   0.96481    0.016
 5260.00    1.18444   0.95962    0.017
 5261.00    1.23396   0.96054    0.017
 5262.00    1.14282   0.95453    0.017
 5263.00    1.01884   0.94668    0.017
 5264.00    1.00323   0.94972    0.017
 5265.00    1.00794   0.94775    0.017
 5266.00    1.00071   0.93772    0.017
 5267.00    0.99175   0.94181    0.017
 5268.00    0.93520   0.94947    0.017
 5269.00    0.87364   0.94103    0.017
 5270.00    0.81716   0.93787    0.017
 5271.00    0.76102   0.95026    0.017
 5272.00    0.88389   0.95270    0.017
 5273.00    1.01277   0.94803    0.018
 5274.00    0.86880   0.95737    0.017
 5275.00    0.73246   0.96587    0.017
 5276.00    0.85010   0.96408    0.017
 5277.00    0.96326   0.97071    0.017
 5278.00    1.00840   0.98245    0.017
 5279.00    1.05399   0.98468    0.017
 5280.00    1.10404   0.98580    0.017
 5281.00    1.13848   0.99437    0.017
 5282.00    1.06306   1.00148    0.017
 5283.00    1.00342   1.00266    0.017
 5284.00    1.02937   1.00591    0.017
 5285.00    1.04353   1.01248    0.017
 5286.00    1.00649   1.01624    0.017
 5287.00    1.01871   1.01714    0.017
 5288.00    1.20723   1.01918    0.018
 5289.00    1.31462   1.02298    0.018
 5290.00    1.17837   1.02384    0.018
 5291.00    1.08275   1.02281    0.018
 5292.00    1.09101   1.02530    0.018
 5293.00    1.11758   1.02679    0.018
 5294.00    1.18442   1.02486    0.018
 5295.00    1.22709   1.02588    0.017
 5296.00    1.22362   1.02877    0.017
 5297.00    1.20773   1.02683    0.017
 5298.00    1.17114   1.02454    0.017
 5299.00    1.13472   1.02848    0.017
 5300.00    1.09854   1.03081    0.017
 5301.00    1.08610   1.02864    0.017
 5302.00    1.10412   1.03010    0.017
 5303.00    1.11840   1.03306    0.017
 5304.00    1.12844   1.03319    0.017
 5305.00    1.10539   1.03439    0.017
 5306.00    1.04934   1.03650    0.017
 5307.00    1.04684   1.03573    0.016
 5308.00    1.09145   1.03566    0.016
 5309.00    1.12326   1.03803    0.016
 5310.00    1.14515   1.03775    0.016
 5311.00    1.15496   1.03621    0.016
 5312.00    1.15653   1.03672    0.016
 5313.00    1.11514   1.03490    0.016
 5314.00    1.04809   1.03135    0.016
 5315.00    1.06246   1.03118    0.016
 5316.00    1.11924   1.02960    0.016
 5317.00    1.12502   1.02342    0.016
 5318.00    1.10775   1.01988    0.016
 5319.00    1.11231   1.01996    0.016
 5320.00    1.12535   1.01592    0.016
 5321.00    1.11176   1.00951    0.016
 5322.00    1.08937   1.00854    0.015
 5323.00    1.07821   1.00736    0.016
 5324.00    1.07017   1.00082    0.016
 5325.00    1.15485   0.99812    0.016
 5326.00    1.26067   1.00034    0.016
 5327.00    1.18491   0.99759    0.016
 5328.00    1.07601   0.99167    0.016
 5329.00    1.06163   0.99278    0.016
 5330.00    1.06050   0.99588    0.016
 5331.00    1.04920   0.99485    0.016
 5332.00    1.03686   0.99465    0.016
 5333.00    1.00763   0.99615    0.016
 5334.00    0.97730   0.99785    0.016
 5335.00    1.05086   0.99932    0.016
 5336.00    1.12742   1.00061    0.016
 5337.00    1.17090   1.00289    0.017
 5338.00    1.21114   1.00552    0.017
 5339.00    1.15905   1.00685    0.017
 5340.00    1.11296   1.00771    0.016
 5341.00    1.15305   1.01152    0.016
 5342.00    1.19116   1.01520    0.017
 5343.00    1.21070   1.01590    0.017
 5344.00    1.22565   1.01965    0.017
 5345.00    1.20928   1.02329    0.017
 5346.00    1.19294   1.02332    0.017
 5347.00    1.17682   1.02666    0.017
 5348.00    1.15952   1.03130    0.017
 5349.00    1.13717   1.03185    0.017
 5350.00    1.10951   1.03317    0.017
 5351.00    1.06326   1.03830    0.016
 5352.00    1.04122   1.04069    0.016
 5353.00    1.09059   1.03983    0.016
 5354.00    1.11768   1.04247    0.017
 5355.00    1.08881   1.04498    0.017
 5356.00    1.07864   1.04392    0.017
 5357.00    1.10897   1.04392    0.016
 5358.00    1.15191   1.04502    0.016
 5359.00    1.21853   1.04438    0.016
 5360.00    1.23138   1.04234    0.016
 5361.00    1.15602   1.04098    0.016
 5362.00    1.13598   1.03994    0.016
 5363.00    1.19550   1.03812    0.016
 5364.00    1.17189   1.03532    0.016
 5365.00    1.04310   1.03366    0.016
 5366.00    0.96779   1.03326    0.016
 5367.00    0.95212   1.03065    0.016
 5368.00    0.96285   1.02899   -2.000
 5369.00    0.99956   1.02933   -2.000
 5370.00    0.99773   1.02713   -2.000
 5371.00    0.96248   1.02445   -2.000
 5372.00    0.95249   1.02565   -2.000
 5373.00    0.96180   1.02721   -2.000
 5374.00    0.96437   1.02604   -2.000
 5375.00    0.96242   1.02720   -2.000
 5376.00    0.98102   1.02808   -2.000
 5377.00    1.01170   1.02624   -2.000
 5378.00    1.02409   1.02752   -2.000
 5379.00    1.02710   1.02901   -2.000
 5380.00    1.02717   1.02681   -2.000
 5381.00    1.02592   1.02676   -2.000
 5382.00    1.07286   1.02846   -2.000
 5383.00    1.13819   1.02508    0.016
 5384.00    1.10139   1.02293    0.016
 5385.00    1.03147   1.02561    0.016
 5386.00    1.00886   1.02244    0.016
 5387.00    0.99911   1.01634    0.016
 5388.00    1.07117   1.01764    0.016
 5389.00    1.16147   1.01673    0.016
 5390.00    1.18188   1.00834    0.016
 5391.00    1.18987   1.00670    0.016
 5392.00    1.21118   1.00939    0.016
 5393.00    1.23429   1.00266    0.016
 5394.00    1.19524   0.99619    0.016
 5395.00    1.15018   0.99960    0.017
 5396.00    1.10538   0.99730    0.016
 5397.00    1.06060   0.98751    0.016
 5398.00    1.04582   0.98806    0.016
 5399.00    1.03200   0.99174    0.016
 5400.00    1.04916   0.98575    0.016
 5401.00    1.06650   0.98259    0.016
 5402.00    1.08849   0.98717    0.016
 5403.00    1.10867   0.98576    0.016
 5404.00    1.10432   0.98104    0.016
 5405.00    1.09985   0.98363    0.016
 5406.00    1.09442   0.98642    0.016
 5407.00    1.08463   0.98525    0.016
 5408.00    1.04606   0.98777    0.016
 5409.00    1.01043   0.99182    0.016
 5410.00    0.98986   0.99132    0.015
 5411.00    0.98230   0.99278    0.015
 5412.00    1.02877   0.99800    0.015
 5413.00    1.06214   1.00011    0.015
 5414.00    1.05052   1.00057    0.015
 5415.00    1.05657   1.00415    0.015
 5416.00    1.11373   1.00766    0.015
 5417.00    1.14600   1.00828    0.015
 5418.00    1.11679   1.01006    0.015
 5419.00    1.07802   1.01274    0.015
 5420.00    1.01889   1.01346    0.015
 5421.00    0.98161   1.01396    0.015
 5422.00    0.98473   1.01446    0.015
 5423.00    1.00921   1.01471    0.015
 5424.00    1.06822   1.01542    0.015
 5425.00    1.09861   1.01528    0.015
 5426.00    1.08843   1.01423    0.015
 5427.00    1.04818   1.01548    0.015
 5428.00    0.97042   1.01675    0.015
 5429.00    0.96757   1.01268    0.015
 5430.00    1.04706   1.01129    0.015
 5431.00    1.07170   1.01619    0.015
 5432.00    1.04319   1.01578    0.015
 5433.00    1.04861   1.01230    0.015
 5434.00    1.08304   1.01473    0.015
 5435.00    1.10725   1.01737    0.016
 5436.00    1.12376   1.01434    0.016
 5437.00    1.13206   1.01396    0.016
 5438.00    1.13492   1.01892    0.016
 5439.00    1.13647   1.01816    0.016
 5440.00    1.13728   1.01513    0.015
 5441.00    1.11483   1.01770    0.015
 5442.00    1.08064   1.01944    0.016
 5443.00    1.08132   1.01748    0.016
 5444.00    1.09725   1.01709    0.015
 5445.00    1.13888   1.01843    0.015
 5446.00    1.19016   1.01615    0.016
 5447.00    1.13362   1.01377    0.016
 5448.00    1.04278   1.01462    0.016
 5449.00    1.03458   1.01419    0.016
 5450.00    1.04835   1.01373    0.016
 5451.00    1.07066   1.01376    0.016
 5452.00    1.09483   1.01171    0.016
 5453.00    1.11507   1.00987    0.016
 5454.00    1.13463   1.01078    0.015
 5455.00    1.15375   1.00891    0.015
 5456.00    1.17281   1.00515    0.015
 5457.00    1.12151   1.00826    0.015
 5458.00    1.06371   1.01139    0.015
 5459.00    1.04785   1.00645    0.015
 5460.00    1.03434   1.00418    0.015
 5461.00    1.09660   1.00927    0.015
 5462.00    1.15944   1.00711    0.015
 5463.00    1.10616   0.99952    0.015
 5464.00    1.05865   1.00396    0.015
 5465.00    1.14639   1.00967    0.015
 5466.00    1.22682   1.00173    0.014
 5467.00    1.21343   0.99803    0.015
 5468.00    1.18974   1.00603    0.015
 5469.00    1.07692   1.00342    0.015
 5470.00    0.98665   0.99322    0.015
 5471.00    1.04101   0.99829    0.015
 5472.00    1.09863   1.00502    0.015
 5473.00    1.17259   0.99554    0.015
 5474.00    1.21636   0.99158    0.015
 5475.00    1.13758   1.00118    0.015
 5476.00    1.07128   0.99847    0.015
 5477.00    1.04701   0.98916    0.015
 5478.00    1.03986   0.99618   -2.000
 5479.00    1.08135   1.00311   -2.000
 5480.00    1.10522   0.99479   -2.000
 5481.00    1.08631   0.99271   -2.000
 5482.00    1.04695   1.00223   -2.000
 5483.00    0.96474   1.00035   -2.000
 5484.00    0.93923   0.99499   -2.000
 5485.00    1.01696   1.00312   -2.000
 5486.00    0.88973   1.00725   -2.000
 5487.00    0.43627   1.00012   -2.000
 5488.00    0.29751   1.00142   -2.000
 5489.00    0.59837   1.00922   -2.000
 5490.00    0.70133   1.00547   -2.000
 5491.00    0.56098   1.00248   -2.000
 5492.00    0.74048   1.01002   -2.000
 5493.00    1.26659   1.01039   -2.000
 5494.00    1.45784   1.00371   -2.000
 5495.00    1.32902   1.00609   -2.000
 5496.00    1.28832   1.01077   -2.000
 5497.00    1.32189   1.00591   -2.000
 5498.00    1.28367   1.00341   -2.000
 5499.00    1.19215   1.00771   -2.000
 5500.00    1.15072   1.00694   -2.000
 5501.00    1.14194   1.00271   -2.000
 5502.00    1.08292   1.00301    0.015
 5503.00    0.99523   1.00460    0.015
 5504.00    1.02421   1.00309    0.015
 5505.00    1.11115   1.00154    0.015
 5506.00    1.09398   1.00113    0.015
 5507.00    1.03208   1.00135    0.014
 5508.00    1.02374   1.00223    0.014
 5509.00    1.03512   1.00147    0.014
 5510.00    1.02724   1.00098    0.014
 5511.00    1.01334   1.00321    0.014
 5512.00    1.00952   1.00382    0.014
 5513.00    1.00831   1.00176    0.014
 5514.00    0.99938   1.00236    0.014
 5515.00    0.98880   1.00611    0.014
 5516.00    0.96190   1.00672    0.014
 5517.00    0.93226   1.00528    0.014
 5518.00    0.94446   1.00764    0.014
 5519.00    0.96197   1.01032    0.014
 5520.00    1.03707   1.00876    0.014
 5521.00    1.11725   1.00695    0.015
 5522.00    1.13536   1.01028    0.015
 5523.00    1.15023   1.01328    0.015
 5524.00    1.14297   1.01098    0.015
 5525.00    1.13466   1.01044    0.015
 5526.00    1.07777   1.01425    0.030
 5527.00    1.02198   1.01425   -1.000
 5528.00    0.98984   1.00979   -1.000
 5529.00    0.96473   1.01186   -1.000
 5530.00    1.02536   1.01729   -1.000
 5531.00    1.07029   1.01540   -1.000
 5532.00    0.98434   1.01284   -1.000
 5533.00    0.91676   1.01721    0.211
 5534.00    0.96349   1.01982    0.026
 5535.00    1.00917   1.01569    0.015
 5536.00    1.04972   1.01642    0.015
 5537.00    1.06818   1.02268    0.015
 5538.00    0.99892   1.02289    0.015
 5539.00    0.96463   1.01997    0.015
 5540.00    1.04572   1.02308    0.015
 5541.00    1.09130   1.02757    0.015
 5542.00    1.03785   1.02561    0.015
 5543.00    1.02533   1.02419    0.015
 5544.00    1.11048   1.02848    0.015
 5545.00    1.16303   1.03054    0.015
 5546.00    1.14837   1.02777    0.015
 5547.00    1.13226   1.02773    0.015
 5548.00    1.11354   1.03133    0.015
 5549.00    1.09422   1.03116    0.015
 5550.00    1.07392   1.02839    0.014
 5551.00    1.09531   1.02882    0.014
 5552.00    1.17406   1.03025    0.014
 5553.00    1.17892   1.02859    0.014
 5554.00    1.09420   1.02626    0.014
 5555.00    1.04876   1.02601    0.014
 5556.00    1.04527   1.02619    0.014
 5557.00    1.06953   1.02503    0.014
 5558.00    1.11993   1.02208    0.014
 5559.00    1.11944   1.02038    0.014
 5560.00    1.07667   1.02125    0.014
 5561.00    1.06732   1.01981    0.014
 5562.00    1.08241   1.01519    0.014
 5563.00    1.09980   1.01486    0.014
 5564.00    1.11868   1.01779    0.014
 5565.00    1.13168   1.01364    0.014
 5566.00    1.14140   1.00880    0.014
 5567.00    1.12897   1.01252    0.014
 5568.00    1.10571   1.01357    0.014
 5569.00    1.08964   1.00677    0.014
 5570.00    1.07660   1.00639    0.014
 5571.00    1.06909   1.01188    0.014
 5572.00    1.06360   1.00774    0.015
 5573.00    1.04076   1.00204    0.015
 5574.00    1.01261   1.00635    0.014
 5575.00    1.02708   1.00760    0.015
 5576.00    1.05240   1.00112    0.015
 5577.00    1.07075   1.00070    0.015
 5578.00    1.08766   1.00435    0.015
 5579.00    1.05305   1.00014    0.015
 5580.00    1.01002   0.99526    0.015
 5581.00    0.98665   0.99727    0.015
 5582.00    0.96569   0.99702    0.015
 5583.00    1.03055   0.99229    0.015
 5584.00    1.10262   0.99122    0.015
 5585.00    1.06211   0.99269    0.015
 5586.00    1.01616   0.98988    0.015
 5587.00    1.02259   0.98538    0.015
 5588.00    1.02937   0.98579    0.015
 5589.00    1.00963   0.98755    0.015
 5590.00    0.98967   0.98564    0.014
 5591.00    0.96513   0.98356    0.014
 5592.00    0.94385   0.98567    0.014
 5593.00    0.96033   0.98727    0.014
 5594.00    0.98082   0.98402    0.015
 5595.00    1.03361   0.98396    0.014
 5596.00    1.06775   0.98925    0.014
 5597.00    0.98916   0.99084    0.015
 5598.00    0.92919   0.98840    0.015
 5599.00    0.95792   0.99124    0.014
 5600.00    0.98735   0.99607    0.014
 5601.00    1.01948   0.99470    0.014
 5602.00    1.04228   0.99439    0.014
 5603.00    1.03489   0.99927    0.014
 5604.00    1.03372   1.00184    0.014
 5605.00    1.04961   1.00067    0.014
 5606.00    1.06161   1.00325    0.014
 5607.00    1.06451   1.00635    0.014
 5608.00    1.07684   1.00400    0.014
 5609.00    1.10831   1.00363    0.014
 5610.00    1.13335   1.00713    0.014
 5611.00    1.14702   1.00736    0.014
 5612.00    1.16292   1.00535    0.014
 5613.00    1.18226   1.00713    0.014
 5614.00    1.15979   1.00813    0.014
 5615.00    1.08056   1.00416    0.014
 5616.00    1.05234   1.00304    0.014
 5617.00    1.08503   1.00564    0.014
 5618.00    1.07974   1.00530    0.014
 5619.00    1.03443   1.00324    0.014
 5620.00    1.02631   1.00332    0.014
 5621.00    1.05272   1.00400    0.014
 5622.00    1.05938   1.00335    0.014
 5623.00    1.04986   1.00289    0.014
 5624.00    1.05481   1.00257    0.014
 5625.00    1.07021   1.00276    0.014
 5626.00    1.07870   1.00381    0.014
 5627.00    1.08283   1.00363    0.014
 5628.00    1.09270   1.00335    0.014
 5629.00    1.10574   1.00472    0.014
 5630.00    1.09765   1.00506    0.014
 5631.00    1.07940   1.00394    0.014
 5632.00    1.07597   1.00455    0.014
 5633.00    1.07871   1.00576    0.014
 5634.00    1.10470   1.00480    0.014
 5635.00    1.13895   1.00464    0.014
 5636.00    1.10600   1.00577    0.014
 5637.00    1.05290   1.00482    0.014
 5638.00    1.04039   1.00406    0.014
 5639.00    1.03799   1.00551    0.014
 5640.00    1.02060   1.00534    0.014
 5641.00    1.00017   1.00324    0.013
 5642.00    1.01557   1.00413    0.013
 5643.00    1.03665   1.00490    0.013
 5644.00    1.02298   1.00242    0.013
 5645.00    1.00523   1.00258    0.013
 5646.00    0.99901   1.00482    0.013
 5647.00    0.99371   1.00252    0.013
 5648.00    1.01212   0.99965    0.013
 5649.00    1.03159   1.00263    0.013
 5650.00    1.05392   1.00310    0.014
 5651.00    1.07491   0.99764    0.014
 5652.00    1.02919   0.99800    0.014
 5653.00    0.98634   1.00303    0.014
 5654.00    0.99629   0.99952    0.014
 5655.00    1.00991   0.99382    0.014
 5656.00    1.06419   0.99850    0.014
 5657.00    1.10695   1.00187    0.014
 5658.00    1.06038   0.99491    0.014
 5659.00    1.02026   0.99330    0.014
 5660.00    1.01797   1.00061    0.014
 5661.00    1.01028   1.00068    0.014
 5662.00    0.97745   0.99520    0.014
 5663.00    0.95848   0.99778    0.014
 5664.00    0.99216   1.00280    0.014
 5665.00    1.02458   1.00126    0.014
 5666.00    1.05303   1.00075    0.014
 5667.00    1.08528   1.00446    0.014
 5668.00    1.12773   1.00563    0.014
 5669.00    1.13639   1.00526    0.014
 5670.00    1.06703   1.00770    0.014
 5671.00    1.01916   1.00911    0.014
 5672.00    1.01418   1.00909    0.014
 5673.00    1.03346   1.01182    0.014
 5674.00    1.09494   1.01380    0.014
 5675.00    1.14687   1.01150    0.014
 5676.00    1.18426   1.01157    0.014
 5677.00    1.18733   1.01557    0.014
 5678.00    1.14450   1.01540    0.014
 5679.00    1.10714   1.01230    0.014
 5680.00    1.07625   1.01363    0.013
 5681.00    1.05360   1.01661    0.013
 5682.00    1.03951   1.01398    0.013
 5683.00    1.03423   1.01100    0.013
 5684.00    1.03703   1.01329    0.013
 5685.00    1.04525   1.01551    0.013
 5686.00    1.05786   1.01279    0.013
 5687.00    1.02910   1.00972    0.013
 5688.00    0.97092   1.01129    0.013
 5689.00    0.96865   1.01257    0.013
 5690.00    1.00122   1.00981    0.013
 5691.00    1.03055   1.00724    0.013
 5692.00    1.05812   1.00956    0.013
 5693.00    1.09586   1.01020    0.014
 5694.00    1.13842   1.00523    0.014
 5695.00    1.15252   1.00304    0.014
 5696.00    1.15500   1.00605    0.014
 5697.00    1.15100   1.00526    0.014
 5698.00    1.14475   0.99937    0.014
 5699.00    1.16752   0.99923    0.014
 5700.00    1.19882   1.00189    0.014
 5701.00    1.17739   0.99793    0.014
 5702.00    1.14312   0.99368    0.014
 5703.00    1.07655   0.99646    0.014
 5704.00    1.00361   0.99801    0.014
 5705.00    1.03069   0.99354    0.014
 5706.00    1.07313   0.99271    0.014
 5707.00    1.12039   0.99633    0.014
 5708.00    1.16819   0.99574    0.014
 5709.00    1.09714   0.99323    0.013
 5710.00    1.01708   0.99675    0.013
 5711.00    0.96992   1.00023    0.013
 5712.00    0.92410   0.99887    0.013
 5713.00    0.95410   1.00022    0.013
 5714.00    0.98573   1.00526    0.013
 5715.00    1.06062   1.00747    0.013
 5716.00    1.12995   1.00724    0.013
 5717.00    1.10398   1.01030    0.013
 5718.00    1.08031   1.01493    0.013
 5719.00    1.08092   1.01636    0.013
 5720.00    1.08182   1.01639    0.013
 5721.00    1.08491   1.01984    0.013
 5722.00    1.08377   1.02419    0.013
 5723.00    1.05857   1.02445    0.013
 5724.00    1.04322   1.02418    0.013
 5725.00    1.07267   1.02768    0.013
 5726.00    1.09671   1.03031    0.013
 5727.00    1.10060   1.02831    0.013
 5728.00    1.10561   1.02835    0.013
 5729.00    1.11413   1.03255    0.013
 5730.00    1.11777   1.03357    0.013
 5731.00    1.10854   1.03046    0.013
 5732.00    1.09076   1.03056    0.014
 5733.00    1.05360   1.03382    0.014
 5734.00    1.02424   1.03365    0.014
 5735.00    1.01020   1.03182    0.014
 5736.00    1.01680   1.03228    0.014
 5737.00    1.05873   1.03299    0.014
 5738.00    1.08439   1.03201    0.014
 5739.00    1.08565   1.03140    0.014
 5740.00    1.10568   1.03198    0.000
 5741.00    1.15046   1.03183    0.000
 5742.00    1.17350   1.03091    0.000
 5743.00    1.17128   1.02972    0.000
 5744.00    1.13181   1.02925    0.000
 5745.00    1.05417   1.02982    0.000
 5746.00    1.03848   1.03017    0.000
 5747.00    1.07875   1.02849    0.000
 5748.00    1.10658   1.02636    0.000
 5749.00    1.12450   1.02698    0.000
 5750.00    1.15433   1.02777    0.000
 5751.00    1.19248   1.02650    0.000
 5752.00    1.16479   1.02528    0.000
 5753.00    1.09665   1.02579    0.000
 5754.00    1.06690   1.02515    0.000
 5755.00    1.05774   1.02385    0.000
 5756.00    1.08266   1.02470    0.000
 5757.00    1.12346   1.02624    0.000
 5758.00    1.11705   1.02547    0.000
 5759.00    1.09170   1.02371    0.000
 5760.00    1.08095   1.02469    0.000
 5761.00    1.07519   1.02590    0.000
 5762.00    1.07428   1.02467    0.000
 5763.00    1.07477   1.02343    0.000
 5764.00    1.06535   1.02536    0.000
 5765.00    1.05358   1.02622    0.000
 5766.00    1.09951   1.02417    0.000
 5767.00    1.15652   1.02355    0.000
 5768.00    1.21024   1.02507    0.000
 5769.00    1.26346   1.02430    0.000
 5770.00    1.18626   1.02109    0.000
 5771.00    1.09485   1.02075    0.000
 5772.00    1.14408   1.02187    0.000
 5773.00    1.20340   1.01981    0.000
 5774.00    1.17423   1.01590    0.000
 5775.00    1.14180   1.01591    0.000
 5776.00    1.13232   1.01693    0.000
 5777.00    1.12391   1.01377    0.000
 5778.00    1.15032   1.01103    0.000
 5779.00    1.17035   1.01201    0.000
 5780.00    1.08781   1.01135    0.000
 5781.00    1.01285   1.00730    0.000
 5782.00    1.01466   1.00655    0.000
 5783.00    1.01504   1.00917    0.000
 5784.00    1.00509   1.00907    0.000
 5785.00    0.99791   1.00646    0.000
 5786.00    1.00617   1.00674    0.000
 5787.00    1.01346   1.00929    0.000
 5788.00    1.01647   1.01048    0.000
 5789.00    1.02032   1.01110    0.000
 5790.00    1.02727   1.01199    0.000
 5791.00    1.03348   1.01360   -2.000
 5792.00    1.03746   1.01595   -2.000
 5793.00    1.03529   1.01693   -2.000
 5794.00    1.01714   1.01780   -2.000
 5795.00    0.99887   1.02144   -2.000
 5796.00    0.98030   1.02460   -2.000
 5797.00    0.99435   1.02354   -2.000
 5798.00    1.07147   1.02357   -2.000
 5799.00    1.11122   1.02859   -2.000
 5800.00    1.08789   1.03134   -2.000
 5801.00    1.09375   1.02917   -2.000
 5802.00    1.14276   1.03020   -2.000
 5803.00    1.15011   1.03482   -2.000
 5804.00    1.10333   1.03433   -2.000
 5805.00    1.07182   1.03173   -2.000
 5806.00    1.05782   1.03472   -2.000
 5807.00    1.07915   1.03856   -2.000
 5808.00    1.13617   1.03636   -2.000
 5809.00    1.14269   1.03448   -2.000
 5810.00    1.10423   1.03827   -2.000
 5811.00    1.08915   1.04031    0.000
 5812.00    1.09241   1.03749    0.000
 5813.00    1.07077   1.03763    0.000
 5814.00    1.03194   1.04171    0.000
 5815.00    1.01809   1.04150    0.000
 5816.00    1.01934   1.03845    0.000
 5817.00    1.07104   1.04019    0.000
 5818.00    1.14940   1.04438    0.000
 5819.00    1.16684   1.04346    0.000
 5820.00    1.15638   1.04128    0.000
 5821.00    1.13876   1.04404    0.000
 5822.00    1.11832   1.04666    0.000
 5823.00    1.12864   1.04441    0.000
 5824.00    1.14930   1.04338    0.000
 5825.00    1.13765   1.04718    0.000
 5826.00    1.11688   1.04827    0.000
 5827.00    1.07809   1.04496    0.000
 5828.00    1.03511   1.04493    0.000
 5829.00    1.01961   1.04874    0.000
 5830.00    1.00925   1.04834    0.000
 5831.00    1.05326   1.04484    0.000
 5832.00    1.10511   1.04595    0.000
 5833.00    1.09823   1.04858    0.000
 5834.00    1.08520   1.04597    0.000
 5835.00    1.00926   1.04278    0.000
 5836.00    0.92906   1.04495    0.000
 5837.00    0.88378   1.04610    0.000
 5838.00    0.83966   1.04185    0.000
 5839.00    0.92759   1.03951    0.000
 5840.00    1.01464   1.04167    0.000
 5841.00    1.07116   1.04086    0.000
 5842.00    1.12460   1.03597    0.000
 5843.00    1.13131   1.03448    0.000
 5844.00    1.13569   1.03580    0.000
 5845.00    1.11743   1.03318    0.000
 5846.00    1.10281   1.02838    0.000
 5847.00    1.11372   1.02729    0.000
 5848.00    1.11985   1.02753    0.000
 5849.00    1.10015   1.02406    0.000
 5850.00    1.08036   1.02060    0.000
 5851.00    1.06012   1.02041    0.000
 5852.00    1.04509   1.01948    0.000
 5853.00    1.04864   1.01538    0.000
 5854.00    1.03461   1.01320    0.000
 5855.00    0.96788   1.01420    0.000
 5856.00    0.92259   1.01344    0.000
 5857.00    0.93199   1.01007    0.000
 5858.00    0.94013   1.00834    0.000
 5859.00    0.94552   1.00943    0.000
 5860.00    0.96567   1.00968    0.000
 5861.00    1.01393   1.00864    0.000
 5862.00    1.04554   1.00731    0.000
 5863.00    1.04948   1.00730    0.000
 5864.00    1.05359   1.00787    0.000
 5865.00    1.05793   1.00765    0.000
 5866.00    1.06686   1.00650    0.000
 5867.00    1.08165   1.00620    0.000
 5868.00    1.08493   1.00621    0.000
 5869.00    1.07521   1.00478    0.000
 5870.00    1.04284   1.00328    0.000
 5871.00    0.98791   1.00284    0.000
 5872.00    0.95311   1.00142    0.000
 5873.00    0.93597   0.99792    0.000
 5874.00    0.95676   0.99476    0.000
 5875.00    1.00690   0.99257    0.000
 5876.00    1.04440   0.98953    0.000
 5877.00    1.07332   0.98476    0.000
 5878.00    1.07351   0.98020    0.000
 5879.00    1.05659   0.97589    0.000
 5880.00    1.05427   0.97064    0.000
 5881.00    1.05955   0.96423    0.000
 5882.00    1.05122   0.95957    0.000
 5883.00    1.03675   0.95593    0.000
 5884.00    1.03656   0.94940    0.000
 5885.00    1.04191   0.94100    0.000
 5886.00    1.02253   0.93687    0.000
 5887.00    0.99500   0.93612    0.000
 5888.00    0.97016   0.93099    0.000
 5889.00    0.94606   0.92262    0.000
 5890.00    0.90701   0.91971    0.000
 5891.00    0.86456   0.92098    0.000
 5892.00    0.84912   0.91823    0.000
 5893.00    0.83860   0.91679    0.000
 5894.00    0.85269   0.92080    0.000
 5895.00    0.87022   0.92001    0.000
 5896.00    0.87678   0.91595    0.000
 5897.00    0.88224   0.92188    0.000
 5898.00    0.88275   0.93104    0.000
 5899.00    0.88295   0.93097    0.000
 5900.00    0.90763   0.93077    0.000
 5901.00    0.93305   0.93906    0.012
 5902.00    0.96797   0.94622    0.012
 5903.00    1.00195   0.94740    0.012
 5904.00    1.00961   0.95194    0.012
 5905.00    1.01719   0.95999    0.012
 5906.00    1.02380   0.96304    0.012
 5907.00    1.03005   0.96448    0.012
 5908.00    1.03288   0.97142    0.013
 5909.00    1.03323   0.97771    0.013
 5910.00    1.01672   0.97770    0.013
 5911.00    1.01000   0.97932    0.013
 5912.00    1.05479   0.98558    0.013
 5913.00    1.09223   0.98894    0.013
 5914.00    1.09856   0.98769    0.013
 5915.00    1.09216   0.98933    0.013
 5916.00    1.04127   0.99369    0.013
 5917.00    0.99653   0.99536    0.012
 5918.00    0.96986   0.99429    0.012
 5919.00    0.95782   0.99524    0.012
 5920.00    0.98250   0.99842    0.012
 5921.00    1.01366   0.99925    0.012
 5922.00    1.05885   0.99767    0.012
 5923.00    1.08387   0.99832    0.012
 5924.00    1.07109   1.00137    0.012
 5925.00    1.06450   1.00163    0.012
 5926.00    1.06806   0.99940    0.012
 5927.00    1.06981   1.00017    0.012
 5928.00    1.06897   1.00365    0.012
 5929.00    1.05680   1.00313    0.012
 5930.00    1.03032   0.99954    0.012
 5931.00    1.03061   1.00114    0.012
 5932.00    1.06070   1.00566    0.012
 5933.00    1.07993   1.00410    0.012
 5934.00    1.08851   0.99983    0.012
 5935.00    1.07761   1.00226    0.012
 5936.00    1.04983   1.00651    0.012
 5937.00    1.05002   1.00337    0.012
 5938.00    1.07153   1.00005    0.012
 5939.00    1.08092   1.00425    0.012
 5940.00    1.08219   1.00676    0.013
 5941.00    1.08162   1.00172    0.013
 5942.00    1.07998   1.00020    0.012
 5943.00    1.06734   1.00550    0.012
 5944.00    1.04905   1.00587    0.013
 5945.00    1.03820   1.00041    0.013
 5946.00    1.03064   1.00125    0.012
 5947.00    1.00188   1.00682    0.012
 5948.00    0.96505   1.00491    0.012
 5949.00    0.94832   0.99944    0.012
 5950.00    0.93809   1.00234    0.012
 5951.00    0.97443   1.00781    0.012
 5952.00    1.02339   1.00481    0.012
 5953.00    1.07347   1.00044    0.012
 5954.00    1.12380   1.00446    0.012
 5955.00    1.09883   1.00883    0.012
 5956.00    1.06055   1.00597    0.012
 5957.00    1.04806   1.00347    0.012
 5958.00    1.03906   1.00706    0.012
 5959.00    1.05774   1.00992    0.012
 5960.00    1.07909   1.00835    0.012
 5961.00    1.07839   1.00751    0.012
 5962.00    1.07637   1.01001    0.012
 5963.00    1.07360   1.01169    0.012
 5964.00    1.07089   1.01068    0.012
 5965.00    1.08191   1.01010    0.012
 5966.00    1.09279   1.01158    0.012
 5967.00    1.10030   1.01302    0.012
 5968.00    1.10717   1.01185    0.012
 5969.00    1.10539   1.01075    0.012
 5970.00    1.09937   1.01198    0.012
 5971.00    1.05544   1.01294    0.012
 5972.00    1.01711   1.01088    0.012
 5973.00    1.01564   1.00942    0.012
 5974.00    1.01906   1.01085    0.012
 5975.00    1.04754   1.01111    0.012
 5976.00    1.05855   1.00813    0.012
 5977.00    0.99730   1.00688    0.012
 5978.00    0.94940   1.00882    0.012
 5979.00    0.94729   1.00834    0.012
 5980.00    0.95028   1.00499    0.012
 5981.00    0.96800   1.00490    0.012
 5982.00    0.98203   1.00769    0.014
 5983.00    0.98697   1.00609    0.034
 5984.00    0.99490   1.00197   -1.000
 5985.00    1.00918   1.00337   -1.000
 5986.00    1.01337   1.00699   -1.000
 5987.00    0.99892   1.00460   -1.000
 5988.00    0.99234   1.00098   -1.000
 5989.00    0.99848   1.00344   -1.000
 5990.00    1.00636   1.00636 2738.145
 5991.00    1.01671   1.00342   -1.000
 5992.00    1.01826   1.00081   -1.000
 5993.00    1.00887   1.00341   -1.000
 5994.00    1.00156   1.00494    0.049
 5995.00    0.99653   1.00230    0.016
 5996.00    0.98276   1.00099    0.012
 5997.00    0.96052   1.00252    0.012
 5998.00    0.96248   1.00229    0.012
 5999.00    0.98508   1.00022    0.012
 6000.00    1.00773   0.99986    0.012
 6001.00    1.03041   1.00059    0.012
 6002.00    1.01888   0.99974    0.012
 6003.00    0.98477   0.99819    0.012
 6004.00    0.93345   0.99745    0.012
 6005.00    0.87219   0.99714    0.012
 6006.00    0.86719   0.99751    0.012
 6007.00    0.89054   0.99739    0.012
 6008.00    0.93559   0.99469    0.012
 6009.00    0.99011   0.99323    0.012
 6010.00    1.01663   0.99614    0.012
 6011.00    1.03267   0.99766    0.012
 6012.00    1.01543   0.99364    0.012
 6013.00    0.98764   0.99158    0.012
 6014.00    0.97493   0.99609    0.012
 6015.00    0.96623   0.99833    0.012
 6016.00    0.96851   0.99391    0.012
 6017.00    0.97318   0.99318    0.012
 6018.00    0.95384   0.99886    0.012
 6019.00    0.93037   1.00016    0.012
 6020.00    0.92377   0.99620    0.012
 6021.00    0.91937   0.99795    0.012
 6022.00    0.89940   1.00366    0.012
 6023.00    0.87801   1.00350    0.012
 6024.00    0.88955   1.00104    0.012
 6025.00    0.90292   1.00508    0.012
 6026.00    0.92216   1.00982    0.012
 6027.00    0.94175   1.00827    0.012
 6028.00    0.98396   1.00782    0.012
 6029.00    1.02428   1.01280    0.012
 6030.00    1.02080   1.01578    0.012
 6031.00    1.02062   1.01411    0.012
 6032.00    1.06249   1.01515    0.012
 6033.00    1.09894   1.01944    0.012
 6034.00    1.08865   1.02075    0.012
 6035.00    1.07353   1.01975    0.012
 6036.00    1.02763   1.02150    0.012
 6037.00    0.99188   1.02421    0.012
 6038.00    1.00688   1.02427    0.012
 6039.00    1.01995   1.02418    0.012
 6040.00    1.02517   1.02591    0.012
 6041.00    1.03724   1.02676    0.012
 6042.00    1.07228   1.02600    0.012
 6043.00    1.09768   1.02686    0.012
 6044.00    1.09576   1.02824    0.012
 6045.00    1.08415   1.02732    0.012
 6046.00    1.04903   1.02641    0.012
 6047.00    1.03152   1.02783    0.012
 6048.00    1.05084   1.02830    0.012
 6049.00    1.07469   1.02614    0.012
 6050.00    1.10680   1.02552    0.011
 6051.00    1.12634   1.02721    0.011
 6052.00    1.12594   1.02695    0.011
 6053.00    1.11541   1.02426    0.011
 6054.00    1.09077   1.02376    0.012
 6055.00    1.08446   1.02559    0.012
 6056.00    1.10063   1.02515    0.012
 6057.00    1.10220   1.02245    0.012
 6058.00    1.08798   1.02198    0.012
 6059.00    1.07467   1.02412    0.012
 6060.00    1.06223   1.02422    0.012
 6061.00    1.03826   1.02153    0.012
 6062.00    1.00456   1.02083    0.012
 6063.00    0.98711   1.02333    0.012
 6064.00    0.98167   1.02405    0.012
 6065.00    0.99523   1.02118    0.012
 6066.00    1.02114   1.02010    0.012
 6067.00    1.03279   1.02284    0.012
 6068.00    1.03631   1.02418    0.012
 6069.00    1.03415   1.02186    0.012
 6070.00    1.02917   1.01993    0.012
 6071.00    1.04842   1.02149    0.012
 6072.00    1.07807   1.02332    0.012
 6073.00    1.08363   1.02157    0.012
 6074.00    1.08035   1.01839    0.012
 6075.00    1.08388   1.01886    0.012
 6076.00    1.08954   1.02139    0.012
 6077.00    1.08297   1.01976    0.012
 6078.00    1.07322   1.01497    0.012
 6079.00    1.07066   1.01487    0.012
 6080.00    1.06963   1.01852    0.012
 6081.00    1.07402   1.01656    0.011
 6082.00    1.07932   1.01068    0.011
 6083.00    1.06455   1.01097    0.012
 6084.00    1.04725   1.01521    0.012
 6085.00    1.02580   1.01277    0.012
 6086.00    1.00398   1.00688    0.011
 6087.00    1.00362   1.00780    0.012
 6088.00    1.00438   1.01212    0.012
 6089.00    1.00035   1.00969    0.012
 6090.00    0.99586   1.00427    0.012
 6091.00    0.96331   1.00543    0.012
 6092.00    0.93135   1.00948    0.012
 6093.00    0.91206   1.00764    0.012
 6094.00    0.89501   1.00310    0.012
 6095.00    0.90510   1.00388    0.012
 6096.00    0.91918   1.00761    0.012
 6097.00    0.96636   1.00711    0.012
 6098.00    1.00618   1.00305    0.012
 6099.00    1.00043   1.00231    0.012
 6100.00    0.99949   1.00617    0.012
 6101.00    1.02202   1.00780    0.012
 6102.00    1.04294   1.00393    0.012
 6103.00    1.05753   1.00113    0.012
 6104.00    1.06096   1.00462    0.012
 6105.00    1.02762   1.00799    0.012
 6106.00    0.99716   1.00559    0.012
 6107.00    0.97470   1.00202    0.012
 6108.00    0.95949   1.00362    0.011
 6109.00    0.96154   1.00711    0.011
 6110.00    0.96810   1.00608    0.011
 6111.00    0.98394   1.00258    0.011
 6112.00    0.99896   1.00292    0.011
 6113.00    1.01251   1.00544    0.011
 6114.00    1.01458   1.00460    0.011
 6115.00    0.99868   1.00207    0.011
 6116.00    0.97519   1.00209    0.012
 6117.00    0.94126   1.00279    0.012
 6118.00    0.92516   1.00110    0.012
 6119.00    0.93063   0.99990    0.011
 6120.00    0.94680   1.00076    0.012
 6121.00    0.97437   0.99952    0.012
 6122.00    0.97959   0.99622    0.012
 6123.00    0.96378   0.99673    0.012
 6124.00    0.93523   0.99873    0.012
 6125.00    0.89612   0.99566    0.012
 6126.00    0.93332   0.99217    0.012
 6127.00    1.02624   0.99447    0.012
 6128.00    1.06037   0.99602    0.012
 6129.00    1.05680   0.99117    0.012
 6130.00    1.02916   0.98861    0.012
 6131.00    0.98802   0.99308    0.012
 6132.00    0.98149   0.99419    0.011
 6133.00    0.99185   0.98766    0.011
 6134.00    0.99622   0.98580    0.011
 6135.00    0.99805   0.99233    0.012
 6136.00    1.02060   0.99343    0.012
 6137.00    1.05063   0.98529    0.012
 6138.00    1.05356   0.98347    0.012
 6139.00    1.04821   0.99161    0.012
 6140.00    1.05563   0.99370    0.012
 6141.00    1.06629   0.98559    0.011
 6142.00    1.08912   0.98263    0.011
 6143.00    1.11445   0.98968    0.011
 6144.00    1.07830   0.99238    0.011
 6145.00    1.03215   0.98562    0.011
 6146.00    1.02629   0.98154    0.011
 6147.00    1.02533   0.98613    0.011
 6148.00    1.03362   0.98881    0.011
 6149.00    1.04268   0.98312    0.011
 6150.00    1.03879   0.97731    0.012
 6151.00    1.03429   0.97963    0.012
 6152.00    1.03613   0.98281    0.012
 6153.00    1.03757   0.97745    0.012
 6154.00    1.01105   0.96959    0.011
 6155.00    0.98535   0.97086    0.011
 6156.00    0.97603   0.97504    0.011
 6157.00    0.96812   0.96887    0.012
 6158.00    0.97642   0.95960    0.012
 6159.00    0.98056   0.96210    0.012
 6160.00    0.95140   0.96764    0.012
 6161.00    0.92430   0.96018    0.012
 6162.00    0.90959   0.95056    0.012
 6163.00    0.89556   0.95542    0.011
 6164.00    0.88478   0.96223    0.011
 6165.00    0.87500   0.95453    0.011
 6166.00    0.86912   0.94654    0.011
 6167.00    0.86762   0.95379    0.011
 6168.00    0.88024   0.96050    0.011
 6169.00    0.89389   0.95279    0.011
 6170.00    0.91040   0.94758    0.011
 6171.00    0.91619   0.95604    0.011
 6172.00    0.89691   0.96131    0.011
 6173.00    0.88106   0.95515    0.011
 6174.00    0.87216   0.95338    0.011
 6175.00    0.87435   0.96042    0.011
 6176.00    0.89609   0.96275    0.011
 6177.00    0.90974   0.95926    0.011
 6178.00    0.91093   0.96043    0.011
 6179.00    0.90829   0.96414    0.011
 6180.00    0.90047   0.96357    0.011
 6181.00    0.89585   0.96340    0.011
 6182.00    0.89503   0.96619    0.011
 6183.00    0.89728   0.96560    0.011
 6184.00    0.90276   0.96316    0.011
 6185.00    0.91513   0.96641    0.012
 6186.00    0.93389   0.96975    0.012
 6187.00    0.95160   0.96530    0.012
 6188.00    0.96846   0.96192    0.012
 6189.00    0.97728   0.96804    0.012
 6190.00    0.98032   0.97182    0.012
 6191.00    0.94904   0.96484    0.012
 6192.00    0.89610   0.96114    0.012
 6193.00    0.87119   0.96891    0.011
 6194.00    0.86176   0.97287    0.011
 6195.00    0.87576   0.96549    0.012
 6196.00    0.90101   0.96198   -2.000
 6197.00    0.89274   0.96935   -2.000
 6198.00    0.87059   0.97300   -2.000
 6199.00    0.75143   0.96636   -2.000
 6200.00    0.59788   0.96299   -2.000
 6201.00    0.53592   0.96875   -2.000
 6202.00    0.50137   0.97160   -2.000
 6203.00    0.62705   0.96624   -2.000
 6204.00    0.79253   0.96312   -2.000
 6205.00    0.88724   0.96657   -2.000
 6206.00    0.96769   0.96805   -2.000
 6207.00    0.93818   0.96364   -2.000
 6208.00    0.89132   0.96073    0.012
 6209.00    0.85321   0.96232    0.012
 6210.00    0.81613   0.96257    0.012
 6211.00    0.86370   0.95865    0.011
 6212.00    0.91800   0.95590    0.011
 6213.00    0.96429   0.95643    0.011
 6214.00    1.01024   0.95609    0.011
 6215.00    0.99632   0.95245    0.011
 6216.00    0.98139   0.94977    0.011
 6217.00    0.94915   0.95030    0.011
 6218.00    0.91802   0.95012    0.011
 6219.00    0.90738   0.94671    0.011
 6220.00    0.89668   0.94435    0.011
 6221.00    0.88516   0.94509    0.011
 6222.00    0.87657   0.94498    0.011
 6223.00    0.89062   0.94213    0.011
 6224.00    0.90632   0.94063    0.011
 6225.00    0.93175   0.94159    0.011
 6226.00    0.94983   0.94114    0.011
 6227.00    0.93382   0.93866    0.011
 6228.00    0.91878   0.93825    0.012
 6229.00    0.90745   0.93943    0.011
 6230.00    0.90783   0.93844    0.011
 6231.00    0.94528   0.93604    0.011
 6232.00    0.97325   0.93625    0.011
 6233.00    0.97573   0.93763    0.011
 6234.00    0.97131   0.93661    0.011
 6235.00    0.95097   0.93421    0.011
 6236.00    0.93636   0.93431    0.011
 6237.00    0.93315   0.93581    0.011
 6238.00    0.93055   0.93479    0.011
 6239.00    0.92900   0.93219    0.011
 6240.00    0.92879   0.93207    0.011
 6241.00    0.93062   0.93362    0.011
 6242.00    0.92515   0.93264    0.011
 6243.00    0.90993   0.93025    0.011
 6244.00    0.88706   0.93024    0.011
 6245.00    0.85518   0.93119    0.011
 6246.00    0.85976   0.93003    0.011
 6247.00    0.90215   0.92898    0.011
 6248.00    0.91640   0.92946    0.011
 6249.00    0.90493   0.92914    0.011
 6250.00    0.89301   0.92801    0.011
 6251.00    0.88072   0.92907    0.011
 6252.00    0.90454   0.93022    0.011
 6253.00    0.95398   0.92838    0.011
 6254.00    0.98128   0.92740    0.011
 6255.00    0.99480   0.93094    0.011
 6256.00    0.97948   0.93325    0.011
 6257.00    0.94847   0.93013    0.011
 6258.00    0.93386   0.92921    0.012
 6259.00    0.92700   0.93490    0.012
 6260.00    0.89631   0.93828    0.012
 6261.00    0.85592   0.93437    0.013
 6262.00    0.83388   0.93373    0.014
 6263.00    0.81823   0.94077    0.014
 6264.00    0.82591   0.94447    0.014
 6265.00    0.84044   0.94032    0.014
 6266.00    0.87931   0.93999    0.013
 6267.00    0.92409   0.94712    0.012
 6268.00    0.94705   0.95055    0.012
 6269.00    0.96572   0.94683    0.011
 6270.00    0.94112   0.94677    0.011
 6271.00    0.90989   0.95294    0.011
 6272.00    0.90156   0.95562    0.011
 6273.00    0.89582   0.95261    0.011
 6274.00    0.93614   0.95280    0.011
 6275.00    0.97993   0.95771    0.011
 6276.00    0.99014   0.95944    0.011
 6277.00    0.99900   0.95692    0.011
 6278.00    0.98510   0.95733    0.011
 6279.00    0.97136   0.96127    0.011
 6280.00    0.97099   0.96213    0.000
 6281.00    0.97086   0.95966    0.000
 6282.00    0.97487   0.96009    0.000
 6283.00    0.97816   0.96354    0.000
 6284.00    0.97384   0.96391    0.000
 6285.00    0.96968   0.96099    0.000
 6286.00    0.96660   0.96108    0.000
 6287.00    0.96472   0.96451    0.000
 6288.00    0.96960   0.96467    0.000
 6289.00    0.97281   0.96098    0.000
 6290.00    0.96851   0.96046    0.000
 6291.00    0.96331   0.96418    0.000
 6292.00    0.95484   0.96457    0.000
 6293.00    0.94282   0.96006    0.000
 6294.00    0.91978   0.95863    0.000
 6295.00    0.90150   0.96279    0.000
 6296.00    0.89575   0.96403    0.000
 6297.00    0.90016   0.95917    0.000
 6298.00    0.92757   0.95650    0.000
 6299.00    0.95372   0.96067    0.000
 6300.00    0.97739   0.96341    0.000
 6301.00    0.97725   0.95918    0.000
 6302.00    0.93637   0.95505    0.000
 6303.00    0.91012   0.95837    0.000
 6304.00    0.90574   0.96284    0.000
 6305.00    0.91728   0.96029    0.000
 6306.00    0.94974   0.95479    0.000
 6307.00    0.96706   0.95634    0.000
 6308.00    0.96683   0.96238    0.000
 6309.00    0.95675   0.96221    0.000
 6310.00    0.93660   0.95564    0.000
 6311.00    0.94063   0.95491    0.000
 6312.00    0.96648   0.96209    0.000
 6313.00    0.98590   0.96451    0.000
 6314.00    1.00021   0.95743    0.000
 6315.00    0.98750   0.95450    0.000
 6316.00    0.95591   0.96225    0.000
 6317.00    0.91626   0.96697    0.000
 6318.00    0.87166   0.96008    0.000
 6319.00    0.85693   0.95538    0.000
 6320.00    0.85818   0.96292    0.000
 6321.00    0.87807   0.96942    0.011
 6322.00    0.90664   0.96346    0.011
 6323.00    0.94358   0.95734    0.011
 6324.00    0.98388   0.96373    0.011
 6325.00    0.98852   0.97145    0.011
 6326.00    0.98099   0.96696    0.011
 6327.00    0.99001   0.95963    0.011
 6328.00    1.00379   0.96408    0.011
 6329.00    0.99811   0.97252    0.011
 6330.00    0.98781   0.96976    0.011
 6331.00    0.99067   0.96148    0.011
 6332.00    0.99605   0.96368    0.011
 6333.00    0.99998   0.97238    0.011
 6334.00    1.00370   0.97121    0.011
 6335.00    1.00775   0.96244    0.011
 6336.00    1.01183   0.96276    0.011
 6337.00    1.00232   0.97124    0.011
 6338.00    0.99185   0.97110    0.011
 6339.00    0.98469   0.96246    0.011
 6340.00    0.97765   0.96182    0.011
 6341.00    0.97155   0.96962    0.011
 6342.00    0.96569   0.96952    0.011
 6343.00    0.96767   0.96150    0.011
 6344.00    0.97133   0.96102    0.011
 6345.00    1.00171   0.96781    0.011
 6346.00    1.03030   0.96670    0.011
 6347.00    1.04097   0.95948    0.011
 6348.00    1.04762   0.96017    0.011
 6349.00    1.02522   0.96590    0.011
 6350.00    1.00198   0.96305    0.011
 6351.00    0.97407   0.95663    0.011
 6352.00    0.95247   0.95908    0.011
 6353.00    0.95881   0.96404    0.011
 6354.00    0.96223   0.95948    0.011
 6355.00    0.95504   0.95382    0.011
 6356.00    0.95119   0.95817    0.011
 6357.00    0.95753   0.96288    0.011
 6358.00    0.96391   0.95731    0.011
 6359.00    0.97037   0.95256    0.011
 6360.00    0.96234   0.95845    0.011
 6361.00    0.92205   0.96329    0.011
 6362.00    0.89864   0.95774    0.011
 6363.00    0.90785   0.95400    0.011
 6364.00    0.91465   0.96071    0.011
 6365.00    0.91740   0.96578    0.011
 6366.00    0.92033   0.96107    0.011
 6367.00    0.92354   0.95825    0.011
 6368.00    0.92140   0.96477    0.011
 6369.00    0.91232   0.96973    0.011
 6370.00    0.90120   0.96630    0.011
 6371.00    0.88776   0.96419    0.011
 6372.00    0.90013   0.96943    0.011
 6373.00    0.93851   0.97368    0.011
 6374.00    0.98476   0.97173    0.011
 6375.00    1.03801   0.97023    0.011
 6376.00    1.05112   0.97337    0.011
 6377.00    1.03277   0.97616    0.011
 6378.00    1.02977   0.97569    0.011
 6379.00    1.03732   0.97496    0.011
 6380.00    1.04229   0.97568    0.011
 6381.00    1.04569   0.97658    0.011
 6382.00    1.05030   0.97752    0.011
 6383.00    1.05553   0.97773    0.011
 6384.00    1.04420   0.97621    0.011
 6385.00    1.02528   0.97544    0.011
 6386.00    1.01402   0.97757    0.011
 6387.00    1.00577   0.97848    0.011
 6388.00    1.00935   0.97530    0.011
 6389.00    1.01691   0.97369    0.011
 6390.00    0.99269   0.97689    0.011
 6391.00    0.95953   0.97786    0.011
 6392.00    0.93057   0.97344    0.011
 6393.00    0.90258   0.97218    0.011
 6394.00    0.89943   0.97650    0.011
 6395.00    0.90091   0.97665    0.011
 6396.00    0.91524   0.97119    0.011
 6397.00    0.93141   0.97152    0.011
 6398.00    0.92933   0.97716    0.011
 6399.00    0.92535   0.97568    0.011
 6400.00    0.92218   0.96911    0.011
 6401.00    0.91907   0.97135    0.011
 6402.00    0.93853   0.97818    0.011
 6403.00    0.95873   0.97531    0.011
 6404.00    0.92891   0.96824    0.011
 6405.00    0.90011   0.97172    0.011
 6406.00    0.90365   0.97896    0.011
 6407.00    0.90987   0.97542    0.011
 6408.00    0.95619   0.96833    0.011
 6409.00    0.99822   0.97206    0.011
 6410.00    0.99884   0.97914    0.011
 6411.00    0.99668   0.97609    0.011
 6412.00    0.97509   0.96977    0.011
 6413.00    0.95642   0.97248    0.011
 6414.00    0.95346   0.97846    0.011
 6415.00    0.95451   0.97706    0.011
 6416.00    0.97290   0.97238    0.011
 6417.00    0.98765   0.97331    0.011
 6418.00    0.98942   0.97748    0.011
 6419.00    0.99049   0.97797    0.011
 6420.00    0.98950   0.97549    0.011
 6421.00    0.99234   0.97495    0.011
 6422.00    1.00490   0.97673    0.011
 6423.00    1.01040   0.97831    0.011
 6424.00    1.00042   0.97858    0.011
 6425.00    0.98381   0.97783    0.011
 6426.00    0.95459   0.97688    0.011
 6427.00    0.93276   0.97784    0.011
 6428.00    0.92317   0.98069    0.011
 6429.00    0.93063   0.98113    0.011
 6430.00    0.96288   0.97794    0.011
 6431.00    0.99488   0.97716    0.011
 6432.00    1.02656   0.98161    0.011
 6433.00    1.04172   0.98369    0.011
 6434.00    1.03825   0.97944    0.011
 6435.00    1.02993   0.97718    0.011
 6436.00    1.01681   0.98199    0.011
 6437.00    0.99743   0.98495    0.011
 6438.00    0.97257   0.98038    0.011
 6439.00    0.95363   0.97745    0.011
 6440.00    0.93927   0.98197    0.011
 6441.00    0.93704   0.98470    0.011
 6442.00    0.94304   0.98033    0.011
 6443.00    0.95223   0.97813    0.011
 6444.00    0.96332   0.98213    0.011
 6445.00    0.97461   0.98346    0.011
 6446.00    0.98600   0.97905    0.011
 6447.00    0.98236   0.97814    0.011
 6448.00    0.97196   0.98227    0.011
 6449.00    0.94271   0.98243    0.011
 6450.00    0.90616   0.97747    0.011
 6451.00    0.88341   0.97718    0.011
 6452.00    0.86520   0.98195    0.011
 6453.00    0.88766   0.98245    0.011
 6454.00    0.92134   0.97732    0.011
 6455.00    0.92040   0.97634    0.011
 6456.00    0.91161   0.98150    0.011
 6457.00    0.92262   0.98310    0.019
 6458.00    0.93723   0.97782    0.178
 6459.00    0.98198   0.97586   -1.000
 6460.00    1.03093   0.98162   -1.000
 6461.00    1.03910   0.98447   -1.000
 6462.00    1.04319   0.97884   -1.000
 6463.00    1.01857   0.97554   -1.000
 6464.00    0.99214   0.98132   -1.000
 6465.00    0.94985   0.98518   -1.000
 6466.00    0.90718   0.98007   -1.000
 6467.00    0.89114   0.97589   -1.000
 6468.00    0.87602   0.98052    0.599
 6469.00    0.88696   0.98455    0.020
 6470.00    0.89736   0.98000    0.011
 6471.00    0.90018   0.97518    0.011
 6472.00    0.90247   0.97853    0.011
 6473.00    0.89984   0.98223    0.011
 6474.00    0.89684   0.97770    0.011
 6475.00    0.89137   0.97267    0.011
 6476.00    0.89040   0.97527    0.011
 6477.00    0.91301   0.97778    0.011
 6478.00    0.93888   0.97244    0.011
 6479.00    0.97852   0.96769    0.011
 6480.00    1.01048   0.97032    0.011
 6481.00    1.01568   0.97143    0.011
 6482.00    1.01207   0.96477    0.011
 6483.00    0.98263   0.96013    0.011
 6484.00    0.96550   0.96321    0.011
 6485.00    0.97918   0.96389    0.011
 6486.00    0.99079   0.95652    0.011
 6487.00    0.99795   0.95167    0.011
 6488.00    0.99910   0.95517    0.011
 6489.00    0.98901   0.95643    0.011
 6490.00    0.98455   0.94931    0.011
 6491.00    0.98928   0.94421    0.011
 6492.00    0.98568   0.94802    0.011
 6493.00    0.97015   0.95078    0.011
 6494.00    0.94997   0.94528    0.011
 6495.00    0.92392   0.94030    0.011
 6496.00    0.89707   0.94378    0.011
 6497.00    0.86933   0.94816    0.011
 6498.00    0.86329   0.94592    0.011
 6499.00    0.87853   0.94195    0.011
 6500.00    0.88488   0.94440    0.011
 6501.00    0.88357   0.94949    0.011
 6502.00    0.88439   0.95005    0.011
 6503.00    0.88684   0.94772    0.011
 6504.00    0.90345   0.94912    0.011
 6505.00    0.92953   0.95370    0.011
 6506.00    0.94137   0.95600    0.011
 6507.00    0.94485   0.95511    0.011
 6508.00    0.94890   0.95574    0.011
 6509.00    0.95324   0.95928    0.011
 6510.00    0.96667   0.96179    0.011
 6511.00    0.98414   0.96151    0.011
 6512.00    1.00676   0.96203    0.011
 6513.00    1.03134   0.96485    0.011
 6514.00    1.03659   0.96646    0.011
 6515.00    1.03561   0.96570    0.011
 6516.00    1.01306   0.96645    0.011
 6517.00    0.98467   0.96907    0.010
 6518.00    0.94744   0.96955    0.010
 6519.00    0.90825   0.96800    0.011
 6520.00    0.90806   0.96895    0.011
 6521.00    0.91475   0.97152    0.011
 6522.00    0.93001   0.97147    0.011
 6523.00    0.94642   0.96946    0.011
 6524.00    0.93628   0.96990    0.011
 6525.00    0.92360   0.97191    0.011
 6526.00    0.93701   0.97176    0.011
 6527.00    0.95196   0.97005    0.011
 6528.00    0.95335   0.96982    0.000
 6529.00    0.95451   0.97030    0.000
 6530.00    0.97294   0.96990    0.000
 6531.00    0.99076   0.96935    0.000
 6532.00    0.99308   0.96877    0.000
 6533.00    0.99411   0.96681    0.000
 6534.00    0.97785   0.96496    0.000
 6535.00    0.96437   0.96547    0.000
 6536.00    0.97572   0.96558    0.000
 6537.00    0.98937   0.96148    0.000
 6538.00    1.01819   0.95683    0.000
 6539.00    1.03899   0.95713    0.000
 6540.00    1.01882   0.95837    0.000
 6541.00    0.99343   0.95316    0.000
 6542.00    0.94650   0.94521    0.000
 6543.00    0.91056   0.94392    0.000
 6544.00    0.91212   0.94617    0.000
 6545.00    0.91763   0.94093    0.000
 6546.00    0.93449   0.92987    0.000
 6547.00    0.96141   0.92624    0.000
 6548.00    1.01304   0.92945    0.000
 6549.00    1.06784   0.92535    0.000
 6550.00    1.12933   0.91230    0.000
 6551.00    1.15684   0.90600    0.000
 6552.00    1.12172   0.91016    0.000
 6553.00    1.08179   0.90851    0.000
 6554.00    1.03410   0.89447    0.000
 6555.00    0.98405   0.88586    0.000
 6556.00    0.93067   0.89184    0.000
 6557.00    0.89403   0.89413    0.000
 6558.00    0.87819   0.88053    0.000
 6559.00    0.89684   0.87040    0.000
 6560.00    0.95327   0.87875    0.000
 6561.00    1.06230   0.88572    0.000
 6562.00    1.22214   0.87397    0.000
 6563.00    1.40880   0.86334    0.000
 6564.00    1.61828   0.87300    0.000
 6565.00    1.75755   0.88386    0.000
 6566.00    1.84415   0.87785    0.000
 6567.00    1.79290   0.87040    0.000
 6568.00    1.65080   0.87799    0.000
 6569.00    1.44378   0.88840    0.000
 6570.00    1.19929   0.88816    0.000
 6571.00    1.04751   0.88494    0.000
 6572.00    0.94234   0.89026    0.000
 6573.00    0.89273   0.89905    0.000
 6574.00    0.86729   0.90256    0.000
 6575.00    0.89237   0.90249    0.000
 6576.00    0.93631   0.90589    0.000
 6577.00    0.97067   0.91222    0.000
 6578.00    1.00198   0.91726    0.000
 6579.00    0.99230   0.91951    0.000
 6580.00    0.97178   0.92117    0.000
 6581.00    0.97905   0.92410    0.000
 6582.00    0.99232   0.92876    0.000
 6583.00    1.07501   0.93263    0.000
 6584.00    1.16960   0.93346    0.000
 6585.00    1.27425   0.93347    0.000
 6586.00    1.38020   0.93667    0.000
 6587.00    1.39765   0.94130    0.000
 6588.00    1.40702   0.94184    0.000
 6589.00    1.34291   0.93950    0.000
 6590.00    1.27474   0.94150    0.000
 6591.00    1.16371   0.94671    0.000
 6592.00    1.05243   0.94703    0.000
 6593.00    1.00588   0.94307    0.000
 6594.00    0.96192   0.94394    0.000
 6595.00    0.97727   0.94929    0.000
 6596.00    0.98777   0.95027    0.000
 6597.00    0.93665   0.94663    0.000
 6598.00    0.89015   0.94655    0.000
 6599.00    0.88315   0.95081    0.000
 6600.00    0.88124   0.95209    0.000
 6601.00    0.91163   0.94924    0.000
 6602.00    0.93814   0.94918    0.000
 6603.00    0.94527   0.95306    0.000
 6604.00    0.95067   0.95405    0.000
 6605.00    0.94909   0.95104    0.000
 6606.00    0.94428   0.95114    0.000
 6607.00    0.92864   0.95547    0.000
 6608.00    0.91589   0.95645    0.000
 6609.00    0.91129   0.95278    0.010
 6610.00    0.90882   0.95255    0.011
 6611.00    0.91151   0.95738    0.011
 6612.00    0.91689   0.95871    0.011
 6613.00    0.92789   0.95482    0.011
 6614.00    0.93861   0.95376    0.011
 6615.00    0.94880   0.95799    0.011
 6616.00    0.95516   0.95946    0.011
 6617.00    0.95545   0.95599    0.011
 6618.00    0.96521   0.95454    0.011
 6619.00    0.98816   0.95745    0.011
 6620.00    0.99113   0.95856    0.011
 6621.00    0.96961   0.95570    0.011
 6622.00    0.95984   0.95421    0.011
 6623.00    0.96276   0.95600    0.011
 6624.00    0.97185   0.95663    0.011
 6625.00    0.98681   0.95399    0.011
 6626.00    0.98078   0.95230    0.011
 6627.00    0.95711   0.95348    0.011
 6628.00    0.93996   0.95454    0.011
 6629.00    0.92764   0.95262    0.011
 6630.00    0.92652   0.95005    0.011
 6631.00    0.93267   0.95026    0.011
 6632.00    0.92214   0.95207    0.011
 6633.00    0.90213   0.95151    0.011
 6634.00    0.90117   0.94861    0.011
 6635.00    0.90963   0.94734    0.011
 6636.00    0.93848   0.94922    0.011
 6637.00    0.97606   0.95103    0.011
 6638.00    0.98271   0.94921    0.011
 6639.00    0.97802   0.94580    0.011
 6640.00    0.95327   0.94626    0.011
 6641.00    0.92230   0.95016    0.011
 6642.00    0.91310   0.95021    0.011
 6643.00    0.90954   0.94545    0.011
 6644.00    0.90864   0.94425    0.011
 6645.00    0.90830   0.94871    0.011
 6646.00    0.89673   0.95020    0.011
 6647.00    0.88330   0.94588    0.011
 6648.00    0.88670   0.94355    0.011
 6649.00    0.89222   0.94689    0.011
 6650.00    0.90389   0.94895    0.011
 6651.00    0.91610   0.94585    0.011
 6652.00    0.90241   0.94304    0.011
 6653.00    0.88740   0.94482    0.011
 6654.00    0.89329   0.94689    0.011
 6655.00    0.89928   0.94499    0.011
 6656.00    0.88527   0.94210    0.011
 6657.00    0.87238   0.94271    0.011
 6658.00    0.88301   0.94481    0.011
 6659.00    0.89300   0.94349    0.011
 6660.00    0.89532   0.94052    0.011
 6661.00    0.89853   0.94071    0.011
 6662.00    0.90916   0.94284    0.011
 6663.00    0.91956   0.94179    0.011
 6664.00    0.92860   0.93895    0.011
 6665.00    0.93382   0.93882    0.011
 6666.00    0.92044   0.94078    0.011
 6667.00    0.90941   0.94095    0.011
 6668.00    0.90763   0.93874    0.011
 6669.00    0.91336   0.93729    0.011
 6670.00    0.94373   0.93843    0.011
 6671.00    0.97081   0.94030    0.011
 6672.00    0.98879   0.93973    0.011
 6673.00    0.99462   0.93695    0.011
 6674.00    0.97158   0.93609    0.011
 6675.00    0.94664   0.93906    0.011
 6676.00    0.91780   0.94107    0.011
 6677.00    0.89402   0.93789    0.011
 6678.00    0.87928   0.93465    0.011
 6679.00    0.87947   0.93722    0.011
 6680.00    0.90297   0.94114    0.011
 6681.00    0.92697   0.93947    0.011
 6682.00    0.95166   0.93584    0.011
 6683.00    0.96863   0.93657    0.011
 6684.00    0.97628   0.93999    0.011
 6685.00    0.96510   0.94035    0.011
 6686.00    0.93386   0.93768    0.011
 6687.00    0.93099   0.93655    0.011
 6688.00    0.95477   0.93842    0.011
 6689.00    0.95310   0.94015    0.011
 6690.00    0.93034   0.93897    0.011
 6691.00    0.92525   0.93690    0.011
 6692.00    0.93303   0.93705    0.011
 6693.00    0.94370   0.93889    0.011
 6694.00    0.95623   0.93901    0.011
 6695.00    0.94062   0.93694    0.011
 6696.00    0.90926   0.93554    0.000
 6697.00    0.87028   0.93664    0.000
 6698.00    0.82759   0.93760    0.000
 6699.00    0.86200   0.93617    0.000
 6700.00    0.92884   0.93409    0.000
 6701.00    0.94263   0.93405    0.000
 6702.00    0.93733   0.93542    0.000
 6703.00    0.91704   0.93483    0.000
 6704.00    0.89219   0.93205    0.000
 6705.00    0.89278   0.93076    0.000
 6706.00    0.89981   0.93228    0.000
 6707.00    0.88535   0.93293    0.000
 6708.00    0.86646   0.93042    0.000
 6709.00    0.87898   0.92787    0.000
 6710.00    0.89658   0.92865    0.000
 6711.00    0.91995   0.93063    0.000
 6712.00    0.94402   0.92923    0.000
 6713.00    0.94288   0.92552    0.000
 6714.00    0.93965   0.92544    0.000
 6715.00    1.00343   0.92877    0.000
 6716.00    1.07038   0.92868    0.000
 6717.00    1.14659   0.92431    0.000
 6718.00    1.22149   0.92300    0.000
 6719.00    1.21595   0.92735    0.000
 6720.00    1.20740   0.92923    0.000
 6721.00    1.14023   0.92520    0.000
 6722.00    1.07307   0.92246    0.000
 6723.00    1.00613   0.92621    0.000
 6724.00    0.94493   0.92974    0.000
 6725.00    0.92954   0.92696    0.000
 6726.00    0.91269   0.92320    0.000
 6727.00    0.88701   0.92553    0.000
 6728.00    0.87570   0.92977    0.000
 6729.00    0.93246   0.92844    0.000
 6730.00    0.98917   0.92455    0.000
 6731.00    1.04571   0.92530    0.000
 6732.00    1.09012   0.92931    0.000
 6733.00    1.09550   0.92913    0.000
 6734.00    1.08967   0.92539    0.000
 6735.00    1.05329   0.92457    0.000
 6736.00    1.01478   0.92803    0.000
 6737.00    0.97128   0.92927    0.000
 6738.00    0.93544   0.92603    0.000
 6739.00    0.91510   0.92379    0.000
 6740.00    0.91163   0.92608    0.000
 6741.00    0.93786   0.92845    0.000
 6742.00    0.94114   0.92642    0.000
 6743.00    0.90909   0.92379    0.000
 6744.00    0.87877   0.92493    0.000
 6745.00    0.85081   0.92713    0.000
 6746.00    0.84714   0.92639    0.000
 6747.00    0.87239   0.92497    0.000
 6748.00    0.88874   0.92537    0.000
 6749.00    0.89574   0.92631    0.000
 6750.00    0.89212   0.92633    0.000
 6751.00    0.87865   0.92650    0.000
 6752.00    0.89064   0.92708    0.000
 6753.00    0.92339   0.92698    0.012
 6754.00    0.91554   0.92716    0.013
 6755.00    0.87852   0.92795    0.013
 6756.00    0.84279   0.92913    0.013
 6757.00    0.80789   0.92936    0.013
 6758.00    0.81613   0.92875    0.013
 6759.00    0.84816   0.92909    0.013
 6760.00    0.91172   0.93108    0.013
 6761.00    0.99040   0.93216    0.013
 6762.00    1.04621   0.93069    0.014
 6763.00    1.09257   0.92992    0.014
 6764.00    1.12894   0.93204    0.014
 6765.00    1.16178   0.93421    0.014
 6766.00    1.10613   0.93296    0.014
 6767.00    1.02407   0.93074    0.013
 6768.00    1.01760   0.93178    0.013
 6769.00    1.02986   0.93469    0.013
 6770.00    1.00361   0.93459    0.013
 6771.00    0.96962   0.93203    0.013
 6772.00    0.96064   0.93160    0.013
 6773.00    0.95560   0.93373    0.012
 6774.00    0.91898   0.93477    0.012
 6775.00    0.87867   0.93331    0.012
 6776.00    0.88338   0.93183    0.012
 6777.00    0.89164   0.93232    0.012
 6778.00    0.90621   0.93359    0.013
 6779.00    0.92105   0.93338    0.013
 6780.00    0.91589   0.93167    0.013
 6781.00    0.91164   0.93104    0.013
 6782.00    0.95969   0.93196    0.013
 6783.00    1.00334   0.93227    0.013
 6784.00    0.96760   0.93115    0.013
 6785.00    0.93232   0.93005    0.013
 6786.00    0.90220   0.93007    0.013
 6787.00    0.87837   0.93096    0.013
 6788.00    0.90285   0.93139    0.013
 6789.00    0.92702   0.93011    0.013
 6790.00    0.94932   0.92894    0.013
 6791.00    0.96861   0.92991    0.013
 6792.00    0.97401   0.93127    0.013
 6793.00    0.98694   0.93027    0.013
 6794.00    1.02832   0.92879    0.013
 6795.00    1.04851   0.92955    0.013
 6796.00    1.00182   0.93097    0.013
 6797.00    0.95121   0.93076    0.013
 6798.00    0.89013   0.92958    0.013
 6799.00    0.87009   0.92972    0.013
 6800.00    0.94439   0.93125    0.013
 6801.00    0.98744   0.93183    0.013
 6802.00    0.96836   0.93054    0.013
 6803.00    0.94052   0.93001    0.013
 6804.00    0.89748   0.93179    0.013
 6805.00    0.88314   0.93318    0.013
 6806.00    0.91234   0.93157    0.013
 6807.00    0.89895   0.93014    0.013
 6808.00    0.82879   0.93236    0.012
 6809.00    0.82710   0.93449    0.012
 6810.00    0.90579   0.93282    0.013
 6811.00    0.93609   0.93072    0.013
 6812.00    0.91632   0.93242    0.013
 6813.00    0.92611   0.93548    0.013
 6814.00    0.96290   0.93486    0.014
 6815.00    0.96168   0.93151    0.013
 6816.00    0.92987   0.93157    0.013
 6817.00    0.90797   0.93543    0.013
 6818.00    0.89307   0.93693    0.013
 6819.00    0.90614   0.93355    0.013
 6820.00    0.93656   0.93109    0.012
 6821.00    0.95042   0.93405    0.012
 6822.00    0.95527   0.93747    0.012
 6823.00    0.96370   0.93550    0.012
 6824.00    0.97380   0.93151    0.012
 6825.00    0.96307   0.93237    0.012
 6826.00    0.94387   0.93634    0.012
 6827.00    0.93214   0.93643    0.013
 6828.00    0.92299   0.93182    0.013
 6829.00    0.90361   0.92999    0.013
 6830.00    0.88124   0.93345    0.013
 6831.00    0.88772   0.93594    0.013
 6832.00    0.90120   0.93277    0.013
 6833.00    0.88629   0.92879    0.013
 6834.00    0.86582   0.93003    0.013
 6835.00    0.91337   0.93343    0.013
 6836.00    0.97127   0.93256    0.013
 6837.00    0.98870   0.92832    0.013
 6838.00    1.00159   0.92719    0.013
 6839.00    0.94409   0.92989    0.013
 6840.00    0.88134   0.93120    0.013
 6841.00    0.86369   0.92792    0.013
 6842.00    0.84783   0.92476    0.013
 6843.00    0.86557   0.92626    0.013
 6844.00    0.88376   0.92908    0.012
 6845.00    0.91017   0.92787    0.012
 6846.00    0.93486   0.92452    0.012
 6847.00    0.93048   0.92417    0.013
 6848.00    0.92726   0.92630    0.013
 6849.00    0.93623   0.92659    0.013
 6850.00    0.94763   0.92431    0.013
 6851.00    0.97713   0.92287    0.013
 6852.00    0.99584   0.92407    0.013
 6853.00    0.95333   0.92554    0.013
 6854.00    0.90612   0.92400    0.013
 6855.00    0.83768   0.92146    0.013
 6856.00    0.79300   0.92219    0.013
 6857.00    0.83634   0.92427    0.013
 6858.00    0.85432   0.92350    0.013
 6859.00    0.79377   0.92166    0.013
 6860.00    0.75732   0.92191    0.013
 6861.00    0.78430   0.92313    0.013
 6862.00    0.81260   0.92288    0.013
 6863.00    0.84385   0.92176    0.013
 6864.00    0.84592   0.92168    0.013
 6865.00    0.79084   0.92317    0.013
 6866.00    0.77608   0.92425    0.013
 6867.00    0.83013   0.92298    0.013
 6868.00    0.86129   0.92128    0.013
 6869.00    0.85822   0.92268    0.013
 6870.00    0.85161   0.92536    0.013
 6871.00    0.84034   0.92520    0.013
 6872.00    0.84473   0.92347    0.013
 6873.00    0.86726   0.92375    0.013
 6874.00    0.89214   0.92613    0.013
 6875.00    0.91944   0.92737    0.013
 6876.00    0.90218   0.92671    0.013
 6877.00    0.84483   0.92621    0.013
 6878.00    0.83013   0.92775    0.013
 6879.00    0.84928   0.92982    0.013
 6880.00    0.89485   0.93055    0.013
 6881.00    0.95888   0.92988    0.013
 6882.00    0.95424   0.92961    0.013
 6883.00    0.90759   0.93123    0.013
 6884.00    0.85670   0.93363    0.013
 6885.00    0.80355   0.93461    0.012
 6886.00    0.78686   0.93355    0.012
 6887.00    0.78707   0.93357    0.012
 6888.00    0.78531   0.93576    0.013
 6889.00    0.78275   0.93807    0.013
 6890.00    0.83941   0.93825    0.013
 6891.00    0.91624   0.93718    0.013
 6892.00    0.93594   0.93737    0.013
 6893.00    0.93926   0.94001    0.013
 6894.00    0.97657   0.94228    0.013
 6895.00    1.02192   0.94081    0.013
 6896.00    0.97579   0.93895    0.013
 6897.00    0.91221   0.94090    0.013
 6898.00    0.98931   0.94453    0.013
 6899.00    1.08720   0.94433    0.014
 6900.00    1.01647   0.94142    0.013
 6901.00    0.92753   0.94113    0.013
 6902.00    0.86055   0.94447    0.013
 6903.00    0.79512   0.94629    0.013
 6904.00    0.85674   0.94386    0.013
 6905.00    0.92292   0.94159    0.013
 6906.00    0.91591   0.94330    0.013
 6907.00    0.90955   0.94619    0.013
 6908.00    0.93410   0.94518    0.013
 6909.00    0.95646   0.94254    0.012
 6910.00    0.94414   0.94249    0.013
 6911.00    0.92548   0.94446    0.013
 6912.00    0.84347   0.94488    0.013
 6913.00    0.78096   0.94300    0.013
 6914.00    0.85862   0.94169    0.013
 6915.00    0.92368   0.94259    0.013
 6916.00    0.91935   0.94350    0.013
 6917.00    0.91213   0.94253    0.013
 6918.00    0.89218   0.94188    0.013
 6919.00    0.87324   0.94194    0.013
 6920.00    0.85792   0.94169    0.013
 6921.00    0.85697   0.94153    0.013
 6922.00    0.89972   0.94206    0.013
 6923.00    0.91605   0.94208    0.013
 6924.00    0.86410   0.94068    0.013
 6925.00    0.83335   0.93999    0.013
 6926.00    0.84971   0.94099    0.013
 6927.00    0.85932   0.94218    0.013
 6928.00    0.85593   0.94147    0.013
 6929.00    0.85408   0.93985    0.013
 6930.00    0.85485   0.94039    0.013
 6931.00    0.85170   0.94236    0.013
 6932.00    0.84275   0.94217    0.013
 6933.00    0.84928   0.93987    0.013
 6934.00    0.87583   0.93989    0.013
 6935.00    0.89830   0.94214    0.014
 6936.00    0.91612   0.94269    0.014
 6937.00    0.92947   0.94108    0.014
 6938.00    0.93833   0.94020    0.014
 6939.00    0.91705   0.94161    0.014
 6940.00    0.86904   0.94295    0.014
 6941.00    0.86112   0.94228    0.013
 6942.00    0.88455   0.94108    0.014
 6943.00    0.87140   0.94197    0.013
 6944.00    0.83310   0.94315    0.013
 6945.00    0.85284   0.94237    0.013
 6946.00    0.90757   0.94181    0.013
 6947.00    0.91412   0.94284    0.013
 6948.00    0.89532   0.94388    0.013
 6949.00    0.89759   0.94378    0.013
 6950.00    0.90947   0.94363    0.013
 6951.00    0.92686   0.94395    0.013
 6952.00    0.94640   0.94475    0.013
 6953.00    0.93407   0.94484    0.013
 6954.00    0.91108   0.94455    0.013
 6955.00    0.91252   0.94555    0.013
 6956.00    0.92083   0.94661    0.013
 6957.00    0.87804   0.94612    0.013
 6958.00    0.82343   0.94559    0.013
 6959.00    0.75903   0.94713    0.013
 6960.00    0.69282   0.94836    0.013
 6961.00    0.75148   0.94748    0.013
 6962.00    0.82801   0.94620    0.013
 6963.00    0.90416   0.94744    0.013
 6964.00    0.98028   0.94974    0.014
 6965.00    0.99242   0.94884    0.014
 6966.00    1.00030   0.94601    0.013
 6967.00    0.96972   0.94638    0.013
 6968.00    0.93790   0.94963    0.013
 6969.00    0.90544   0.94976    0.013
 6970.00    0.87337   0.94654    0.013
 6971.00    0.85285   0.94517    0.013
 6972.00    0.83277   0.94784    0.013
 6973.00    0.81935   0.94999    0.013
 6974.00    0.80548   0.94770    0.013
 6975.00    0.78731   0.94482    0.013
 6976.00    0.77535   0.94624    0.013
 6977.00    0.80658   0.94914    0.014
 6978.00    0.83185   0.94785    0.014
 6979.00    0.82509   0.94499    0.014
 6980.00    0.82020   0.94562    0.014
 6981.00    0.82338   0.94809    0.014
 6982.00    0.82762   0.94861    0.014
 6983.00    0.83563   0.94754    0.014
 6984.00    0.85236   0.94715    0.014
 6985.00    0.89512   0.94791    0.013
 6986.00    0.92002   0.94847    0.013
 6987.00    0.89956   0.94827    0.013
 6988.00    0.88575   0.94849    0.013
 6989.00    0.88647   0.94896    0.013
 6990.00    0.89286   0.94844    0.013
 6991.00    0.91001   0.94794    0.013
 6992.00    0.93672   0.94931    0.013
 6993.00    0.97926   0.95056    0.013
 6994.00    0.99089   0.94919    0.013
 6995.00    0.95764   0.94735    0.013
 6996.00    0.93529   0.94837    0.013
 6997.00    0.92687   0.95038    0.014
 6998.00    0.92001   0.94963    0.014
 6999.00    0.91491   0.94686    0.014
 7000.00    0.89074   0.94643    0.014
 7001.00    0.84764   0.94877    0.014
 7002.00    0.85066   0.94925    0.014
 7003.00    0.89403   0.94660    0.014
 7004.00    0.87545   0.94522    0.014
 7005.00    0.80914   0.94732    0.014
 7006.00    0.78617   0.94814    0.014
 7007.00    0.79256   0.94530    0.013
 7008.00    0.79794   0.94364    0.013
 7009.00    0.80272   0.94623    0.014
 7010.00    0.79402   0.94799    0.013
 7011.00    0.77834   0.94529    0.013
 7012.00    0.82085   0.94287    0.013
 7013.00    0.88947   0.94521    0.014
 7014.00    0.91594   0.94840    0.014
 7015.00    0.92614   0.94649    0.014
 7016.00    0.91465   0.94218    0.014
 7017.00    0.89604   0.94342    0.014
 7018.00    0.85242   0.94888    0.014
 7019.00    0.80191   0.94944    0.014
 7020.00    0.83832   0.94504    0.014
 7021.00    0.89438   0.94442    0.014
 7022.00    0.87363   0.94941    0.014
 7023.00    0.83900   0.95203    0.014
 7024.00    0.87328   0.94876    0.014
 7025.00    0.91711   0.94586    0.014
 7026.00    0.87390   0.94935    0.014
 7027.00    0.82206   0.95477    0.014
 7028.00    0.79873   0.95443    0.014
 7029.00    0.77719   0.95029    0.014
 7030.00    0.81399   0.95083    0.014
 7031.00    0.85204   0.95630    0.014
 7032.00    0.78037   0.95859    0.014
 7033.00    0.71443   0.95585    0.014
 7034.00    0.80594   0.95384    0.014
 7035.00    0.89159   0.95660    0.014
 7036.00    0.89506   0.96064    0.014
 7037.00    0.89929   0.96049    0.014
 7038.00    0.91043   0.95694    0.014
 7039.00    0.91476   0.95667    0.014
 7040.00    0.87326   0.96031    0.014
 7041.00    0.83726   0.96163    0.014
 7042.00    0.83002   0.95957    0.014
 7043.00    0.82730   0.95770    0.014
 7044.00    0.84364   0.95780    0.014
 7045.00    0.87145   0.95817    0.014
 7046.00    0.93921   0.95718    0.014
 7047.00    0.97297   0.95524    0.014
 7048.00    0.90725   0.95430    0.014
 7049.00    0.87871   0.95399    0.014
 7050.00    0.94301   0.95214   -2.000
 7051.00    0.97359   0.95009   -2.000
 7052.00    0.93161   0.94900   -2.000
 7053.00    0.91573   0.94745   -2.000
 7054.00    0.94860   0.94451   -2.000
 7055.00    0.97752   0.94200   -2.000
 7056.00    1.00001   0.94145   -2.000
 7057.00    0.98400   0.94115   -2.000
 7058.00    0.91291   0.93894   -2.000
 7059.00    0.85102   0.93491   -2.000
 7060.00    0.80069   0.93288   -2.000
 7061.00    0.75561   0.93358   -2.000
 7062.00    0.71635   0.93301   -2.000
 7063.00    0.74456   0.92948   -2.000
 7064.00    0.83876   0.92693   -2.000
 7065.00    0.87857   0.92744   -2.000
 7066.00    0.87148   0.92773   -2.000
 7067.00    0.85934   0.92578   -2.000
 7068.00    0.84338   0.92264   -2.000
 7069.00    0.80928   0.92157   -2.000
 7070.00    0.76305   0.92250   -2.000
 7071.00    0.83269   0.92219   -2.000
 7072.00    0.97010   0.91999   -2.000
 7073.00    1.02861   0.91870   -2.000
 7074.00    1.04690   0.91864   -2.000
 7075.00    0.99903   0.91707   -2.000
 7076.00    0.92193   0.91517   -2.000
 7077.00    0.87376   0.91459   -2.000
 7078.00    0.83655   0.91419   -2.000
 7079.00    0.86527   0.91227   -2.000
 7080.00    0.91522   0.90990   -2.000
 7081.00    0.95443   0.90932   -2.000
 7082.00    0.99076   0.90970   -2.000
 7083.00    0.96765   0.90821   -2.000
 7084.00    0.93141   0.90358   -2.000
 7085.00    0.84375   0.90132   -2.000
 7086.00    0.74704   0.90322   -2.000
 7087.00    0.51649   0.90362   -2.000
 7088.00    0.26801   0.89958   -2.000
 7089.00    0.46561   0.89560   -2.000
 7090.00    0.70560   0.89644   -2.000
 7091.00    0.71912   0.89873   -2.000
 7092.00    0.71937   0.89751   -2.000
 7093.00    0.78597   0.89207   -2.000
 7094.00    0.85365   0.89022   -2.000
 7095.00    0.84430   0.89377   -2.000
 7096.00    0.83335   0.89580   -2.000
 7097.00    0.78256   0.89224   -2.000
 7098.00    0.73118   0.88811   -2.000
 7099.00    0.67194   0.88994   -2.000
 7100.00    0.61898   0.89394   -2.000
 7101.00    0.62167   0.89394   -2.000
 7102.00    0.62935   0.88910   -2.000
 7103.00    0.66956   0.88737   -2.000
 7104.00    0.71882   0.89121   -2.000
 7105.00    0.81410   0.89465   -2.000
 7106.00    0.87480   0.89244   -2.000
 7107.00    0.79314   0.88834   -2.000
 7108.00    0.74748   0.88911   -2.000
 7109.00    0.82454   0.89311   -2.000
 7110.00    0.87430   0.89443   -2.000
 7111.00    0.84562   0.89082   -2.000
 7112.00    0.80809   0.88801   -2.000
 7113.00    0.74886   0.88953   -2.000
 7114.00    0.70189   0.89324   -2.000
 7115.00    0.68086   0.89338   -2.000
 7116.00    0.67616   0.88963   -2.000
 7117.00    0.70149   0.88727   -2.000
 7118.00    0.74856   0.88920   -2.000
 7119.00    0.83058   0.89247   -2.000
 7120.00    0.91367   0.89132   -2.000
 7121.00    0.99825   0.88674   -2.000
 7122.00    0.99365   0.88459   -2.000
 7123.00    0.87845   0.88839   -2.000
 7124.00    0.80516   0.89160   -2.000
 7125.00    0.77770   0.88860   -2.000
 7126.00    0.73523   0.88358   -2.000
 7127.00    0.67826   0.88373   -2.000
 7128.00    0.60657   0.88903   -2.000
 7129.00    0.52235   0.89012   -2.000
 7130.00    0.56056   0.88458   -2.000
 7131.00    0.69046   0.88092   -2.000
 7132.00    0.76207   0.88533   -2.000
 7133.00    0.79534   0.88992   -2.000
 7134.00    0.82870   0.88770   -2.000
 7135.00    0.86211   0.88306   -2.000
 7136.00    0.85173   0.88330   -2.000
 7137.00    0.81937   0.88866   -2.000
 7138.00    0.75765   0.89007   -2.000
 7139.00    0.68317   0.88565   -2.000
 7140.00    0.70662   0.88368   -2.000
 7141.00    0.76654   0.88773   -2.000
 7142.00    0.82096   0.89059   -2.000
 7143.00    0.87365   0.88931   -2.000
 7144.00    0.83944   0.88802   -2.000
 7145.00    0.78232   0.88895   -2.000
 7146.00    0.69699   0.89112   -2.000
 7147.00    0.60559   0.89112   -2.000
 7148.00    0.68644   0.89025   -2.000
 7149.00    0.79673   0.89145   -2.000
 7150.00    0.76700   0.89300   -2.000
 7151.00    0.71914   0.89197   -2.000
 7152.00    0.77092   0.89190   -2.000
 7153.00    0.83175   0.89511   -2.000
 7154.00    0.77708   0.89650   -2.000
 7155.00    0.71608   0.89412   -2.000
 7156.00    0.79483   0.89187   -2.000
 7157.00    0.87641   0.89464   -2.000
 7158.00    0.94958   0.89859   -2.000
 7159.00    1.01697   0.89803   -2.000
 7160.00    0.95301   0.89411   -2.000
 7161.00    0.88381   0.89383   -2.000
 7162.00    0.74841   0.89868   -2.000
 7163.00    0.63518   0.90076   -2.000
 7164.00    0.71102   0.89741   -2.000
 7165.00    0.79472   0.89410   -2.000
 7166.00    0.92819   0.89627   -2.000
 7167.00    1.00108   0.89978   -2.000
 7168.00    0.77320   0.90003   -2.000
 7169.00    0.60805   0.89760   -2.000
 7170.00    0.69536   0.89612   -2.000
 7171.00    0.76824   0.89758   -2.000
 7172.00    0.79293   0.89898   -2.000
 7173.00    0.78260   0.89865   -2.000
 7174.00    0.67350   0.89739   -2.000
 7175.00    0.62144   0.89660   -2.000
 7176.00    0.70695   0.89648   -2.000
 7177.00    0.74960   0.89775   -2.000
 7178.00    0.70297   0.89851   -2.000
 7179.00    0.69876   0.89680   -2.000
 7180.00    0.77134   0.89471   -2.000
 7181.00    0.77322   0.89484   -2.000
 7182.00    0.66318   0.89688   -2.000
 7183.00    0.61122   0.89715   -2.000
 7184.00    0.63993   0.89448   -2.000
 7185.00    0.63595   0.89317   -2.000
 7186.00    0.59198   0.89579   -2.000
 7187.00    0.59125   0.89704   -2.000
 7188.00    0.63713   0.89394   -2.000
 7189.00    0.58285   0.89124   -2.000
 7190.00    0.43333   0.89324   -2.000
 7191.00    0.47609   0.89715   -2.000
 7192.00    0.68003   0.89610   -2.000
 7193.00    0.76683   0.89133   -2.000
 7194.00    0.76716   0.89115   -2.000
 7195.00    0.29571   0.89656   -2.000
 7196.00   -0.48161   0.89859   -2.000
 7197.00   -0.18893   0.89389   -2.000
 7198.00    0.71073   0.89020   -2.000
 7199.00    1.12170   0.89382   -2.000
 7200.00    1.29131   0.89952   -2.000
 7201.00    1.18644   0.89860   -2.000
 7202.00    0.96436   0.89336   -2.000
 7203.00    0.90825   0.89304   -2.000
 7204.00    0.91288   0.89887   -2.000
 7205.00    0.89907   0.90224   -2.000
 7206.00    0.87956   0.89902   -2.000
 7207.00    0.90659   0.89508   -2.000
 7208.00    0.94563   0.89770   -2.000
 7209.00    0.99636   0.90317   -2.000
 7210.00    1.04955   0.90389   -2.000
 7211.00    1.04545   0.90144   -2.000
 7212.00    1.03182   0.90116   -2.000
 7213.00    1.18184   0.90474   -2.000
 7214.00    1.35231   0.90742   -2.000
 7215.00    1.17572   0.90661   -2.000
 7216.00    0.96908   0.90554   -2.000
 7217.00    0.89067   0.90775   -2.000
 7218.00    0.81878   0.91134   -2.000
