###################################################################
## OUTPUT of StarlightChains_v04.for    [Cid@UFSC - 01/Apr/2007] ##
###################################################################

## Some input info
KUG0210-078._35_22.txt                   [arq_obs]
Base.CB07.vall.4m                        [arq_base]
Masks.EmLines.NEW.gm                     [arq_masks]
StCv04.C11.config                        [arq_config]
   66                                    [N_base]
    0                                    [N_YAV_components = # of components with extra extinction!]
    0                                    [i_FitPowerLaw (1/0 = Yes/No)]
-9.99                                    [alpha_PowerLaw]
CCM                                      [red_law_option]
 1.458241                                [q_norm = A(l_norm)/A(V)]

## (Re)Sampling Parameters
 3741.00                                 [l_ini (A)]
 7218.00                                 [l_fin (A)]
    1.00                                 [dl    (A)]     (OBS: dl_cushion =    50.00 A)

## Normalization info
 4020.00                                 [l_norm (A) - for base]
 4010.00                                 [llow_norm (A) - window for f_obs]
 4060.00                                 [lupp_norm (A) - window for f_obs]
7.983803E-18                             [fobs_norm (in input units)]

## S/N
 3691.00                                 [llow_SN (A) - window for S/N]
 7268.00                                 [lupp_SN (A) - window for S/N]
   3.013                                 [S/N in S/N window]
   3.631                                 [S/N in norm. window]
   0.009                                 [S/N_err in S/N window]
   0.011                                 [S/N_err in norm. window]
  1.0000                                 [fscale_chi2]

## etc...
    -2007557                             [idum_orig]
  2404                                   [NOl_eff]
  1914                                   [Nl_eff]
   490    NSIGMA                         [Ntot_cliped & clip_method]
 11452350                                [Nglobal_steps]
   7                                     [N_chains]
  39                                     [NEX0s_base = N_base in EX0s-fits]
 0   0   1        0   2.0   7.935E+03    [Clip-Bug, RC-Crash & Burn-In warning-flags, n_censored_weights, wei_nsig_threshold & wei_limit]
    78     77.473     76.902      0.571  [idt_all, wdt_TotTime, wdt_UsrTime & wdt_SysTime (sec)]

## Synthesis Results - Best model ##

 8.70760E-06                             [chi2/Nl_eff]
    43.85578                             [adev (%)]

   107.99123                             [sum-of-x (%)]
 5.77144E-18                             [Flux_tot (units of input spectrum!)]
 9.94637E-14                             [Mini_tot (???)]
 5.16235E-14                             [Mcor_tot (???)]

-257.75                                  [v0_min  (km/s)]
  49.24                                  [vd_min  (km/s)]
-0.2988                                  [AV_min  (mag)]
 0.0000                                  [YAV_min (mag)]

# j     x_j(%)      Mini_j(%)     Mcor_j(%)     age_j(yr)     Z_j      (L/M)_j    YAV?  Mstars   component_j        a/Fe...       SSP_chi2r SSP_adev(%)   SSP_AV   SSP_x(%)
  1      0.0080     3.9236E-05    7.5596E-05    1.000000E+06  0.00400  1.094E-02    0   1.0000   age020_m42            0.0000     9.2206E-06    46.5703   2.3702    96.6217
  2      0.4180     5.6053E-04    1.0799E-03    3.160000E+06  0.00400  4.007E-02    0   0.9999   age045_m42            0.0000     9.1084E-06    45.7764   1.7238    99.9407
  3      0.0000     0.0000E+00    0.0000E+00    5.010000E+06  0.00400  2.539E-02    0   0.9488   age055_m42            0.0000     9.1704E-06    46.1952   2.0066    99.0132
  4      0.0000     0.0000E+00    0.0000E+00    6.610000E+06  0.00400  2.620E-02    0   0.9220   age061_m42            0.0000     9.0996E-06    45.8146   1.6503   100.2308
  5      0.0000     0.0000E+00    0.0000E+00    1.000000E+07  0.00400  1.322E-02    0   0.8862   age070_m42            0.0000     9.0077E-06    45.5314   1.3584   103.4658
  6      0.0000     0.0000E+00    0.0000E+00    1.445000E+07  0.00400  7.883E-03    0   0.8571   age078_m42            0.0000     9.0720E-06    45.8991   1.6667   101.5074
  7      0.0000     0.0000E+00    0.0000E+00    2.512000E+07  0.00400  5.251E-03    0   0.8174   age090_m42            0.0000     8.9817E-06    45.4945   1.2328   103.9861
  8      0.9800     1.4430E-02    2.1828E-02    4.000000E+07  0.00400  3.649E-03    0   0.7851   age104_m42            0.0000     8.9625E-06    45.3177   1.0180   104.2253
  9      0.0000     0.0000E+00    0.0000E+00    5.500000E+07  0.00400  3.098E-03    0   0.7629   age110_m42            0.0000     8.9889E-06    45.2425   1.1871   103.2268
 10      0.1962     4.7321E-03    6.5710E-03    1.015200E+08  0.00400  2.228E-03    0   0.7207   age116_m42            0.0000     8.9906E-06    45.1863   1.2218   102.6702
 11      0.0000     0.0000E+00    0.0000E+00    2.861200E+08  0.00400  1.093E-03    0   0.6648   age125_m42            0.0000     8.9337E-06    45.1076   0.6614   105.4939
 12      0.0736     5.9944E-03    7.3512E-03    5.088000E+08  0.00400  6.597E-04    0   0.6365   age130_m42            0.0000     8.9373E-06    44.8056   0.6692   105.3322
 13      0.0000     0.0000E+00    0.0000E+00    1.434000E+09  0.00400  2.132E-04    0   0.5798   age139_m42            0.0000     8.7731E-06    43.8579  -0.2829   106.2412
 14      3.9191     3.5722E+00    3.7008E+00    4.250000E+09  0.00400  5.895E-05    0   0.5377   age158_m42            0.0000     8.8719E-06    44.2542  -0.7345   102.0198
 15      0.0000     0.0000E+00    0.0000E+00    7.500000E+09  0.00400  3.510E-05    0   0.5212   age171_m42            0.0000     8.9418E-06    44.1449  -0.9223   101.0599
 16      0.0000     0.0000E+00    0.0000E+00    1.300000E+10  0.00400  2.005E-05    0   0.5034   age193_m42            0.0000     9.0624E-06    43.3130  -1.0000    97.9474
 17      0.0000     0.0000E+00    0.0000E+00    1.800000E+10  0.00400  1.525E-05    0   0.4967   age213_m42            0.0000     9.0649E-06    43.2242  -1.0000    96.9563
 18      0.0000     0.0000E+00    0.0000E+00    1.000000E+06  0.00800  1.238E-02    0   1.0000   age020_m52            0.0000     9.2131E-06    46.5521   2.3665    96.8058
 19      0.0000     0.0000E+00    0.0000E+00    3.160000E+06  0.00800  3.074E-02    0   0.9966   age045_m52            0.0000     9.2083E-06    46.5742   2.2948    97.4519
 20      0.7887     1.5883E-03    2.8898E-03    5.010000E+06  0.00800  2.668E-02    0   0.9443   age055_m52            0.0000     9.1669E-06    46.3317   2.0792    98.5725
 21      2.5906     6.5168E-03    1.1523E-02    6.610000E+06  0.00800  2.136E-02    0   0.9177   age061_m52            0.0000     8.9477E-06    45.3105   0.8385   105.2917
 22      0.0000     0.0000E+00    0.0000E+00    1.000000E+07  0.00800  1.215E-02    0   0.8827   age070_m52            0.0000     9.0019E-06    45.7460   1.5256   103.9049
 23      0.0000     0.0000E+00    0.0000E+00    1.445000E+07  0.00800  8.717E-03    0   0.8552   age078_m52            0.0000     9.0154E-06    45.7854   1.6393   102.6753
 24      0.0000     0.0000E+00    0.0000E+00    2.512000E+07  0.00800  5.592E-03    0   0.8162   age090_m52            0.0000     8.9388E-06    45.4331   1.3054   104.8693
 25      0.0000     0.0000E+00    0.0000E+00    4.000000E+07  0.00800  3.896E-03    0   0.7841   age104_m52            0.0000     8.9451E-06    45.3418   1.2359   104.6853
 26      0.0000     0.0000E+00    0.0000E+00    1.015200E+08  0.00800  2.148E-03    0   0.7226   age116_m52            0.0000     8.9552E-06    45.2936   1.1921   103.5132
 27      0.0000     0.0000E+00    0.0000E+00    2.861200E+08  0.00800  9.925E-04    0   0.6683   age125_m52            0.0000     8.8834E-06    44.6094   0.7396   106.0909
 28      0.0000     0.0000E+00    0.0000E+00    9.047900E+08  0.00800  3.141E-04    0   0.6138   age135_m52            0.0000     8.8176E-06    43.8797  -0.0009   107.2380
 29     39.8980     1.2471E+01    1.4064E+01    1.434000E+09  0.00800  1.719E-04    0   0.5853   age139_m52            0.0000     8.7485E-06    44.0008  -0.6034   105.7934
 30      0.0000     0.0000E+00    0.0000E+00    2.500000E+09  0.00800  7.872E-05    0   0.5600   age150_m52            0.0000     8.8730E-06    43.7973  -0.8754   102.5218
 31      0.0297     3.6779E-02    3.8450E-02    4.250000E+09  0.00800  4.336E-05    0   0.5426   age158_m52            0.0000     8.9295E-06    43.9540  -0.8916   101.5985
 32      0.6212     1.0566E+00    1.0828E+00    6.250000E+09  0.00800  3.159E-05    0   0.5319   age166_m52            0.0000     9.0504E-06    42.9634  -1.0000    98.6333
 33      0.0000     0.0000E+00    0.0000E+00    1.300000E+10  0.00800  1.361E-05    0   0.5073   age193_m52            0.0000     9.8227E-06    41.3515  -1.0000    84.8327
 34      0.3259     1.7711E+00    1.7027E+00    1.800000E+10  0.00800  9.886E-06    0   0.4990   age213_m52            0.0000     1.0180E-05    41.1845  -1.0000    81.2280
 35      0.6609     2.3000E-03    4.4314E-03    1.000000E+06  0.02000  1.544E-02    0   1.0000   age020_m62            0.0000     9.2052E-06    46.5622   2.3583    97.1951
 36      0.0000     0.0000E+00    0.0000E+00    3.160000E+06  0.02000  3.762E-02    0   0.9858   age045_m62            0.0000     9.2177E-06    46.7012   2.2912    98.2356
 37      0.0000     0.0000E+00    0.0000E+00    5.010000E+06  0.02000  3.296E-02    0   0.9342   age055_m62            0.0000     9.1298E-06    46.1115   1.9755    99.8032
 38     31.4335     1.4636E-01    2.4987E-01    8.710000E+06  0.02000  1.154E-02    0   0.8861   age067_m62            0.0000     8.8773E-06    45.9529   0.9259   110.5668
 39      0.0000     0.0000E+00    0.0000E+00    1.445000E+07  0.02000  7.663E-03    0   0.8472   age078_m62            0.0000     8.9032E-06    45.6669   1.1633   107.0385
 40      0.0000     0.0000E+00    0.0000E+00    2.512000E+07  0.02000  4.532E-03    0   0.8099   age090_m62            0.0000     8.9200E-06    45.7857   1.1611   106.5578
 41      0.0000     0.0000E+00    0.0000E+00    5.500000E+07  0.02000  2.733E-03    0   0.7595   age110_m62            0.0000     8.9137E-06    45.3586   1.2077   104.4322
 42      0.0000     0.0000E+00    0.0000E+00    1.609000E+08  0.02000  1.369E-03    0   0.6985   age120_m62            0.0000     8.8958E-06    44.8972   1.0834   105.2978
 43      0.0210     1.2547E-03    1.6231E-03    2.861200E+08  0.02000  9.013E-04    0   0.6714   age125_m62            0.0000     8.8582E-06    44.3501   0.8610   106.9120
 44      0.0000     0.0000E+00    0.0000E+00    5.088000E+08  0.02000  5.028E-04    0   0.6449   age130_m62            0.0000     8.8685E-06    43.8945   0.5279   107.2219
 45      0.0000     0.0000E+00    0.0000E+00    9.047900E+08  0.02000  2.428E-04    0   0.6179   age135_m62            0.0000     8.7699E-06    43.8636  -0.0426   105.5135
 46      0.0000     0.0000E+00    0.0000E+00    1.434000E+09  0.02000  1.263E-04    0   0.5908   age139_m62            0.0000     8.7655E-06    43.8468  -0.4996   104.1819
 47      0.0000     0.0000E+00    0.0000E+00    2.500000E+09  0.02000  5.985E-05    0   0.5673   age150_m62            0.0000     8.9241E-06    43.5634  -0.8642   102.2011
 48      0.0000     0.0000E+00    0.0000E+00    4.250000E+09  0.02000  3.271E-05    0   0.5468   age158_m62            0.0000     9.1475E-06    41.6458  -1.0000    96.1968
 49      0.0000     0.0000E+00    0.0000E+00    1.000000E+10  0.02000  1.360E-05    0   0.5167   age181_m62            0.0000     9.7537E-06    40.1666  -1.0000    85.6578
 50      0.0000     0.0000E+00    0.0000E+00    1.800000E+10  0.02000  7.124E-06    0   0.5013   age213_m62            0.0000     1.0319E-05    39.9942  -1.0000    79.0219
 51      0.0000     0.0000E+00    0.0000E+00    1.000000E+06  0.05000  2.592E-02    0   0.9998   age020_m72            0.0000     9.2123E-06    46.5891   2.3451    97.4387
 52      0.0000     0.0000E+00    0.0000E+00    3.160000E+06  0.05000  4.845E-02    0   0.9577   age045_m72            0.0000     9.1969E-06    46.6082   2.1980    98.5200
 53      0.0000     0.0000E+00    0.0000E+00    5.010000E+06  0.05000  3.072E-02    0   0.9147   age055_m72            0.0000     9.0403E-06    46.3256   1.7334   103.0846
 54      0.0000     0.0000E+00    0.0000E+00    6.610000E+06  0.05000  1.455E-02    0   0.8877   age061_m72            0.0000     9.0798E-06    47.6215   0.9578   112.8751
 55      0.0000     0.0000E+00    0.0000E+00    1.000000E+07  0.05000  9.074E-03    0   0.8524   age070_m72            0.0000     9.1119E-06    46.8476   1.9239   102.5759
 56      0.0000     0.0000E+00    0.0000E+00    2.512000E+07  0.05000  4.250E-03    0   0.7902   age090_m72            0.0000     9.0476E-06    46.2887   1.6576   103.0668
 57      0.0000     0.0000E+00    0.0000E+00    4.000000E+07  0.05000  3.087E-03    0   0.7618   age104_m72            0.0000     9.0040E-06    46.1043   1.4411   104.3795
 58      0.0026     8.0722E-05    1.1036E-04    1.015200E+08  0.05000  1.700E-03    0   0.7096   age116_m72            0.0000     8.9201E-06    45.1513   1.2218   105.2909
 59      0.0000     0.0000E+00    0.0000E+00    2.861200E+08  0.05000  7.384E-04    0   0.6633   age125_m72            0.0000     8.8309E-06    44.0572   0.7627   106.5817
 60     16.4717     2.3175E+00    2.8452E+00    5.088000E+08  0.05000  3.819E-04    0   0.6372   age130_m72            0.0000     8.7596E-06    43.8200   0.2990   106.4959
 61      0.0000     0.0000E+00    0.0000E+00    9.047900E+08  0.05000  1.676E-04    0   0.6110   age135_m72            0.0000     8.8118E-06    43.8071  -0.3896   103.5476
 62      0.0284     1.7277E-02    1.9553E-02    1.434000E+09  0.05000  8.837E-05    0   0.5874   age139_m72            0.0000     8.8681E-06    43.4503  -0.8483   102.9087
 63      0.0000     0.0000E+00    0.0000E+00    2.500000E+09  0.05000  4.233E-05    0   0.5598   age150_m72            0.0000     9.1474E-06    41.7583  -1.0000    96.6426
 64      0.0000     0.0000E+00    0.0000E+00    6.250000E+09  0.05000  1.435E-05    0   0.5249   age166_m72            0.0000     9.9657E-06    40.2287  -1.0000    82.5606
 65      9.5242     7.8574E+01    7.6239E+01    1.300000E+10  0.05000  6.513E-06    0   0.5036   age193_m72            0.0000     1.0891E-05    40.0970  -1.0000    75.4816
 66      0.0000     0.0000E+00    0.0000E+00    1.800000E+10  0.05000  4.527E-06    0   0.4945   age213_m72            0.0000     1.1509E-05    40.3573  -1.0000    70.9688


## Synthesis Results - Average & Chains ##

# j      x_j: min, <> & last-chain-values for 1 ...  7 chains
  1      0.0080     40.5503     38.9078     34.4320     40.1662     33.2659     33.0444     33.8145     35.6326
  2      0.4180      0.1072      0.1390      0.5899      0.1583      0.1434      0.0000      0.2532      0.3410
  3      0.0000      0.1738      0.2389      1.6371      0.0305      1.0993      0.0138      0.0000      0.3507
  4      0.0000      0.1042      0.2571      0.0000      0.0000      1.3039      0.5352      0.0080      0.2949
  5      0.0000      0.1542      0.1874      0.8614      0.3526      0.8703      0.3047      0.4540      0.1880
  6      0.0000      0.1626      0.0000      1.3668      0.3142      0.3406      0.0000      0.5646      0.0000
  7      0.0000      0.1851      0.0390      0.0552      0.6480      0.0625      0.0941      0.7116      1.4896
  8      0.9800      0.1860      0.3367      0.0000      0.0000      0.8193      1.1721      1.5263      0.1024
  9      0.0000      0.1076      0.2362      0.5902      0.1463      1.5580      0.6379      0.0000      0.0066
 10      0.1962      0.1319      0.2904      0.1060      0.3328      0.0643      0.5823      1.0809      0.9553
 11      0.0000      0.1420      0.2311      0.2818      0.3183      0.0000      0.0000      0.2349      0.0886
 12      0.0736      0.1449      0.0770      0.6388      0.0000      0.2242      0.3411      0.3056      0.4971
 13      0.0000      0.1416      0.1927      0.5893      0.4135      0.2187      0.5742      0.1528      0.0228
 14      3.9191      0.1105      0.0887      0.0475      0.1799      0.0000      0.0000      0.2198      0.0000
 15      0.0000      0.1910      0.5708      0.5601      0.0914      0.0181      0.0000      0.2000      0.2733
 16      0.0000      0.1625      0.0000      0.0000      0.0000      0.6833      0.4265      0.6476      0.0000
 17      0.0000      0.1211      0.0000      0.0000      0.1007      0.1069      0.2516      0.0000      0.0000
 18      0.0000     23.1380     22.5934     18.0562     22.3286     17.1137     19.5047     21.5820     21.5842
 19      0.0000      0.1878      0.1732      0.2030      0.2176      0.6415      0.6466      0.0000      0.1488
 20      0.7887      0.1236      0.3553      0.0026      0.0000      0.1295      0.4940      0.4041      0.0743
 21      2.5906      0.1203      0.0000      1.0129      0.0057      0.0000      0.4824      0.2187      0.8288
 22      0.0000      0.1558      0.4680      0.1462      0.0384      0.9626      0.3099      0.2067      0.0000
 23      0.0000      0.1042      0.3124      0.3337      0.0343      0.2858      0.3005      0.0103      0.0000
 24      0.0000      0.1296      0.0877      0.4183      0.2533      0.5313      0.3459      0.2994      0.1808
 25      0.0000      0.1121      0.0000      0.0000      0.3041      0.0593      0.0245      0.0000      0.5272
 26      0.0000      0.0954      0.0000      0.4667      0.0000      0.2804      0.5548      0.2919      0.0411
 27      0.0000      0.1668      0.2460      1.3026      0.0409      0.2216      0.3048      0.2009      0.3933
 28      0.0000      0.0766      0.0000      0.0000      0.0376      0.0000      0.1708      0.0000      0.0521
 29     39.8980      0.1620      0.2067      0.4864      0.0602      0.2084      0.4572      0.3944      0.3296
 30      0.0000      0.1446      0.0000      0.2988      0.0000      1.8307      0.0000      0.3590      0.0000
 31      0.0297      0.1246      0.1963      0.8792      0.0000      0.3026      0.0000      0.7712      0.1181
 32      0.6212      0.1326      0.0000      0.0000      0.0781      0.2464      0.1206      0.4028      0.3356
 33      0.0000      1.1847      1.0902      1.7341      1.3753      1.5354      0.6325      1.1906      1.3595
 34      0.3259     16.3216     15.8913     12.7617     15.8892     14.0307     14.9673     13.8390     15.3069
 35      0.6609      3.2096      3.0681      2.7097      3.3942      3.2083      3.3642      3.1449      2.8718
 36      0.0000      0.1551      0.0000      0.2930      0.4219      0.1886      0.6442      0.7563      0.0292
 37      0.0000      0.1708      0.4366      0.0763      0.1220      0.1013      1.0379      0.4948      0.9188
 38     31.4335      0.1618      0.2128      0.1105      0.4205      0.2666      0.0000      0.6069      0.4981
 39      0.0000      0.1520      0.0000      0.3806      0.1195      0.0000      0.5831      0.1681      0.0000
 40      0.0000      0.1233      0.1104      0.9241      0.0855      0.0012      0.0873      0.0823      0.3665
 41      0.0000      0.1464      0.3035      0.0941      0.1029      1.0639      0.6577      0.1261      0.4969
 42      0.0000      0.1154      0.1206      0.1596      0.0899      0.0000      0.0000      0.9161      0.1811
 43      0.0210      0.1346      0.0000      0.3113      0.0000      0.4959      0.0000      1.1516      0.0000
 44      0.0000      0.1558      0.1021      0.3956      0.1028      0.0000      0.0981      0.2992      0.0000
 45      0.0000      0.1355      0.1559      0.1667      0.1714      0.0383      0.0559      0.0948      0.1074
 46      0.0000      0.1281      0.5313      0.0373      0.1790      0.7045      0.4003      0.0000      0.1919
 47      0.0000      0.1236      0.0237      0.3652      0.0000      0.6893      0.6366      0.6243      0.2077
 48      0.0000      0.1302      0.2495      0.4248      0.3391      0.5318      0.7190      0.0906      0.0000
 49      0.0000      0.1339      0.0000      0.1768      0.0000      0.3745      0.0000      0.3859      0.0458
 50      0.0000      0.1495      0.9236      0.3157      0.0711      0.2042      0.2051      0.0005      0.3048
 51      0.0000      0.8237      1.1431      0.4740      1.0317      0.8693      0.5516      0.2835      1.2750
 52      0.0000      0.1685      0.3130      0.9182      0.0000      0.0000      0.9570      0.2440      0.6708
 53      0.0000      0.1160      0.1240      0.0000      0.1179      0.1696      1.2977      0.1191      0.2751
 54      0.0000      0.0964      0.0000      0.4270      0.2437      0.2232      0.2001      0.1691      0.5267
 55      0.0000      0.1237      0.1610      0.0000      0.0152      0.7748      0.4623      0.0999      0.0000
 56      0.0000      0.1629      0.4175      0.0000      0.5274      0.6237      0.1897      0.3496      0.0000
 57      0.0000      0.1422      0.1931      0.9153      0.1917      0.4193      0.9158      0.0000      1.0105
 58      0.0026      0.1120      0.1692      0.0000      0.4427      0.5638      0.0000      0.2459      0.0000
 59      0.0000      0.1361      0.3212      0.6639      0.2489      0.3343      0.5304      0.0742      0.0000
 60     16.4717      0.1585      0.5633      0.8009      0.0867      0.1375      0.3933      0.4935      0.4595
 61      0.0000      0.1265      0.2335      0.4286      0.1159      0.5741      0.3362      0.0000      0.0391
 62      0.0284      0.1158      0.1446      0.3966      0.0481      0.0857      0.0971      0.9288      0.2046
 63      0.0000      0.1322      0.0994      0.6248      0.0000      1.1933      0.2654      0.1074      0.0000
 64      0.0000      0.1626      0.2579      0.7467      0.2524      0.0000      1.0504      0.1029      0.5783
 65      9.5242      2.9103      2.3868      2.9004      2.8900      3.5007      3.2019      2.5838      3.8040
 66      0.0000     12.5961     12.7251     12.7820     13.0905     12.2458     12.2169     13.9909     12.3545

# j      m_j: min, <> & last-chain-values for 1 ...  7 chains
  1  7.5596E-05  1.4691E-01  1.4095E-01  1.2874E-01  1.4427E-01  1.2209E-01  1.2218E-01  1.2091E-01  1.2840E-01
  2  1.0799E-03  1.0604E-04  1.3748E-04  6.0208E-04  1.5521E-04  1.4372E-04  0.0000E+00  2.4712E-04  3.3545E-04
  3  0.0000E+00  2.5736E-04  3.5384E-04  2.5024E-03  4.4840E-05  1.6493E-03  2.0805E-05  0.0000E+00  5.1669E-04
  4  0.0000E+00  1.4530E-04  3.5852E-04  0.0000E+00  0.0000E+00  1.8423E-03  7.6185E-04  1.1064E-05  4.0916E-04
  5  0.0000E+00  4.0982E-04  4.9783E-04  2.3620E-03  9.2883E-04  2.3424E-03  8.2621E-04  1.1904E-03  4.9674E-04
  6  0.0000E+00  7.0066E-04  0.0000E+00  6.0786E-03  1.3422E-03  1.4867E-03  0.0000E+00  2.4014E-03  0.0000E+00
  7  0.0000E+00  1.1418E-03  2.4039E-04  3.5167E-04  3.9635E-03  3.9033E-04  5.9260E-04  4.3330E-03  9.1409E-03
  8  2.1828E-02  1.5865E-03  2.8706E-03  0.0000E+00  0.0000E+00  7.0774E-03  1.0201E-02  1.2846E-02  8.6863E-04
  9  0.0000E+00  1.0499E-03  2.3053E-03  5.9448E-03  1.4157E-03  1.5404E-02  6.3547E-03  0.0000E+00  6.4131E-05
 10  6.5710E-03  1.6916E-03  3.7231E-03  1.4027E-03  4.2305E-03  8.3493E-04  7.6188E-03  1.3678E-02  1.2182E-02
 11  0.0000E+00  3.4228E-03  5.5695E-03  7.0105E-03  7.6064E-03  0.0000E+00  0.0000E+00  5.5901E-03  2.1234E-03
 12  7.3512E-03  5.5427E-03  2.9445E-03  2.5211E-02  0.0000E+00  8.6848E-03  1.3312E-02  1.1534E-02  1.8907E-02
 13  0.0000E+00  1.5262E-02  2.0768E-02  6.5551E-02  4.4188E-02  2.3876E-02  6.3166E-02  1.6254E-02  2.4410E-03
 14  3.7008E+00  3.9951E-02  3.2065E-02  1.7704E-02  6.4481E-02  0.0000E+00  0.0000E+00  7.8427E-02  0.0000E+00
 15  0.0000E+00  1.1243E-01  3.3590E-01  3.4020E-01  5.3354E-02  1.0777E-02  0.0000E+00  1.1619E-01  1.6001E-01
 16  0.0000E+00  1.6170E-01  0.0000E+00  0.0000E+00  0.0000E+00  6.8876E-01  4.3316E-01  6.3601E-01  0.0000E+00
 17  0.0000E+00  1.5631E-01  0.0000E+00  0.0000E+00  1.2886E-01  1.3974E-01  3.3145E-01  0.0000E+00  0.0000E+00
 18  0.0000E+00  7.4078E-02  7.2327E-02  5.9657E-02  7.0870E-02  5.5502E-02  6.3731E-02  6.8196E-02  6.8731E-02
 19  0.0000E+00  2.4131E-04  2.2260E-04  2.6922E-04  2.7718E-04  8.3498E-04  8.4801E-04  0.0000E+00  1.9017E-04
 20  2.8898E-03  1.7342E-04  4.9838E-04  3.7323E-06  0.0000E+00  1.8401E-04  7.0732E-04  5.5954E-04  1.0365E-04
 21  1.1523E-02  2.0485E-04  0.0000E+00  1.7800E-03  9.5933E-06  0.0000E+00  8.3843E-04  3.6761E-04  1.4038E-03
 22  0.0000E+00  4.4855E-04  1.3475E-03  4.3460E-04  1.0966E-04  2.8079E-03  9.1070E-04  5.8754E-04  0.0000E+00
 23  0.0000E+00  4.0532E-04  1.2148E-03  1.3391E-03  1.3224E-04  1.1256E-03  1.1925E-03  3.9681E-05  0.0000E+00
 24  0.0000E+00  7.4976E-04  5.0724E-04  2.4970E-03  1.4527E-03  3.1138E-03  2.0423E-03  1.7098E-03  1.0401E-03
 25  0.0000E+00  8.9402E-04  0.0000E+00  0.0000E+00  2.4051E-03  4.7913E-04  1.9953E-04  0.0000E+00  4.1825E-03
 26  0.0000E+00  1.2722E-03  0.0000E+00  6.4212E-03  0.0000E+00  3.7878E-03  7.5503E-03  3.8411E-03  5.4563E-04
 27  0.0000E+00  4.4507E-03  6.5644E-03  3.5876E-02  1.0815E-03  5.9898E-03  8.3027E-03  5.2909E-03  1.0439E-02
 28  0.0000E+00  5.9328E-03  0.0000E+00  0.0000E+00  2.8872E-03  0.0000E+00  1.3499E-02  0.0000E+00  4.0174E-03
 29  1.4064E+01  2.1867E-02  2.7893E-02  6.7746E-02  8.0521E-03  2.8492E-02  6.2976E-02  5.2531E-02  4.4243E-02
 30  0.0000E+00  4.0765E-02  0.0000E+00  8.6934E-02  0.0000E+00  5.2287E-01  0.0000E+00  9.9913E-02  0.0000E+00
 31  3.8450E-02  6.1797E-02  9.7346E-02  4.5003E-01  0.0000E+00  1.5206E-01  0.0000E+00  3.7755E-01  5.8277E-02
 32  1.0828E+00  8.8526E-02  0.0000E+00  0.0000E+00  5.1643E-02  1.6654E-01  8.2151E-02  2.6531E-01  2.2273E-01
 33  0.0000E+00  1.7503E+00  1.6105E+00  2.6438E+00  2.0143E+00  2.2979E+00  9.5363E-01  1.7361E+00  1.9977E+00
 34  1.7027E+00  3.2654E+01  3.1789E+01  2.6348E+01  3.1514E+01  2.8434E+01  3.0560E+01  2.7326E+01  3.0458E+01
 35  4.4314E-03  8.2393E-03  7.8751E-03  7.1784E-03  8.6380E-03  8.3428E-03  8.8138E-03  7.9678E-03  7.3324E-03
 36  0.0000E+00  1.6112E-04  0.0000E+00  3.1401E-04  4.3442E-04  1.9843E-04  6.8280E-04  7.7530E-04  3.0156E-05
 37  0.0000E+00  1.9187E-04  4.9042E-04  8.8456E-05  1.3583E-04  1.1526E-04  1.1899E-03  5.4859E-04  1.0267E-03
 38  2.4987E-01  4.9235E-04  6.4767E-04  3.4709E-04  1.2687E-03  8.2196E-04  0.0000E+00  1.8231E-03  1.5078E-03
 39  0.0000E+00  6.6603E-04  0.0000E+00  1.7211E-03  5.1925E-04  0.0000E+00  2.6079E-03  7.2701E-04  0.0000E+00
 40  0.0000E+00  8.7308E-04  7.8195E-04  6.7550E-03  6.0049E-04  8.6631E-06  6.3125E-04  5.7568E-04  2.5821E-03
 41  0.0000E+00  1.6121E-03  3.3423E-03  1.0702E-03  1.1238E-03  1.1870E-02  7.3933E-03  1.3710E-03  5.4440E-03
 42  0.0000E+00  2.3343E-03  2.4377E-03  3.3315E-03  1.8031E-03  0.0000E+00  0.0000E+00  1.8285E-02  3.6426E-03
 43  1.6231E-03  3.9741E-03  0.0000E+00  9.4856E-03  0.0000E+00  1.4831E-02  0.0000E+00  3.3557E-02  0.0000E+00
 44  0.0000E+00  7.9215E-03  5.1888E-03  2.0755E-02  5.1789E-03  0.0000E+00  5.0911E-03  1.5010E-02  0.0000E+00
 45  0.0000E+00  1.3672E-02  1.5722E-02  1.7351E-02  1.7140E-02  3.9182E-03  5.7499E-03  9.4359E-03  1.0773E-02
 46  0.0000E+00  2.3753E-02  9.8502E-02  7.1339E-03  3.2904E-02  1.3232E-01  7.5742E-02  0.0000E+00  3.5386E-02
 47  0.0000E+00  4.6426E-02  8.8884E-03  1.4158E-01  0.0000E+00  2.6232E-01  2.4410E-01  2.3151E-01  7.7613E-02
 48  0.0000E+00  8.6244E-02  1.6529E-01  2.9047E-01  2.2277E-01  3.5695E-01  4.8619E-01  5.9244E-02  0.0000E+00
 49  0.0000E+00  2.0167E-01  0.0000E+00  2.7478E-01  0.0000E+00  5.7127E-01  0.0000E+00  5.7352E-01  6.8637E-02
 50  0.0000E+00  4.1693E-01  2.5757E+00  9.0862E-01  1.9646E-01  5.7684E-01  5.8381E-01  1.3320E-03  8.4565E-01
 51  0.0000E+00  1.2593E-03  1.7474E-03  7.4777E-04  1.5637E-03  1.3463E-03  8.6063E-04  4.2772E-04  1.9388E-03
 52  0.0000E+00  1.3203E-04  2.4517E-04  7.4243E-04  0.0000E+00  0.0000E+00  7.6517E-04  1.8871E-04  5.2268E-04
 53  0.0000E+00  1.3687E-04  1.4629E-04  0.0000E+00  1.3798E-04  2.0278E-04  1.5630E-03  1.3872E-04  3.2286E-04
 54  0.0000E+00  2.3316E-04  0.0000E+00  1.0656E-03  5.8424E-04  5.4674E-04  4.9372E-04  4.0351E-04  1.2668E-03
 55  0.0000E+00  4.6047E-04  5.9937E-04  0.0000E+00  5.6041E-05  2.9224E-03  1.7566E-03  3.6700E-04  0.0000E+00
 56  0.0000E+00  1.2004E-03  3.0762E-03  0.0000E+00  3.8528E-03  4.6557E-03  1.4268E-03  2.5424E-03  0.0000E+00
 57  0.0000E+00  1.3910E-03  1.8885E-03  9.2387E-03  1.8593E-03  4.1548E-03  9.1414E-03  0.0000E+00  9.8307E-03
 58  1.1036E-04  1.8531E-03  2.7989E-03  0.0000E+00  7.2613E-03  9.4479E-03  0.0000E+00  4.0158E-03  0.0000E+00
 59  0.0000E+00  4.8469E-03  1.1434E-02  2.4392E-02  8.7866E-03  1.2056E-02  1.9274E-02  2.6086E-03  0.0000E+00
 60  2.8452E+00  1.0483E-02  3.7246E-02  5.4658E-02  5.6827E-03  9.2089E-03  2.6543E-02  3.2214E-02  3.0226E-02
 61  0.0000E+00  1.8274E-02  3.3733E-02  6.3911E-02  1.6598E-02  8.4026E-02  4.9575E-02  0.0000E+00  5.6121E-03
 62  1.9553E-02  3.0514E-02  3.8104E-02  1.0782E-01  1.2553E-02  2.2866E-02  2.6118E-02  2.4150E-01  5.3612E-02
 63  0.0000E+00  6.9317E-02  5.2110E-02  3.3796E-01  0.0000E+00  6.3359E-01  1.4198E-01  5.5562E-02  0.0000E+00
 64  0.0000E+00  2.3579E-01  3.7393E-01  1.1172E+00  3.6280E-01  0.0000E+00  1.5542E+00  1.4721E-01  8.3390E-01
 65  7.6239E+01  8.9193E+00  7.3142E+00  9.1730E+00  8.7806E+00  1.0868E+01  1.0015E+01  7.8154E+00  1.1595E+01
 66  0.0000E+00  5.4535E+01  5.5088E+01  5.7110E+01  5.6187E+01  5.3706E+01  5.3981E+01  5.9784E+01  5.3200E+01

# AV, chi2 & Mass for <> & i_chain = 1 ...  7 solutions
AV      -0.2988     -0.1715     -0.1809     -0.2072     -0.1715     -0.2573     -0.1990     -0.2308     -0.2012
chi2 8.7076E-06  8.7576E-06  8.7538E-06  8.7476E-06  8.7557E-06  8.7490E-06  8.7525E-06  8.7468E-06  8.7514E-06
Mass 5.1624E-14  1.5999E-13  1.5799E-13  1.4776E-13  1.6139E-13  1.4075E-13  1.5108E-13  1.4968E-13  1.5456E-13
-257.75                                  [v0_min (km/s) before EX0s...]
  49.24                                  [vd_min (km/s) before EX0s...]


## Synthetic spectrum (Best Model) ##l_obs f_obs f_syn wei
 3478    [Nl_obs]
 3741.00    1.95317   0.72762    0.000
 3742.00    1.70938   0.69344    0.000
 3743.00    0.96183   0.65681    0.000
 3744.00    0.84982   0.61145    0.000
 3745.00    1.10811   0.55251   -1.000
 3746.00    1.33860   0.50960   -1.000
 3747.00    1.55496   0.52204   -1.000
 3748.00    1.48164   0.58657   -1.000
 3749.00    1.28093   0.66513   -1.000
 3750.00    1.35483   0.73450   -1.000
 3751.00    1.53240   0.79203   -1.000
 3752.00    1.64979   0.82533   -1.000
 3753.00    1.74788   0.81728   -1.000
 3754.00    2.58153   0.77815   -1.000
 3755.00    3.61228   0.74822   -1.000
 3756.00    2.86500   0.75231   -1.000
 3757.00    1.72746   0.77662   -1.000
 3758.00   -0.05583   0.79715    0.000
 3759.00   -1.95184   0.80270    0.000
 3760.00   -1.93546   0.79645    0.000
 3761.00   -1.66505   0.78764    0.000
 3762.00   -1.29041   0.77042    0.000
 3763.00   -0.90598   0.73427    0.000
 3764.00   -1.09819   0.69318    0.000
 3765.00   -1.32366   0.65833    0.000
 3766.00    0.14634   0.62098   -1.000
 3767.00    1.64088   0.59533   -1.000
 3768.00    1.23108   0.61499   -1.000
 3769.00    0.84020   0.67296   -1.000
 3770.00    0.90902   0.72825   -1.000
 3771.00    1.01255   0.76281   -1.000
 3772.00    1.57083   0.78892   -1.000
 3773.00    1.97171   0.81828   -1.000
 3774.00    0.99091   0.84766   -1.000
 3775.00    0.17689   0.87440   -1.000
 3776.00    0.44435   0.90317   -1.000
 3777.00    0.59755   0.92762   -1.000
 3778.00    0.17252   0.93710   -1.000
 3779.00   -0.04400   0.93781    0.000
 3780.00    0.59297   0.94023   -1.000
 3781.00    1.18118   0.93408   -1.000
 3782.00    1.60403   0.90290   -1.000
 3783.00    1.93892   0.85956   -1.000
 3784.00    2.02224   0.82993   -1.000
 3785.00    2.02153   0.81520   -1.000
 3786.00    1.81551   0.80720   -1.000
 3787.00    1.65841   0.80532   -1.000
 3788.00    1.60438   0.80210   -1.000
 3789.00    1.79027   0.78164   -1.000
 3790.00    2.41562   0.73928   -1.000
 3791.00    2.46930   0.68624   -1.000
 3792.00    1.60789   0.63252   -1.000
 3793.00    0.92237   0.57683   -1.000
 3794.00    0.48393   0.52737   -1.000
 3795.00    0.19524   0.51741   -1.000
 3796.00    0.09164   0.56616   -1.000
 3797.00    0.27119   0.64692   -1.000
 3798.00    0.75923   0.72293   -1.000
 3799.00    1.36191   0.78388   -1.000
 3800.00    2.07475   0.82939   -1.000
 3801.00    1.99294   0.85047   -1.000
 3802.00    1.23778   0.84412   -1.000
 3803.00    0.40817   0.83025   -1.000
 3804.00   -0.47699   0.83974    0.000
 3805.00   -0.99777   0.87751    0.000
 3806.00   -1.27968   0.91836    0.000
 3807.00   -0.66505   0.94046    0.000
 3808.00    0.46405   0.93557   -1.000
 3809.00    1.13038   0.90476   -1.000
 3810.00    1.56540   0.86576   -1.000
 3811.00    0.76197   0.84043   -1.000
 3812.00   -0.57703   0.83507    0.000
 3813.00   -0.46795   0.84681    0.000
 3814.00    0.17815   0.85771   -1.000
 3815.00    0.54591   0.83717   -1.000
 3816.00    0.82617   0.79094   -1.000
 3817.00    0.40394   0.76976   -1.000
 3818.00   -0.20256   0.79606    0.000
 3819.00    0.45053   0.82972   -1.000
 3820.00    1.37350   0.82648   -1.000
 3821.00    1.30668   0.79380   -1.000
 3822.00    1.07188   0.76651   -1.000
 3823.00    0.70106   0.75478   -1.000
 3824.00    0.31279   0.74671   -1.000
 3825.00    0.87468   0.73598   -1.000
 3826.00    1.52186   0.72303   -1.000
 3827.00    1.02622   0.70031   -1.000
 3828.00    0.46915   0.65583   -1.000
 3829.00    0.62066   0.59450   -1.000
 3830.00    0.78734   0.53462   -1.000
 3831.00    1.03569   0.49164   -1.000
 3832.00    1.26491   0.48172   -1.000
 3833.00    1.06911   0.50777   -1.000
 3834.00    0.87513   0.54846   -1.000
 3835.00    0.70377   0.58786   -1.000
 3836.00    0.58141   0.62715   -1.000
 3837.00    0.87330   0.67084   -1.000
 3838.00    1.03787   0.72244   -1.000
 3839.00    0.40140   0.77466   -1.000
 3840.00   -0.07295   0.81307    0.000
 3841.00    0.25256   0.83403   -1.000
 3842.00    0.71771   0.84543   -1.000
 3843.00    1.74180   0.85927   -1.000
 3844.00    2.41121   0.87506   -1.000
 3845.00    1.90142   0.87662   -1.000
 3846.00    1.53153   0.86443   -1.000
 3847.00    1.55452   0.86422    0.000
 3848.00    1.54545   0.88567    0.000
 3849.00    1.45940   0.90642    0.000
 3850.00    1.09088   0.90912    0.000
 3851.00    0.13653   0.89759    0.000
 3852.00   -0.56236   0.88125    0.000
 3853.00   -0.80048   0.87265    0.000
 3854.00   -0.79228   0.87139    0.000
 3855.00   -0.39563   0.86104    0.000
 3856.00    0.26003   0.84936    0.000
 3857.00    1.27427   0.86095    0.000
 3858.00    1.57206   0.89262    0.000
 3859.00    0.99688   0.91874    0.000
 3860.00    0.54388   0.92604    0.000
 3861.00    0.22213   0.92029    0.000
 3862.00    0.35810   0.91177    0.000
 3863.00    0.92778   0.90672    0.000
 3864.00    1.08933   0.90816    0.000
 3865.00    0.90994   0.91403    0.000
 3866.00    0.83923   0.91077    0.000
 3867.00    0.84845   0.88598    0.000
 3868.00    1.08687   0.84744    0.000
 3869.00    1.47332   0.82423    0.000
 3870.00    1.36263   0.83860    0.000
 3871.00    0.97098   0.87206    0.000
 3872.00    0.77364   0.88678    0.000
 3873.00    0.67188   0.86698    0.000
 3874.00    0.42374   0.82703    0.000
 3875.00    0.11336   0.80030    0.000
 3876.00    0.15409   0.80498    0.000
 3877.00    0.32273   0.81320    0.000
 3878.00    0.93129   0.79742    0.000
 3879.00    1.67549   0.77459    0.000
 3880.00    1.17131   0.76104    0.000
 3881.00    0.34666   0.73478   -1.000
 3882.00    0.33564   0.67724   -1.000
 3883.00    0.49472   0.60753   -1.000
 3884.00    0.81659   0.54920   -1.000
 3885.00    1.16530   0.51376   -1.000
 3886.00    1.00618   0.52165   -1.000
 3887.00    0.78416   0.57969   -1.000
 3888.00    1.02511   0.65700   -1.000
 3889.00    1.30567   0.71809   -1.000
 3890.00    0.98011   0.75257   -1.000
 3891.00    0.62435   0.77012   -1.000
 3892.00    0.77860   0.78735   -1.000
 3893.00    0.93704   0.81188   -1.000
 3894.00    0.82580   0.83008   -1.000
 3895.00    0.69535   0.83134   -1.000
 3896.00    0.17184   0.83348   -1.000
 3897.00   -0.27069   0.85602    0.000
 3898.00    0.24434   0.88418   -1.000
 3899.00    0.70148   0.89292   -1.000
 3900.00    0.68707   0.88799   -1.000
 3901.00    0.67127   0.87975   -1.000
 3902.00    0.64695   0.86854   -1.000
 3903.00    0.59126   0.87253   -1.000
 3904.00    0.38459   0.90362   -1.000
 3905.00    0.30655   0.94225   -1.000
 3906.00    0.73225   0.96739   -1.000
 3907.00    0.93510   0.97775   -1.000
 3908.00    0.41158   0.97976   -1.000
 3909.00    0.11341   0.97382   -1.000
 3910.00    0.43666   0.96315   -1.000
 3911.00    0.66686   0.95662   -1.000
 3912.00    0.67731   0.95159   -1.000
 3913.00    0.84549   0.94028   -1.000
 3914.00    1.33555   0.92418   -1.000
 3915.00    1.67140   0.90352   -1.000
 3916.00    1.73333   0.88100   -1.000
 3917.00    1.75922   0.86976   -1.000
 3918.00    1.72912   0.87741   -1.000
 3919.00    1.51768   0.89427   -1.000
 3920.00    1.05884   0.90658   -1.000
 3921.00    0.84059   0.90513   -1.000
 3922.00    0.91134   0.88543   -1.000
 3923.00    1.04571   0.85475   -1.000
 3924.00    1.24744   0.82190   -1.000
 3925.00    0.93813   0.78726   -1.000
 3926.00    0.15141   0.74793   -1.000
 3927.00    0.12846   0.69990   -1.000
 3928.00    0.73454   0.64129   -1.000
 3929.00    1.01934   0.57976   -1.000
 3930.00    1.07123   0.54090   -1.000
 3931.00    0.87783   0.55241   -1.000
 3932.00    0.52832   0.61173   -1.000
 3933.00    0.35659   0.68844   -1.000
 3934.00    0.28380   0.75624   -1.000
 3935.00    0.14014   0.81014   -1.000
 3936.00   -0.03783   0.85138    0.000
 3937.00    0.14868   0.87325   -1.000
 3938.00    0.48756   0.87502   -1.000
 3939.00    0.91565   0.86539   -1.000
 3940.00    1.37566   0.85431   -1.000
 3941.00    1.54347   0.86042   -1.000
 3942.00    1.62296   0.89144   -1.000
 3943.00    1.53551   0.91850   -1.000
 3944.00    1.40614   0.91737   -1.000
 3945.00    0.83824   0.90700   -1.000
 3946.00    0.18092   0.91167   -1.000
 3947.00    0.39838   0.92391   -1.000
 3948.00    0.75591   0.92427   -1.000
 3949.00    0.59891   0.91808   -1.000
 3950.00    0.38047   0.92353   -1.000
 3951.00    0.25191   0.92870   -1.000
 3952.00    0.13068   0.91073   -1.000
 3953.00    0.38701   0.88339   -1.000
 3954.00    0.66070   0.87539   -1.000
 3955.00    0.60225   0.88309   -1.000
 3956.00    0.54385   0.87459   -1.000
 3957.00    0.70866   0.83147   -1.000
 3958.00    0.86080   0.77400   -1.000
 3959.00    0.77274   0.73149   -1.000
 3960.00    0.65575   0.70070    0.000
 3961.00    0.21258   0.66109    0.000
 3962.00   -0.16235   0.60483    0.000
 3963.00   -0.00089   0.53351    0.000
 3964.00    0.15190   0.45648    0.000
 3965.00    0.25318   0.39561    0.000
 3966.00    0.31588   0.37537    0.000
 3967.00    0.19742   0.40635    0.000
 3968.00    0.15040   0.47372    0.000
 3969.00    0.37716   0.54879    0.000
 3970.00    0.56031   0.61788    0.000
 3971.00    0.60410   0.68230    0.000
 3972.00    0.77845   0.73751    0.000
 3973.00    1.30640   0.77983    0.000
 3974.00    1.52489   0.81787    0.000
 3975.00    1.02481   0.85806    0.000
 3976.00    0.67944   0.89335    0.000
 3977.00    0.64477   0.90989    0.000
 3978.00    0.76214   0.90509    0.000
 3979.00    1.14545   0.89718    0.000
 3980.00    1.22319   0.90475    0.000
 3981.00    0.83311   0.92605   -1.000
 3982.00    0.57872   0.94670   -1.000
 3983.00    0.50683   0.96224   -1.000
 3984.00    0.47217   0.97812   -1.000
 3985.00    0.48159   0.98759   -1.000
 3986.00    0.26843   0.98476   -1.000
 3987.00   -0.17718   0.98469    0.000
 3988.00   -0.18366   0.99803    0.000
 3989.00    0.21432   1.01363   -1.000
 3990.00    0.66523   1.01495   -1.000
 3991.00    1.15913   1.00024   -1.000
 3992.00    1.53075   0.98062   -1.000
 3993.00    1.81502   0.96347   -1.000
 3994.00    1.59377   0.95716   -1.000
 3995.00    1.05555   0.97442   -1.000
 3996.00    0.91307   1.00781   -1.000
 3997.00    0.98744   1.03211   -1.000
 3998.00    1.07546   1.04195   -1.000
 3999.00    1.16999   1.04424   -1.000
 4000.00    1.44452   1.02706   -1.000
 4001.00    1.79302   0.98354   -1.000
 4002.00    1.56098   0.94774   -1.000
 4003.00    1.12503   0.95446   -1.000
 4004.00    1.29204   0.98567   -1.000
 4005.00    1.63771   1.00597   -1.000
 4006.00    1.48070   1.01406   -1.000
 4007.00    1.20022   1.02308   -1.000
 4008.00    1.04273   1.03106   -1.000
 4009.00    0.90970   1.03482   -1.000
 4010.00    1.18830   1.03873   -1.000
 4011.00    1.53086   1.04581   -1.000
 4012.00    1.27811   1.05203   -1.000
 4013.00    0.95690   1.04923   -1.000
 4014.00    1.07510   1.04538   -1.000
 4015.00    1.22728   1.05587   -1.000
 4016.00    1.28922   1.07052   -1.000
 4017.00    1.34737   1.06942   -1.000
 4018.00    0.89539   1.05508   -1.000
 4019.00    0.45404   1.03746   -1.000
 4020.00    0.68191   1.01367   -1.000
 4021.00    0.90213   0.98790   -1.000
 4022.00    0.98731   0.98191   -1.000
 4023.00    1.05419   1.00506   -1.000
 4024.00    0.92414   1.03666   -1.000
 4025.00    0.86912   1.04395   -1.000
 4026.00    1.38367   1.01257   -1.000
 4027.00    1.79401   0.96526   -1.000
 4028.00    1.60336   0.93609   -1.000
 4029.00    1.39445   0.93101   -1.000
 4030.00    1.10189   0.94105   -1.000
 4031.00    0.92386   0.96590   -1.000
 4032.00    1.17544   1.00693   -1.000
 4033.00    1.34403   1.05453   -1.000
 4034.00    1.25242   1.08821   -1.000
 4035.00    1.15866   1.09393   -1.000
 4036.00    1.05916   1.07531   -1.000
 4037.00    1.00000   1.05247   -1.000
 4038.00    1.03294   1.04525   -1.000
 4039.00    0.97814   1.04161   -1.000
 4040.00    0.74990   1.00833   -1.000
 4041.00    0.70733   0.94642   -1.000
 4042.00    0.98460   0.90645   -1.000
 4043.00    1.24559   0.92900   -1.000
 4044.00    1.48201   0.98756   -1.000
 4045.00    1.45494   1.03118   -1.000
 4046.00    1.07859   1.05127   -1.000
 4047.00    0.71880   1.06013   -1.000
 4048.00    0.37837   1.05650   -1.000
 4049.00    0.36751   1.03977   -1.000
 4050.00    0.69598   1.01855   -1.000
 4051.00    0.69150   1.00310   -1.000
 4052.00    0.38467   0.99796   -1.000
 4053.00    0.42167   0.99387   -1.000
 4054.00    0.73386   0.98622   -1.000
 4055.00    0.98721   0.99049   -1.000
 4056.00    1.19911   1.01125   -1.000
 4057.00    1.01528   1.02408   -1.000
 4058.00    0.58700   1.00229   -1.000
 4059.00    0.64903   0.95230   -1.000
 4060.00    0.97564   0.91993   -1.000
 4061.00    1.17798   0.93610   -1.000
 4062.00    1.32209   0.96885   -1.000
 4063.00    1.24761   0.98051   -1.000
 4064.00    1.08481   0.98633   -1.000
 4065.00    1.08519   1.00428   -1.000
 4066.00    1.14182   1.00878   -1.000
 4067.00    1.13927   0.97782   -1.000
 4068.00    1.11954   0.94367   -1.000
 4069.00    0.97579   0.94979   -1.000
 4070.00    0.80226   0.97983   -1.000
 4071.00    0.79042   0.98305   -1.000
 4072.00    0.80990   0.94515   -1.000
 4073.00    0.89239   0.89563   -1.000
 4074.00    0.98436   0.87487   -1.000
 4075.00    1.02071   0.90064   -1.000
 4076.00    1.05090   0.95447   -1.000
 4077.00    1.04573   1.00293   -1.000
 4078.00    1.03798   1.02144   -1.000
 4079.00    0.97801   1.00689   -1.000
 4080.00    0.91605   0.97861   -1.000
 4081.00    0.88038   0.95960   -1.000
 4082.00    0.84344   0.96097   -1.000
 4083.00    0.75335   0.98021   -1.000
 4084.00    0.69526   1.00302   -1.000
 4085.00    1.16466   1.01343   -1.000
 4086.00    1.57688   1.00765   -1.000
 4087.00    1.40074   0.99185   -1.000
 4088.00    1.22160   0.97187   -1.000
 4089.00    1.02046   0.95504   -1.000
 4090.00    0.88025   0.94143   -1.000
 4091.00    1.08183   0.91354   -1.000
 4092.00    1.22603   0.86650    0.000
 4093.00    1.11336   0.82160    0.000
 4094.00    1.00787   0.78954    0.000
 4095.00    0.92872   0.75483    0.000
 4096.00    0.86699   0.69751    0.000
 4097.00    0.85881   0.62369    0.000
 4098.00    0.94508   0.57861    0.000
 4099.00    1.27818   0.59957    0.000
 4100.00    1.44669   0.66676    0.000
 4101.00    1.24555   0.73977    0.000
 4102.00    1.12484   0.80134    0.000
 4103.00    1.16064   0.84496    0.000
 4104.00    1.26181   0.86806    0.000
 4105.00    1.47391   0.87665    0.000
 4106.00    1.31979   0.87933    0.000
 4107.00    0.62127   0.88511    0.000
 4108.00    0.37977   0.90033    0.000
 4109.00    0.73543   0.92401    0.000
 4110.00    0.89598   0.94822    0.000
 4111.00    0.83194   0.96578    0.000
 4112.00    0.75636   0.97707    0.000
 4113.00    0.66905   0.97928   -1.000
 4114.00    0.84093   0.96315   -1.000
 4115.00    1.24486   0.93748   -1.000
 4116.00    1.30271   0.92661   -1.000
 4117.00    1.08750   0.93332   -1.000
 4118.00    1.04974   0.94259   -1.000
 4119.00    1.13512   0.95230   -1.000
 4120.00    1.08505   0.96976   -1.000
 4121.00    0.95255   0.99068   -1.000
 4122.00    0.84995   0.99793   -1.000
 4123.00    0.76322   0.98410   -1.000
 4124.00    0.72744   0.96282   -1.000
 4125.00    0.71516   0.95122   -1.000
 4126.00    0.67225   0.94777   -1.000
 4127.00    0.61719   0.93629   -1.000
 4128.00    0.74823   0.91439   -1.000
 4129.00    0.94227   0.90214   -1.000
 4130.00    0.91451   0.91480   -1.000
 4131.00    0.82364   0.94757   -1.000
 4132.00    1.05217   0.98314   -1.000
 4133.00    1.35570   1.00388   -1.000
 4134.00    1.24003   1.01301   -1.000
 4135.00    1.04523   1.02341   -1.000
 4136.00    1.09500   1.03035   -1.000
 4137.00    1.18048   1.01793   -1.000
 4138.00    1.02791   0.97259   -1.000
 4139.00    0.85006   0.90498   -1.000
 4140.00    0.70867   0.86502   -1.000
 4141.00    0.56980   0.88825   -1.000
 4142.00    0.79835   0.94397   -1.000
 4143.00    1.03956   0.98296   -1.000
 4144.00    0.92223   0.99192   -1.000
 4145.00    0.80854   0.98073   -1.000
 4146.00    0.83811   0.96643   -1.000
 4147.00    0.86431   0.96317   -1.000
 4148.00    0.83841   0.96563   -1.000
 4149.00    0.83790   0.96068   -1.000
 4150.00    1.08776   0.94880   -1.000
 4151.00    1.27448   0.94038   -1.000
 4152.00    1.01295   0.93989   -1.000
 4153.00    0.74853   0.94717   -1.000
 4154.00    0.46843   0.96498   -1.000
 4155.00    0.28259   0.98781   -1.000
 4156.00    0.50881   1.00157   -1.000
 4157.00    0.70783   1.00360   -1.000
 4158.00    0.80899   1.00666   -1.000
 4159.00    0.91978   1.01504   -1.000
 4160.00    1.05960   1.01769   -1.000
 4161.00    1.14517   1.01180   -1.000
 4162.00    1.09145   1.00117   -1.000
 4163.00    1.02783   0.98641   -1.000
 4164.00    0.94235   0.97786   -1.000
 4165.00    0.83187   0.98465   -1.000
 4166.00    0.67352   0.99095   -1.000
 4167.00    0.66315   0.97253   -1.000
 4168.00    0.90010   0.93087   -1.000
 4169.00    1.05998   0.89725   -1.000
 4170.00    1.10699   0.89688   -1.000
 4171.00    0.93051   0.91888   -1.000
 4172.00    0.46620   0.93499   -1.000
 4173.00    0.26787   0.93292   -1.000
 4174.00    0.37137   0.92547   -1.000
 4175.00    0.50982   0.93291   -1.000
 4176.00    0.68327   0.95375   -1.000
 4177.00    0.84497   0.96490   -1.000
 4178.00    0.99630   0.95949   -1.000
 4179.00    1.01431   0.95634   -1.000
 4180.00    0.92863   0.96648   -1.000
 4181.00    0.98492   0.97974   -1.000
 4182.00    1.13830   0.97622   -1.000
 4183.00    1.05016   0.95086   -1.000
 4184.00    0.81726   0.93327   -1.000
 4185.00    0.73451   0.94611   -1.000
 4186.00    0.73030   0.96821   -1.000
 4187.00    0.91453   0.97661   -1.000
 4188.00    1.18423   0.98391   -1.000
 4189.00    1.32381   1.00390   -1.000
 4190.00    1.41260   1.01545   -1.000
 4191.00    1.31794   0.99679   -1.000
 4192.00    1.16235   0.96242   -1.000
 4193.00    0.98323   0.93367   -1.000
 4194.00    0.79756   0.91199   -1.000
 4195.00    0.81005   0.90175   -1.000
 4196.00    0.86800   0.90980   -1.000
 4197.00    0.89954   0.91949   -1.000
 4198.00    0.92622   0.91871   -1.000
 4199.00    0.62338   0.92309   -1.000
 4200.00    0.27394   0.93842   -1.000
 4201.00    0.64220   0.95428   -1.000
 4202.00    1.08363   0.97115   -1.000
 4203.00    1.18490   0.99057   -1.000
 4204.00    1.26401   1.00340   -1.000
 4205.00    1.03818   1.00152   -1.000
 4206.00    0.80320   0.99093   -1.000
 4207.00    0.70688   0.98882   -1.000
 4208.00    0.62096   0.99898   -1.000
 4209.00    0.84062   1.00324   -1.000
 4210.00    1.03965   0.98412   -1.000
 4211.00    0.93822   0.94628   -1.000
 4212.00    0.84191   0.92338   -1.000
 4213.00    0.79404   0.94316   -1.000
 4214.00    0.75561   0.98464   -1.000
 4215.00    0.78211   1.01205   -1.000
 4216.00    0.81035   1.02171   -1.000
 4217.00    0.84790   1.02136   -1.000
 4218.00    0.89795   1.00572   -1.000
 4219.00    1.00145   0.97266   -1.000
 4220.00    1.07516   0.92772   -1.000
 4221.00    1.04391   0.87148   -1.000
 4222.00    1.04952   0.81221   -1.000
 4223.00    1.16426   0.78520   -1.000
 4224.00    1.22254   0.82212   -1.000
 4225.00    1.13834   0.89944   -1.000
 4226.00    1.04988   0.96513   -1.000
 4227.00    0.95215   0.99526   -1.000
 4228.00    0.95552   0.98857   -1.000
 4229.00    1.14956   0.95936   -1.000
 4230.00    1.22679   0.93839   -1.000
 4231.00    1.11173   0.93328   -1.000
 4232.00    1.00206   0.92907   -1.000
 4233.00    0.90017   0.92900   -1.000
 4234.00    0.80274   0.93763    0.088
 4235.00    0.71098   0.94577    0.027
 4236.00    0.75667   0.95569    0.020
 4237.00    0.95612   0.97351    0.020
 4238.00    1.03871   0.98977    0.020
 4239.00    1.00597   1.00163    0.020
 4240.00    1.30300   1.01802    0.020
 4241.00    1.88704   1.02739    0.020
 4242.00    1.87191   1.01025    0.020
 4243.00    1.39742   0.97669    0.020
 4244.00    1.30552   0.95240    0.021
 4245.00    1.47146   0.93936    0.021
 4246.00    1.09979   0.92403    0.021
 4247.00    0.41070   0.91743    0.021
 4248.00    0.00498   0.93217    0.021
 4249.00   -0.25485   0.94233    0.000
 4250.00   -0.12083   0.92912    0.000
 4251.00    0.18890   0.92139    0.021
 4252.00    0.72480   0.94497    0.021
 4253.00    1.34742   0.97712    0.021
 4254.00    1.48272   0.97953    0.020
 4255.00    1.45920   0.94853    0.020
 4256.00    1.32793   0.91171    0.020
 4257.00    1.16724   0.90083    0.020
 4258.00    1.34287   0.92983    0.020
 4259.00    1.59387   0.97849    0.020
 4260.00    1.15979   1.01510    0.020
 4261.00    0.60319   1.03005    0.020
 4262.00    0.59214   1.02561    0.020
 4263.00    0.65573   1.00363    0.020
 4264.00    0.39820   0.97776    0.019
 4265.00    0.10931   0.95704    0.019
 4266.00    0.06617   0.92650    0.019
 4267.00    0.03805   0.87961    0.019
 4268.00    0.52087   0.84589    0.019
 4269.00    1.01381   0.84740    0.019
 4270.00    0.79226   0.86233    0.019
 4271.00    0.57669   0.87566    0.019
 4272.00    0.51901   0.90434    0.019
 4273.00    0.47383   0.94893    0.019
 4274.00    0.60062   0.98496    0.019
 4275.00    0.73889   0.99345    0.019
 4276.00    0.98136   0.97672    0.019
 4277.00    1.20196   0.95578    0.019
 4278.00    1.27695   0.94494    0.019
 4279.00    1.26802   0.94345    0.019
 4280.00    0.82473   0.94575    0.019
 4281.00    0.45438   0.94323    0.019
 4282.00    0.38856   0.93709   -2.000
 4283.00    0.50000   0.93209   -2.000
 4284.00    1.22336   0.91478   -2.000
 4285.00    1.71014   0.87501   -2.000
 4286.00    1.50926   0.84040   -2.000
 4287.00    1.11441   0.84913   -2.000
 4288.00    0.23845   0.89459   -2.000
 4289.00   -0.24362   0.93169   -2.000
 4290.00    0.11636   0.93420   -2.000
 4291.00    0.66175   0.92154   -2.000
 4292.00    1.55139   0.91463   -2.000
 4293.00    2.06782   0.90427   -2.000
 4294.00    1.97900   0.87561   -2.000
 4295.00    1.54137   0.83097   -2.000
 4296.00    0.60752   0.79635   -2.000
 4297.00    0.23997   0.79150   -2.000
 4298.00    0.58116   0.80017    0.020
 4299.00    0.81962   0.80761    0.020
 4300.00    0.94475   0.82033    0.020
 4301.00    1.00988   0.83234    0.020
 4302.00    1.01663   0.82815    0.020
 4303.00    1.09929   0.80565    0.020
 4304.00    1.24708   0.77897    0.020
 4305.00    1.34039   0.77320    0.020
 4306.00    1.39253   0.79880    0.020
 4307.00    1.47322   0.83864    0.020
 4308.00    1.57288   0.86896    0.020
 4309.00    1.33801   0.88091    0.020
 4310.00    0.90860   0.88591    0.019
 4311.00    0.79139   0.90965    0.019
 4312.00    0.83241   0.96131    0.019
 4313.00    1.02152   1.00987    0.019
 4314.00    1.27563   1.02562    0.018
 4315.00    1.18007   1.01490    0.018
 4316.00    0.95281   0.99599    0.019
 4317.00    1.00012   0.97870    0.019
 4318.00    1.13522   0.96358    0.019
 4319.00    1.06882   0.93522    0.019
 4320.00    0.94856   0.88123    0.019
 4321.00    0.51121   0.81999    0.019
 4322.00    0.00446   0.79507    0.019
 4323.00    0.49315   0.83269    0.019
 4324.00    1.15501   0.90232    0.019
 4325.00    0.46282   0.94795    0.019
 4326.00   -0.40847   0.95025    0.000
 4327.00   -0.11756   0.93439    0.000
 4328.00    0.28196   0.92534    0.019
 4329.00    0.74493   0.92251    0.019
 4330.00    1.21153   0.91952    0.000
 4331.00    0.92816   0.91008    0.000
 4332.00    0.62973   0.87408    0.000
 4333.00    0.60577   0.79962    0.000
 4334.00    0.60396   0.71091    0.000
 4335.00    1.13415   0.63502    0.000
 4336.00    1.62225   0.58386    0.000
 4337.00    1.56237   0.58351    0.000
 4338.00    1.45852   0.64239    0.000
 4339.00    0.97048   0.71678    0.000
 4340.00    0.58204   0.77094    0.000
 4341.00    0.83701   0.81234    0.000
 4342.00    0.99906   0.84747    0.000
 4343.00    0.69238   0.87368    0.000
 4344.00    0.52449   0.90044    0.000
 4345.00    0.92314   0.92599    0.000
 4346.00    1.22445   0.92091    0.000
 4347.00    1.19644   0.87473    0.000
 4348.00    1.07414   0.83263    0.000
 4349.00    0.68275   0.84018    0.000
 4350.00    0.49202   0.88219    0.000
 4351.00    0.79052   0.92152    0.018
 4352.00    0.87013   0.95075    0.018
 4353.00    0.48928   0.96931    0.018
 4354.00    0.51075   0.96599    0.018
 4355.00    1.26771   0.94902    0.018
 4356.00    1.78041   0.94780    0.018
 4357.00    1.90287   0.97003    0.018
 4358.00    1.87698   0.99397    0.018
 4359.00    1.64309   1.00724    0.018
 4360.00    1.54381   1.01937    0.018
 4361.00    1.61060   1.03072    0.018
 4362.00    1.62351   1.02247    0.018
 4363.00    1.57782   0.99160    0.018
 4364.00    1.42968   0.96379    0.017
 4365.00    1.18326   0.95772    0.017
 4366.00    0.79043   0.96515    0.017
 4367.00    0.27376   0.97385    0.017
 4368.00    0.11723   0.97650    0.017
 4369.00    0.22896   0.96097    0.017
 4370.00    0.25360   0.92554    0.017
 4371.00    0.22125   0.89796    0.017
 4372.00    0.25503   0.90958    0.017
 4373.00    0.32668   0.95388    0.017
 4374.00    0.70631   0.99289    0.018
 4375.00    1.23955   1.00265    0.018
 4376.00    1.50581   0.99077    0.018
 4377.00    1.65685   0.96635    0.017
 4378.00    1.19807   0.91647    0.017
 4379.00    0.51362   0.84098    0.017
 4380.00    0.57118   0.78648    0.017
 4381.00    0.86142   0.79701    0.017
 4382.00    1.32237   0.85278    0.017
 4383.00    1.82799   0.89836    0.017
 4384.00    1.65599   0.91417    0.017
 4385.00    1.33926   0.91842    0.017
 4386.00    1.31179   0.92340    0.017
 4387.00    1.33324   0.93358    0.017
 4388.00    1.07898   0.95122    0.017
 4389.00    0.78949   0.96176    0.017
 4390.00    0.96718   0.95155    0.017
 4391.00    1.18656   0.93948    0.017
 4392.00    1.18532   0.95627    0.017
 4393.00    1.17233   0.99281    0.017
 4394.00    1.24106   1.00913    0.017
 4395.00    1.30719   0.98920    0.017
 4396.00    1.03210   0.95503    0.017
 4397.00    0.77542   0.94226    0.017
 4398.00    0.92340   0.95632    0.017
 4399.00    1.03806   0.95512    0.017
 4400.00    0.74102   0.91522    0.017
 4401.00    0.47873   0.87957    0.016
 4402.00    0.50872   0.88631    0.017
 4403.00    0.50133   0.90999    0.017
 4404.00    0.25959   0.92210    0.017
 4405.00    0.18212   0.93889    0.017
 4406.00    0.91263   0.97331    0.017
 4407.00    1.50331   1.00770    0.017
 4408.00    1.53573   1.02594    0.017
 4409.00    1.49480   1.01792    0.017
 4410.00    1.21058   0.97421    0.017
 4411.00    0.99625   0.91843    0.017
 4412.00    0.97775   0.89602    0.017
 4413.00    0.97257   0.91613    0.017
 4414.00    0.99933   0.95698    0.017
 4415.00    1.01043   0.99883    0.017
 4416.00    0.98913   1.02197    0.017
 4417.00    1.05175   1.01319    0.017
 4418.00    1.26545   0.98495    0.017
 4419.00    1.30339   0.96739    0.017
 4420.00    1.06465   0.97185    0.017
 4421.00    1.03745   0.98003    0.017
 4422.00    1.30255   0.97812    0.017
 4423.00    1.43584   0.97490    0.017
 4424.00    1.40881   0.97961    0.017
 4425.00    1.33398   0.98162    0.017
 4426.00    1.20788   0.97246    0.017
 4427.00    1.23137   0.96920    0.017
 4428.00    1.39633   0.97728    0.017
 4429.00    1.29876   0.97105    0.017
 4430.00    0.98225   0.93980    0.017
 4431.00    0.94400   0.91024    0.017
 4432.00    1.11004   0.91484    0.017
 4433.00    1.41052   0.95526    0.017
 4434.00    1.79769   1.00402    0.018
 4435.00    1.28106   1.03343    0.018
 4436.00    0.25463   1.02872    0.017
 4437.00    0.00910   0.99214    0.018
 4438.00    0.14692   0.94529    0.018
 4439.00    0.35323   0.91869    0.018
 4440.00    0.58860   0.93271    0.018
 4441.00    0.66584   0.97615    0.018
 4442.00    0.68562   1.01081    0.018
 4443.00    0.85287   1.01747    0.018
 4444.00    1.06547   1.01388    0.018
 4445.00    1.08716   1.01151    0.018
 4446.00    1.05998   1.00431    0.018
 4447.00    1.32830   0.99824    0.017
 4448.00    1.65820   0.99664    0.017
 4449.00    1.16878   0.98231    0.017
 4450.00    0.54474   0.94600    0.017
 4451.00    0.78840   0.90972    0.017
 4452.00    1.13904   0.90167    0.018
 4453.00    1.14536   0.91536    0.017
 4454.00    1.12239   0.92365    0.017
 4455.00    0.97331   0.91979    0.017
 4456.00    0.81800   0.91211    0.016
 4457.00    0.70146   0.90406    0.016
 4458.00    0.58538   0.90735    0.016
 4459.00    0.45864   0.93412    0.016
 4460.00    0.35338   0.96482    0.016
 4461.00    0.68317   0.97465    0.000
 4462.00    0.97041   0.96912    0.000
 4463.00    0.75763   0.96067    0.000
 4464.00    0.62865   0.94823    0.000
 4465.00    1.17937   0.93227    0.000
 4466.00    1.68379   0.92385    0.000
 4467.00    1.90648   0.93137    0.000
 4468.00    2.01526   0.95632    0.000
 4469.00    1.57756   0.99198    0.000
 4470.00    1.19277   1.01911    0.000
 4471.00    1.01464   1.02715    0.000
 4472.00    0.96631   1.03135    0.000
 4473.00    1.34002   1.04410    0.000
 4474.00    1.55166   1.04814    0.000
 4475.00    1.31738   1.02040    0.000
 4476.00    1.08027   0.96633    0.000
 4477.00    0.83650   0.91949    0.000
 4478.00    0.80839   0.91319    0.000
 4479.00    1.21951   0.95031    0.000
 4480.00    1.48673   1.00136    0.000
 4481.00    1.49885   1.03808    0.000
 4482.00    1.29875   1.05209    0.016
 4483.00    0.76951   1.04123    0.016
 4484.00    0.57467   1.00826    0.016
 4485.00    0.83529   0.97230    0.016
 4486.00    0.93272   0.95891    0.016
 4487.00    0.83449   0.97480    0.016
 4488.00    0.64960   0.99940    0.016
 4489.00    0.37312   1.00392    0.016
 4490.00    0.79668   0.98220    0.016
 4491.00    1.87304   0.95921    0.016
 4492.00    1.88717   0.95829    0.016
 4493.00    1.02804   0.97919    0.015
 4494.00    0.67209   1.00806    0.015
 4495.00    0.68026   1.02713    0.016
 4496.00    0.64151   1.02434    0.016
 4497.00    0.57297   1.01028    0.016
 4498.00    0.66668   1.01534    0.015
 4499.00    0.85052   1.04808    0.015
 4500.00    0.84925   1.07969    0.016
 4501.00    0.75854   1.08679    0.016
 4502.00    0.77353   1.07312    0.016
 4503.00    0.83262   1.05296    0.016
 4504.00    0.93998   1.04041    0.015
 4505.00    1.06458   1.04327    0.015
 4506.00    1.12886   1.05445    0.015
 4507.00    1.17496   1.05693    0.015
 4508.00    1.32698   1.04307    0.015
 4509.00    1.50554   1.02178    0.015
 4510.00    1.62389   1.00506    0.015
 4511.00    1.73001   1.00010    0.015
 4512.00    1.74370   1.00507    0.015
 4513.00    1.74266   1.00788    0.015
 4514.00    1.42536   1.00602    0.015
 4515.00    1.07048   1.01074    0.015
 4516.00    0.74289   1.02346    0.015
 4517.00    0.41751   1.02951    0.015
 4518.00    0.73328   1.01655    0.015
 4519.00    1.07821   0.99572    0.014
 4520.00    1.40596   0.98370    0.015
 4521.00    1.72028   0.97320    0.015
 4522.00    1.36034   0.95243    0.015
 4523.00    1.01622   0.92533    0.015
 4524.00    0.96904   0.90282    0.015
 4525.00    0.96150   0.89574    0.015
 4526.00    1.39806   0.90741    0.015
 4527.00    1.73968   0.92875    0.015
 4528.00    1.33837   0.94405    0.015
 4529.00    0.96121   0.93771    0.014
 4530.00    0.72693   0.91535    0.014
 4531.00    0.57591   0.90825    0.014
 4532.00    0.81464   0.93921    0.014
 4533.00    0.99175   0.99255    0.014
 4534.00    0.93333   1.02721    0.014
 4535.00    0.86541   1.02414    0.014
 4536.00    0.76720   1.00073    0.014
 4537.00    0.64807   0.98487    0.014
 4538.00    0.47240   0.99024    0.014
 4539.00    0.57393   1.00324    0.014
 4540.00    1.31775   1.00182    0.014
 4541.00    1.84891   0.98948    0.014
 4542.00    1.95379   0.98406    0.014
 4543.00    1.80810   0.98269    0.014
 4544.00    1.22496   0.96850    0.014
 4545.00    0.95942   0.94599    0.014
 4546.00    1.17919   0.94247    0.014
 4547.00    1.16917   0.96022    0.014
 4548.00    0.85069   0.96851    0.014
 4549.00    0.74252   0.95512    0.014
 4550.00    0.88298   0.93637    0.000
 4551.00    1.06456   0.93216    0.000
 4552.00    1.28901   0.95318    0.000
 4553.00    1.31841   0.98948    0.000
 4554.00    1.16849   1.01751    0.000
 4555.00    1.14400   1.02877    0.000
 4556.00    1.22117   1.03208    0.000
 4557.00    1.14291   1.03371    0.000
 4558.00    0.95381   1.02682    0.000
 4559.00    0.85361   1.00358    0.000
 4560.00    0.80906   0.97623    0.000
 4561.00    0.85737   0.96734    0.000
 4562.00    0.95648   0.98453    0.000
 4563.00    1.08385   1.01484    0.000
 4564.00    1.22466   1.03706    0.000
 4565.00    1.24355   1.03969    0.000
 4566.00    1.21242   1.02135    0.000
 4567.00    1.13842   0.99185    0.000
 4568.00    1.04940   0.98098    0.000
 4569.00    1.18787   1.00104    0.000
 4570.00    1.39359   1.02249    0.000
 4571.00    1.26842   1.02545    0.000
 4572.00    1.06220   1.02194    0.000
 4573.00    0.98738   1.01915    0.000
 4574.00    0.93861   1.00819    0.000
 4575.00    0.96454   0.98465    0.000
 4576.00    1.00203   0.96069    0.000
 4577.00    1.05282   0.95249    0.000
 4578.00    1.10513   0.95843    0.000
 4579.00    0.90250   0.96330    0.000
 4580.00    0.68028   0.96230    0.000
 4581.00    0.58424   0.96187    0.000
 4582.00    0.49345   0.96717    0.000
 4583.00    0.78806   0.98191    0.000
 4584.00    1.07986   1.00203    0.000
 4585.00    1.10772   1.01436    0.000
 4586.00    1.13371   1.00912    0.000
 4587.00    1.12698   0.99031    0.000
 4588.00    1.10678   0.97325    0.000
 4589.00    0.94235   0.96811    0.000
 4590.00    0.83635   0.96878    0.000
 4591.00    1.17194   0.96768    0.000
 4592.00    1.43598   0.96847    0.000
 4593.00    1.28883   0.97471    0.000
 4594.00    1.14377   0.98309    0.000
 4595.00    1.00831   0.98607    0.000
 4596.00    0.89345   0.97881    0.000
 4597.00    0.85565   0.97109    0.000
 4598.00    0.79783   0.97298    0.000
 4599.00    0.67736   0.97858    0.000
 4600.00    0.61990   0.97980    0.000
 4601.00    0.72968   0.97774    0.000
 4602.00    0.84480   0.98198    0.000
 4603.00    0.97207   1.00019    0.000
 4604.00    1.10350   1.02725    0.000
 4605.00    1.24312   1.04631    0.000
 4606.00    1.20469   1.04529    0.000
 4607.00    0.86008   1.03062    0.000
 4608.00    0.65386   1.01594    0.000
 4609.00    0.65602   1.00900    0.000
 4610.00    0.70857   1.01318    0.000
 4611.00    0.82782   1.02186    0.000
 4612.00    0.85212   1.02480    0.000
 4613.00    0.76576   1.02273    0.000
 4614.00    0.79232   1.01474    0.000
 4615.00    0.93492   1.00366    0.000
 4616.00    1.10677   1.00534    0.000
 4617.00    1.30513   1.01985    0.000
 4618.00    1.38070   1.02990    0.000
 4619.00    1.35816   1.03138    0.000
 4620.00    1.41180   1.02810    0.000
 4621.00    1.51897   1.02024    0.000
 4622.00    1.54293   1.01351    0.000
 4623.00    1.51557   1.01195    0.000
 4624.00    1.43206   1.00710    0.000
 4625.00    1.31831   0.99779    0.000
 4626.00    1.15944   0.99978    0.000
 4627.00    0.97947   1.01378    0.000
 4628.00    0.81143   1.01682    0.000
 4629.00    0.64820   1.00189    0.000
 4630.00    0.67639   0.98775    0.000
 4631.00    0.77043   0.98489    0.000
 4632.00    0.77431   0.98399    0.000
 4633.00    0.75208   0.97539    0.000
 4634.00    0.77321   0.96284    0.000
 4635.00    0.80473   0.95523    0.000
 4636.00    0.82670   0.95802    0.000
 4637.00    0.84681   0.97214    0.000
 4638.00    0.75160   0.98654    0.000
 4639.00    0.63908   0.98883    0.000
 4640.00    0.80431   0.97839    0.000
 4641.00    1.00011   0.95632    0.000
 4642.00    0.98418   0.92668    0.000
 4643.00    0.95285   0.90672    0.000
 4644.00    1.02883   0.90944    0.000
 4645.00    1.10886   0.92943    0.000
 4646.00    1.12039   0.95366    0.000
 4647.00    1.12295   0.97319    0.000
 4648.00    0.80652   0.98531    0.000
 4649.00    0.50846   0.98544    0.000
 4650.00    0.51066   0.97023    0.000
 4651.00    0.51046   0.95272    0.000
 4652.00    0.48572   0.95005    0.000
 4653.00    0.49334   0.96839    0.000
 4654.00    0.73741   1.00217    0.000
 4655.00    0.96072   1.03297    0.000
 4656.00    1.06796   1.04212    0.000
 4657.00    1.18308   1.02686    0.000
 4658.00    1.33336   1.00072    0.000
 4659.00    1.38852   0.98014    0.000
 4660.00    1.09522   0.96993    0.000
 4661.00    0.82979   0.95555    0.000
 4662.00    0.64985   0.92186    0.000
 4663.00    0.58850   0.88412    0.000
 4664.00    0.83639   0.87491    0.000
 4665.00    1.01864   0.90059    0.000
 4666.00    1.05383   0.93877    0.000
 4667.00    1.06036   0.96667    0.000
 4668.00    1.01123   0.97512    0.000
 4669.00    0.90925   0.97064    0.000
 4670.00    0.71776   0.96792    0.000
 4671.00    0.60741   0.97571    0.000
 4672.00    0.61745   0.98833    0.000
 4673.00    0.71958   0.99014    0.000
 4674.00    0.94181   0.97611    0.000
 4675.00    0.94748   0.95770    0.000
 4676.00    0.70431   0.94520    0.000
 4677.00    0.67930   0.94079    0.000
 4678.00    0.87534   0.94688    0.000
 4679.00    0.96888   0.96178    0.000
 4680.00    0.97079   0.97377    0.000
 4681.00    0.88941   0.97609    0.000
 4682.00    0.74244   0.97301    0.000
 4683.00    0.82943   0.96889    0.000
 4684.00    1.07849   0.96710    0.000
 4685.00    1.11717   0.96785    0.000
 4686.00    1.02807   0.96536    0.000
 4687.00    0.93004   0.96032    0.000
 4688.00    0.82727   0.96137    0.000
 4689.00    0.75332   0.96996    0.000
 4690.00    0.69262   0.98195    0.000
 4691.00    0.62671   0.99412    0.000
 4692.00    0.55873   0.99801    0.000
 4693.00    0.68121   0.98347    0.000
 4694.00    0.86800   0.95601    0.000
 4695.00    0.92738   0.93720    0.000
 4696.00    0.95060   0.93521    0.000
 4697.00    0.80702   0.93451    0.000
 4698.00    0.62440   0.92548    0.000
 4699.00    0.60920   0.92052    0.000
 4700.00    0.62550   0.93104    0.000
 4701.00    0.81619   0.94585    0.000
 4702.00    1.03224   0.94708    0.000
 4703.00    1.06709   0.93526    0.000
 4704.00    1.08278   0.92449    0.000
 4705.00    1.15017   0.92581    0.000
 4706.00    1.22112   0.94203    0.000
 4707.00    0.88263   0.96214    0.000
 4708.00    0.53022   0.96629    0.000
 4709.00    0.64668   0.95111    0.000
 4710.00    0.76620   0.93528    0.000
 4711.00    0.96180   0.93868    0.000
 4712.00    1.13782   0.96054    0.000
 4713.00    1.01344   0.98358    0.000
 4714.00    0.91746   0.99865    0.000
 4715.00    1.09991   1.00892    0.000
 4716.00    1.24984   1.01365    0.000
 4717.00    1.16982   1.00881    0.000
 4718.00    1.04776   0.99940    0.000
 4719.00    0.69702   0.99798    0.000
 4720.00    0.41901   1.00725    0.000
 4721.00    0.45802   1.01186    0.000
 4722.00    0.55955   0.99446    0.000
 4723.00    0.88533   0.95846    0.000
 4724.00    1.15828   0.92779    0.000
 4725.00    1.27216   0.91780    0.000
 4726.00    1.21739   0.92187    0.000
 4727.00    0.73045   0.93132    0.000
 4728.00    0.48345   0.94490    0.000
 4729.00    0.76536   0.95885    0.000
 4730.00    0.98916   0.96810    0.000
 4731.00    1.10186   0.96839    0.000
 4732.00    1.08460   0.95930    0.000
 4733.00    0.85054   0.95641    0.000
 4734.00    0.76705   0.96942    0.000
 4735.00    0.90373   0.98088    0.000
 4736.00    0.98229   0.97756    0.000
 4737.00    0.98615   0.97059    0.000
 4738.00    0.90719   0.97256    0.000
 4739.00    0.73439   0.97960    0.000
 4740.00    0.62326   0.98212    0.000
 4741.00    0.57374   0.98246    0.000
 4742.00    0.60735   0.98789    0.000
 4743.00    0.71421   0.99380    0.000
 4744.00    0.79576   0.99440    0.000
 4745.00    0.85767   0.99399    0.000
 4746.00    0.84463   0.99416    0.000
 4747.00    0.78044   0.98886    0.000
 4748.00    0.78379   0.97693    0.000
 4749.00    0.82754   0.96463    0.000
 4750.00    0.85073   0.95666    0.000
 4751.00    0.86319   0.95371    0.000
 4752.00    0.91138   0.95433    0.000
 4753.00    0.97574   0.95797    0.000
 4754.00    1.07250   0.96437    0.000
 4755.00    1.18187   0.97096    0.000
 4756.00    1.07960   0.96992    0.000
 4757.00    0.90720   0.95423    0.000
 4758.00    0.96822   0.93170    0.000
 4759.00    1.09412   0.91627    0.000
 4760.00    0.95536   0.90788    0.000
 4761.00    0.75605   0.90097    0.012
 4762.00    0.65320   0.90062    0.012
 4763.00    0.56802   0.91312    0.012
 4764.00    0.64640   0.93389    0.012
 4765.00    0.74782   0.95197    0.012
 4766.00    0.78039   0.95633    0.012
 4767.00    0.80599   0.94677    0.012
 4768.00    0.96071   0.93993    0.012
 4769.00    1.12379   0.94927    0.012
 4770.00    1.15966   0.96677    0.012
 4771.00    1.19113   0.97624    0.012
 4772.00    0.94869   0.97704    0.012
 4773.00    0.71974   0.97746    0.012
 4774.00    0.88140   0.97536    0.012
 4775.00    1.03620   0.96746    0.012
 4776.00    1.09179   0.95968    0.012
 4777.00    1.11352   0.95354    0.012
 4778.00    0.81666   0.94332    0.011
 4779.00    0.56500   0.93309    0.011
 4780.00    0.62283   0.93194    0.011
 4781.00    0.69135   0.93293    0.012
 4782.00    0.81646   0.92787    0.011
 4783.00    0.90338   0.92523    0.011
 4784.00    0.82766   0.92779    0.011
 4785.00    0.78203   0.92946    0.011
 4786.00    0.84215   0.93312    0.011
 4787.00    0.82869   0.94262    0.011
 4788.00    0.59787   0.95711    0.011
 4789.00    0.48378   0.97643    0.011
 4790.00    0.66362   0.99503    0.011
 4791.00    0.90249   1.00209    0.011
 4792.00    1.26933   0.99405    0.012
 4793.00    1.45871   0.97637    0.012
 4794.00    1.31409   0.95618    0.012
 4795.00    1.20793   0.94224    0.012
 4796.00    1.16501   0.94348    0.012
 4797.00    1.03041   0.95935    0.012
 4798.00    0.76372   0.97631    0.011
 4799.00    0.69374   0.97924    0.012
 4800.00    0.87306   0.96587    0.012
 4801.00    0.96852   0.94877    0.012
 4802.00    0.97031   0.93907    0.012
 4803.00    0.95768   0.93484    0.012
 4804.00    0.93085   0.93431    0.012
 4805.00    0.84083   0.93966    0.012
 4806.00    0.69591   0.94688    0.012
 4807.00    0.69262   0.95007    0.012
 4808.00    0.79771   0.94993    0.012
 4809.00    0.93575   0.95057    0.012
 4810.00    1.09596   0.95375    0.012
 4811.00    1.08962   0.95919    0.012
 4812.00    0.98514   0.96654    0.012
 4813.00    0.93580   0.97419    0.012
 4814.00    0.91480   0.97977    0.012
 4815.00    0.99592   0.98172    0.012
 4816.00    1.12250   0.97852    0.012
 4817.00    0.94170   0.96727    0.012
 4818.00    0.64329   0.94408    0.012
 4819.00    0.65588   0.91713    0.012
 4820.00    0.76958   0.90943    0.012
 4821.00    0.96189   0.92606    0.012
 4822.00    1.17560   0.94415    0.012
 4823.00    1.20766   0.94592    0.012
 4824.00    1.19915   0.93702    0.012
 4825.00    1.00133   0.93120    0.012
 4826.00    0.76978   0.92881    0.012
 4827.00    0.75345   0.92162    0.012
 4828.00    0.76644   0.91563    0.012
 4829.00    0.77935   0.92269    0.012
 4830.00    0.79225   0.93595    0.012
 4831.00    0.82722   0.94159    0.012
 4832.00    0.86353   0.93974    0.012
 4833.00    0.88155   0.93522    0.012
 4834.00    0.89918   0.92524    0.012
 4835.00    0.93531   0.91105    0.012
 4836.00    0.97099   0.90318    0.012
 4837.00    0.99484   0.90421    0.012
 4838.00    1.01211   0.90427    0.012
 4839.00    0.93944   0.90192    0.012
 4840.00    0.86852   0.90756    0.012
 4841.00    0.81347   0.91955    0.012
 4842.00    0.76801   0.92185    0.011
 4843.00    0.78615   0.90700    0.011
 4844.00    0.79321   0.88745    0.011
 4845.00    0.74312   0.88106    0.011
 4846.00    0.72680   0.88663    0.011
 4847.00    0.85107   0.88859    0.011
 4848.00    0.91943   0.88094    0.000
 4849.00    0.79530   0.86274    0.000
 4850.00    0.72216   0.83153    0.000
 4851.00    0.79691   0.80014    0.000
 4852.00    0.81144   0.78723    0.000
 4853.00    0.67692   0.78343    0.000
 4854.00    0.57493   0.75910    0.000
 4855.00    0.54235   0.70100    0.000
 4856.00    0.50993   0.62904    0.000
 4857.00    0.47778   0.58929    0.000
 4858.00    0.47086   0.61203    0.000
 4859.00    0.50478   0.67245    0.000
 4860.00    0.53588   0.72814    0.000
 4861.00    0.56299   0.76877    0.000
 4862.00    0.63650   0.79950    0.000
 4863.00    0.76799   0.82042    0.000
 4864.00    0.82717   0.83258    0.000
 4865.00    0.80673   0.83307    0.000
 4866.00    0.81885   0.81494    0.000
 4867.00    0.86259   0.79248    0.000
 4868.00    0.89310   0.79525    0.000
 4869.00    0.91229   0.82358    0.000
 4870.00    0.84380   0.85009    0.000
 4871.00    0.70917   0.86311    0.000
 4872.00    0.68066   0.87191    0.000
 4873.00    0.72249   0.88313    0.000
 4874.00    0.81341   0.89867    0.000
 4875.00    0.93282   0.91455    0.012
 4876.00    0.93701   0.91612    0.012
 4877.00    0.88291   0.90309    0.011
 4878.00    0.93366   0.89449    0.011
 4879.00    1.03031   0.89362    0.011
 4880.00    0.92671   0.88669    0.011
 4881.00    0.74786   0.87284    0.011
 4882.00    0.76412   0.86570    0.011
 4883.00    0.84262   0.87058    0.011
 4884.00    0.76801   0.87579    0.011
 4885.00    0.65260   0.86625    0.011
 4886.00    0.74317   0.84367    0.011
 4887.00    0.87867   0.83569    0.011
 4888.00    0.83817   0.86491    0.011
 4889.00    0.76716   0.91444    0.011
 4890.00    0.65983   0.95481    0.011
 4891.00    0.54772   0.97650    0.011
 4892.00    0.56990   0.98304    0.011
 4893.00    0.60456   0.97935    0.011
 4894.00    0.65219   0.96580    0.011
 4895.00    0.70057   0.94492    0.011
 4896.00    0.78370   0.93081    0.011
 4897.00    0.86784   0.92963    0.011
 4898.00    0.97646   0.92795    0.011
 4899.00    1.07725   0.92240    0.011
 4900.00    0.99207   0.92833    0.011
 4901.00    0.90571   0.94841    0.011
 4902.00    0.80430   0.96342    0.011
 4903.00    0.71185   0.95821    0.011
 4904.00    0.69740   0.93642    0.011
 4905.00    0.71251   0.91068    0.011
 4906.00    0.91790   0.89539    0.011
 4907.00    1.09162   0.89960    0.011
 4908.00    1.10618   0.91688    0.011
 4909.00    1.08810   0.93469    0.011
 4910.00    0.93724   0.94956    0.011
 4911.00    0.77780   0.95942    0.011
 4912.00    0.58948   0.95295    0.011
 4913.00    0.49273   0.92021    0.011
 4914.00    0.65672   0.86781    0.011
 4915.00    0.81753   0.81865    0.011
 4916.00    0.97062   0.79691    0.011
 4917.00    1.01302   0.81078    0.011
 4918.00    0.82309   0.84256    0.011
 4919.00    0.71832   0.86486    0.011
 4920.00    0.76894   0.87535    0.011
 4921.00    0.76215   0.89318    0.011
 4922.00    0.66382   0.92185    0.011
 4923.00    0.64711   0.94706    0.011
 4924.00    0.74463   0.96388    0.011
 4925.00    0.78593   0.97435    0.011
 4926.00    0.75796   0.97601    0.011
 4927.00    0.75940   0.96529    0.011
 4928.00    0.79276   0.93908    0.011
 4929.00    0.78839   0.90812    0.011
 4930.00    0.74789   0.89796    0.011
 4931.00    0.74139   0.90967    0.011
 4932.00    0.76361   0.91257    0.010
 4933.00    0.80894   0.89098    0.011
 4934.00    0.87146   0.86567    0.011
 4935.00    0.88912   0.86612    0.011
 4936.00    0.87747   0.89530    0.011
 4937.00    0.81722   0.92854    0.011
 4938.00    0.72918   0.94872    0.011
 4939.00    0.74032   0.95910    0.011
 4940.00    0.80084   0.96077    0.000
 4941.00    0.78149   0.95366    0.000
 4942.00    0.72775   0.94972    0.000
 4943.00    0.74119   0.95677    0.000
 4944.00    0.77942   0.96685    0.000
 4945.00    0.81152   0.97290    0.000
 4946.00    0.84171   0.97614    0.000
 4947.00    0.91835   0.97521    0.000
 4948.00    1.00711   0.96652    0.000
 4949.00    0.96355   0.95352    0.000
 4950.00    0.89181   0.93910    0.000
 4951.00    0.94103   0.91300    0.000
 4952.00    1.01065   0.86631    0.000
 4953.00    0.96348   0.82469    0.000
 4954.00    0.90146   0.83069    0.000
 4955.00    1.01647   0.87859    0.000
 4956.00    1.14718   0.92123    0.000
 4957.00    0.93556   0.93636    0.000
 4958.00    0.70587   0.93646    0.000
 4959.00    0.80252   0.93147    0.000
 4960.00    0.90513   0.91737    0.000
 4961.00    0.98464   0.89742    0.000
 4962.00    1.05724   0.88500    0.000
 4963.00    0.97945   0.88392    0.000
 4964.00    0.90147   0.88858    0.000
 4965.00    0.82126   0.89562    0.000
 4966.00    0.75196   0.90476    0.000
 4967.00    0.77406   0.91642    0.000
 4968.00    0.79385   0.92844    0.000
 4969.00    0.79922   0.93756    0.000
 4970.00    0.79888   0.94214    0.000
 4971.00    0.77052   0.94035    0.000
 4972.00    0.77685   0.93160    0.000
 4973.00    0.92123   0.91668    0.000
 4974.00    1.03730   0.89976    0.000
 4975.00    1.05967   0.88654    0.000
 4976.00    1.04951   0.87160    0.000
 4977.00    0.94840   0.84451    0.000
 4978.00    0.84054   0.81392    0.000
 4979.00    0.71653   0.80244    0.000
 4980.00    0.67264   0.81617    0.000
 4981.00    0.79424   0.84320    0.000
 4982.00    0.90546   0.87324    0.000
 4983.00    0.99805   0.89727    0.000
 4984.00    0.97288   0.90561    0.000
 4985.00    0.76266   0.89902    0.000
 4986.00    0.66652   0.88873    0.000
 4987.00    0.72772   0.88626    0.000
 4988.00    0.77255   0.89104    0.000
 4989.00    0.79749   0.89350    0.000
 4990.00    0.87081   0.89542    0.000
 4991.00    0.99589   0.90252    0.000
 4992.00    0.93904   0.90820    0.000
 4993.00    0.71041   0.90451    0.000
 4994.00    0.62620   0.88899    0.000
 4995.00    0.66219   0.86525    0.000
 4996.00    0.70080   0.84549    0.000
 4997.00    0.74131   0.83913    0.000
 4998.00    0.70330   0.84389    0.000
 4999.00    0.61474   0.84823    0.000
 5000.00    0.66889   0.83898    0.000
 5001.00    0.80338   0.81860    0.000
 5002.00    0.86590   0.81007    0.000
 5003.00    0.89316   0.82921    0.000
 5004.00    0.83427   0.86048    0.000
 5005.00    0.73890   0.87759    0.000
 5006.00    0.77319   0.87251    0.000
 5007.00    0.85449   0.85110    0.000
 5008.00    0.83469   0.82329    0.000
 5009.00    0.78388   0.80159    0.000
 5010.00    0.76475   0.79554    0.000
 5011.00    0.75371   0.80519    0.000
 5012.00    0.68314   0.81691    0.000
 5013.00    0.60019   0.81910    0.000
 5014.00    0.56845   0.82031    0.000
 5015.00    0.54509   0.83083    0.000
 5016.00    0.54654   0.84173    0.000
 5017.00    0.55105   0.84210    0.000
 5018.00    0.65504   0.84073    0.000
 5019.00    0.76744   0.85084    0.000
 5020.00    0.73417   0.86630    0.000
 5021.00    0.69379   0.87214    0.000
 5022.00    0.76650   0.86421    0.000
 5023.00    0.83789   0.85371    0.000
 5024.00    0.72267   0.85694    0.000
 5025.00    0.61473   0.87270    0.000
 5026.00    0.65278   0.88786    0.000
 5027.00    0.68364   0.90070    0.000
 5028.00    0.63054   0.91340    0.000
 5029.00    0.59157   0.91634    0.010
 5030.00    0.66673   0.89796    0.010
 5031.00    0.72348   0.86744    0.010
 5032.00    0.66865   0.84991    0.010
 5033.00    0.62975   0.84883    0.010
 5034.00    0.66712   0.83979    0.010
 5035.00    0.71809   0.80941    0.010
 5036.00    0.82202   0.77468    0.010
 5037.00    0.86920   0.76801    0.010
 5038.00    0.73234   0.80195    0.010
 5039.00    0.63371   0.85183    0.010
 5040.00    0.63999   0.89085    0.010
 5041.00    0.66786   0.91329    0.010
 5042.00    0.74648   0.91565    0.010
 5043.00    0.78987   0.89459    0.010
 5044.00    0.76164   0.86274    0.010
 5045.00    0.75855   0.84046    0.010
 5046.00    0.79992   0.83416    0.010
 5047.00    0.87934   0.83830    0.010
 5048.00    1.01769   0.85087    0.010
 5049.00    1.06009   0.87015    0.010
 5050.00    0.97204   0.88710    0.010
 5051.00    0.88907   0.89472    0.010
 5052.00    0.81219   0.89709    0.010
 5053.00    0.80045   0.90157    0.010
 5054.00    0.85745   0.90765    0.010
 5055.00    0.91872   0.91265    0.010
 5056.00    0.98397   0.91864    0.010
 5057.00    0.94573   0.92300    0.010
 5058.00    0.82256   0.91513    0.010
 5059.00    0.75782   0.88872    0.010
 5060.00    0.73530   0.85625    0.010
 5061.00    0.70578   0.84116    0.010
 5062.00    0.67184   0.84578    0.010
 5063.00    0.70950   0.85159    0.010
 5064.00    0.78686   0.85401    0.010
 5065.00    0.88658   0.86128    0.010
 5066.00    0.99707   0.86743    0.010
 5067.00    1.06895   0.86186    0.010
 5068.00    1.12474   0.85429    0.010
 5069.00    0.99769   0.85731    0.010
 5070.00    0.80552   0.86308    0.010
 5071.00    0.71816   0.86325    0.010
 5072.00    0.66232   0.86252    0.010
 5073.00    0.56978   0.85713    0.010
 5074.00    0.46807   0.83354    0.010
 5075.00    0.45754   0.80077    0.010
 5076.00    0.46548   0.78730    0.010
 5077.00    0.64127   0.79833    0.010
 5078.00    0.84374   0.81398    0.010
 5079.00    0.90380   0.82547    0.010
 5080.00    0.94701   0.83941    0.010
 5081.00    0.87382   0.85464    0.010
 5082.00    0.79127   0.86273    0.010
 5083.00    0.80586   0.86456    0.010
 5084.00    0.82481   0.86745    0.010
 5085.00    0.75564   0.87191    0.010
 5086.00    0.69132   0.87531    0.010
 5087.00    0.92020   0.88113    0.010
 5088.00    1.13534   0.89134    0.010
 5089.00    1.09501   0.89782    0.010
 5090.00    1.05266   0.89183    0.010
 5091.00    0.98798   0.87485    0.010
 5092.00    0.92072   0.85345    0.010
 5093.00    0.83339   0.83066    0.010
 5094.00    0.76531   0.81131    0.010
 5095.00    0.81067   0.80826    0.010
 5096.00    0.84094   0.82647    0.010
 5097.00    0.80070   0.85020    0.010
 5098.00    0.76601   0.86165    0.010
 5099.00    0.75248   0.85955    0.010
 5100.00    0.77249   0.85254    0.010
 5101.00    0.89920   0.84473    0.010
 5102.00    0.96460   0.83431    0.010
 5103.00    0.86466   0.82411    0.010
 5104.00    0.73368   0.81993    0.010
 5105.00    0.53092   0.82072    0.010
 5106.00    0.46056   0.82643    0.010
 5107.00    0.65509   0.83896    0.010
 5108.00    0.79272   0.85214    0.010
 5109.00    0.83124   0.86098    0.010
 5110.00    0.79329   0.86791    0.010
 5111.00    0.63871   0.87533    0.010
 5112.00    0.58457   0.88431    0.010
 5113.00    0.66503   0.89206    0.010
 5114.00    0.71713   0.89157    0.010
 5115.00    0.73574   0.88085    0.010
 5116.00    0.79672   0.86442    0.010
 5117.00    0.90179   0.84566    0.010
 5118.00    0.96878   0.82408    0.010
 5119.00    1.00083   0.80388    0.010
 5120.00    0.96434   0.79555    0.010
 5121.00    0.87240   0.79986    0.010
 5122.00    0.81086   0.80572    0.010
 5123.00    0.77095   0.80634    0.010
 5124.00    0.77222   0.80472    0.010
 5125.00    0.79922   0.80734    0.010
 5126.00    0.73986   0.81788    0.010
 5127.00    0.63336   0.83140    0.010
 5128.00    0.52538   0.83967    0.010
 5129.00    0.41670   0.84466    0.011
 5130.00    0.40455   0.85288    0.011
 5131.00    0.43190   0.85766    0.011
 5132.00    0.61456   0.84802    0.011
 5133.00    0.85152   0.82789    0.010
 5134.00    0.75822   0.81036    0.010
 5135.00    0.56755   0.80728    0.010
 5136.00    0.61695   0.81628    0.010
 5137.00    0.72498   0.81806    0.010
 5138.00    0.77145   0.81030    0.010
 5139.00    0.80576   0.81074    0.010
 5140.00    0.81349   0.81768    0.010
 5141.00    0.81714   0.81579    0.010
 5142.00    0.79722   0.80740    0.010
 5143.00    0.77461   0.80526    0.010
 5144.00    0.75832   0.81216    0.010
 5145.00    0.74250   0.81815    0.010
 5146.00    0.74087   0.81443    0.010
 5147.00    0.73983   0.80499    0.010
 5148.00    0.83818   0.79777    0.010
 5149.00    0.93279   0.79642    0.010
 5150.00    0.83515   0.80444    0.010
 5151.00    0.74201   0.82314    0.010
 5152.00    0.72706   0.84630    0.010
 5153.00    0.72282   0.86403    0.010
 5154.00    0.83245   0.87100    0.010
 5155.00    0.90613   0.87095    0.010
 5156.00    0.70926   0.86773    0.010
 5157.00    0.57414   0.85842    0.010
 5158.00    0.79265   0.84477    0.010
 5159.00    0.94321   0.82976    0.010
 5160.00    0.78424   0.80254    0.010
 5161.00    0.65417   0.75259    0.010
 5162.00    0.63187   0.69251    0.010
 5163.00    0.61979   0.65378    0.010
 5164.00    0.63959   0.65797    0.010
 5165.00    0.65448   0.68870    0.010
 5166.00    0.65638   0.70136    0.010
 5167.00    0.62340   0.67663    0.010
 5168.00    0.51110   0.65218    0.010
 5169.00    0.43469   0.67342    0.010
 5170.00    0.42896   0.73093    0.010
 5171.00    0.45949   0.78138    0.010
 5172.00    0.55226   0.80629    0.010
 5173.00    0.62944   0.81572    0.010
 5174.00    0.68320   0.81717    0.010
 5175.00    0.71240   0.80890    0.010
 5176.00    0.70918   0.78674    0.010
 5177.00    0.75620   0.74472    0.010
 5178.00    0.86166   0.68840    0.010
 5179.00    0.84965   0.65269    0.010
 5180.00    0.71714   0.67256    0.009
 5181.00    0.58996   0.73377    0.009
 5182.00    0.46759   0.78930    0.009
 5183.00    0.48341   0.81532    0.009
 5184.00    0.60943   0.82361    0.009
 5185.00    0.69017   0.82671    0.009
 5186.00    0.73914   0.81449    0.009
 5187.00    0.76102   0.78477    0.009
 5188.00    0.76622   0.76494    0.009
 5189.00    0.77480   0.77069    0.009
 5190.00    0.78521   0.78492    0.000
 5191.00    0.76239   0.79509    0.000
 5192.00    0.72408   0.80678    0.000
 5193.00    0.64366   0.82187    0.000
 5194.00    0.54632   0.83593    0.000
 5195.00    0.58927   0.84491    0.000
 5196.00    0.68037   0.84552    0.000
 5197.00    0.75706   0.83812    0.000
 5198.00    0.82959   0.82413    0.000
 5199.00    0.87390   0.79959    0.000
 5200.00    0.91146   0.76519    0.000
 5201.00    0.85467   0.73721    0.000
 5202.00    0.77971   0.72688    0.000
 5203.00    0.65343   0.72515    0.000
 5204.00    0.51948   0.72783    0.000
 5205.00    0.57279   0.74495    0.000
 5206.00    0.64660   0.77778    0.000
 5207.00    0.74206   0.81541    0.000
 5208.00    0.83907   0.84494    0.000
 5209.00    0.68967   0.85532    0.000
 5210.00    0.53106   0.84424    0.000
 5211.00    0.71339   0.82514    0.010
 5212.00    0.89139   0.81809    0.010
 5213.00    0.85377   0.83019    0.010
 5214.00    0.82563   0.85141    0.010
 5215.00    0.95118   0.86881    0.010
 5216.00    1.04120   0.87780    0.010
 5217.00    0.76951   0.87759    0.010
 5218.00    0.54334   0.86497    0.010
 5219.00    0.64837   0.83826    0.010
 5220.00    0.74823   0.80056    0.010
 5221.00    0.81930   0.76021    0.010
 5222.00    0.86568   0.73635    0.010
 5223.00    0.80221   0.75011    0.010
 5224.00    0.73887   0.79410    0.010
 5225.00    0.67601   0.83562    0.010
 5226.00    0.64203   0.85442    0.010
 5227.00    0.69643   0.84896    0.010
 5228.00    0.72684   0.82771    0.010
 5229.00    0.69486   0.81080    0.010
 5230.00    0.66696   0.81411    0.010
 5231.00    0.64821   0.83522    0.010
 5232.00    0.71310   0.86035    0.010
 5233.00    0.94010   0.87651    0.010
 5234.00    1.03152   0.88058    0.010
 5235.00    0.89376   0.87862    0.010
 5236.00    0.83271   0.87677    0.010
 5237.00    0.88526   0.87553    0.010
 5238.00    0.90448   0.87533    0.010
 5239.00    0.88027   0.87978    0.010
 5240.00    0.90757   0.88318    0.010
 5241.00    0.99395   0.87052    0.009
 5242.00    0.94527   0.84367    0.009
 5243.00    0.75998   0.82502    0.009
 5244.00    0.70488   0.82184    0.009
 5245.00    0.76592   0.81965    0.009
 5246.00    0.86651   0.81623    0.009
 5247.00    0.99820   0.82236    0.009
 5248.00    0.99533   0.83422    0.009
 5249.00    0.89941   0.83765    0.009
 5250.00    0.80735   0.83328    0.009
 5251.00    0.71765   0.83861    0.010
 5252.00    0.76448   0.86116    0.010
 5253.00    0.88357   0.88586    0.009
 5254.00    0.91441   0.89563    0.009
 5255.00    0.90474   0.88596    0.010
 5256.00    0.87801   0.86011    0.010
 5257.00    0.84454   0.82405    0.010
 5258.00    0.80072   0.78581    0.010
 5259.00    0.75340   0.75287    0.010
 5260.00    0.70144   0.73005    0.010
 5261.00    0.64817   0.72365    0.010
 5262.00    0.64362   0.73614    0.010
 5263.00    0.65044   0.74639    0.010
 5264.00    0.56587   0.72823    0.010
 5265.00    0.46417   0.70184    0.010
 5266.00    0.59218   0.71235    0.010
 5267.00    0.75347   0.75767    0.010
 5268.00    0.77699   0.79676    0.010
 5269.00    0.78603   0.80990    0.010
 5270.00    0.78555   0.80778    0.010
 5271.00    0.78442   0.81115    0.010
 5272.00    0.76591   0.83382    0.010
 5273.00    0.74681   0.86495    0.010
 5274.00    0.78184   0.88065    0.010
 5275.00    0.81684   0.87302    0.010
 5276.00    0.84929   0.85235    0.010
 5277.00    0.87697   0.83065    0.010
 5278.00    0.83218   0.81458    0.010
 5279.00    0.78865   0.81250    0.010
 5280.00    0.75749   0.83351    0.010
 5281.00    0.73194   0.86948    0.010
 5282.00    0.74582   0.89648    0.010
 5283.00    0.77995   0.90312    0.010
 5284.00    0.92386   0.90041    0.010
 5285.00    1.01519   0.90140    0.010
 5286.00    0.87807   0.90494    0.010
 5287.00    0.75425   0.90322    0.010
 5288.00    0.67804   0.89579    0.010
 5289.00    0.66836   0.88810    0.010
 5290.00    0.85849   0.87816    0.010
 5291.00    0.96493   0.85588    0.010
 5292.00    0.85741   0.82171    0.010
 5293.00    0.77041   0.79627    0.010
 5294.00    0.72857   0.79851    0.010
 5295.00    0.70184   0.81911    0.010
 5296.00    0.70394   0.83427    0.010
 5297.00    0.68974   0.84085    0.010
 5298.00    0.64840   0.85344    0.010
 5299.00    0.66812   0.87582    0.010
 5300.00    0.77698   0.89526    0.010
 5301.00    0.75583   0.90007    0.010
 5302.00    0.56783   0.89307    0.010
 5303.00    0.57577   0.88788    0.010
 5304.00    0.80528   0.89255    0.010
 5305.00    0.90261   0.90100    0.010
 5306.00    0.86813   0.90385    0.010
 5307.00    0.81545   0.89955    0.010
 5308.00    0.74677   0.89212    0.009
 5309.00    0.72232   0.88517    0.009
 5310.00    0.73213   0.87773    0.009
 5311.00    0.77978   0.86724    0.009
 5312.00    0.85322   0.85901    0.009
 5313.00    0.82721   0.86046    0.009
 5314.00    0.74181   0.86762    0.009
 5315.00    0.77860   0.87201    0.009
 5316.00    0.87904   0.87168    0.009
 5317.00    0.90153   0.86606    0.009
 5318.00    0.88880   0.85200    0.009
 5319.00    0.91375   0.83335    0.009
 5320.00    0.95334   0.82174    0.009
 5321.00    0.97001   0.81317    0.009
 5322.00    0.97911   0.78540    0.009
 5323.00    0.89162   0.74160    0.009
 5324.00    0.77735   0.72392    0.009
 5325.00    0.80644   0.75520    0.009
 5326.00    0.86821   0.80546    0.009
 5327.00    0.81260   0.83770    0.009
 5328.00    0.73557   0.84986    0.009
 5329.00    0.80448   0.85927    0.009
 5330.00    0.89385   0.87063    0.009
 5331.00    0.84990   0.87539    0.009
 5332.00    0.79249   0.87113    0.009
 5333.00    0.83094   0.86186    0.009
 5334.00    0.87552   0.84524    0.009
 5335.00    0.84844   0.82137    0.009
 5336.00    0.81935   0.80759    0.009
 5337.00    0.84376   0.81868    0.010
 5338.00    0.87236   0.84267    0.010
 5339.00    1.02041   0.85771    0.010
 5340.00    1.14450   0.85699    0.010
 5341.00    0.92488   0.84945    0.009
 5342.00    0.73600   0.84437    0.009
 5343.00    0.83482   0.83931    0.009
 5344.00    0.91731   0.83267    0.010
 5345.00    0.88846   0.83526    0.009
 5346.00    0.88061   0.85238    0.009
 5347.00    0.98358   0.87234    0.009
 5348.00    1.05078   0.88445    0.009
 5349.00    0.96611   0.89287    0.009
 5350.00    0.87352   0.90344    0.009
 5351.00    0.75324   0.91252    0.009
 5352.00    0.69973   0.91645    0.009
 5353.00    0.84306   0.91676    0.010
 5354.00    0.92017   0.91462    0.010
 5355.00    0.83086   0.90801    0.009
 5356.00    0.82231   0.89482    0.009
 5357.00    0.98849   0.87825    0.009
 5358.00    1.07716   0.86519    0.009
 5359.00    1.02024   0.85689    0.009
 5360.00    0.95724   0.85050    0.009
 5361.00    0.88427   0.84710    0.009
 5362.00    0.85815   0.84675    0.009
 5363.00    0.89942   0.84341    0.009
 5364.00    0.88399   0.82854    0.009
 5365.00    0.79684   0.80049    0.009
 5366.00    0.79377   0.77573    0.009
 5367.00    0.88445   0.77884    0.009
 5368.00    0.99561   0.81287   -2.000
 5369.00    1.12692   0.85410   -2.000
 5370.00    1.07743   0.88019   -2.000
 5371.00    0.87114   0.88730   -2.000
 5372.00    0.76262   0.88459   -2.000
 5373.00    0.72877   0.88307   -2.000
 5374.00    0.73853   0.88384   -2.000
 5375.00    0.77757   0.88055   -2.000
 5376.00    0.82729   0.87218   -2.000
 5377.00    0.88330   0.86289   -2.000
 5378.00    0.92978   0.85637   -2.000
 5379.00    0.97138   0.85727   -2.000
 5380.00    1.00733   0.86621   -2.000
 5381.00    1.04078   0.87494   -2.000
 5382.00    1.07155   0.87655   -2.000
 5383.00    1.10129   0.87064    0.009
 5384.00    0.98769   0.85871    0.009
 5385.00    0.82759   0.84465    0.009
 5386.00    0.78271   0.83452    0.009
 5387.00    0.76911   0.83011    0.009
 5388.00    0.75085   0.82867    0.009
 5389.00    0.73155   0.82758    0.009
 5390.00    0.78374   0.82253    0.009
 5391.00    0.84862   0.80735    0.009
 5392.00    0.74028   0.78948    0.009
 5393.00    0.60845   0.79032    0.009
 5394.00    0.68784   0.81173    0.009
 5395.00    0.78765   0.83201    0.009
 5396.00    0.88993   0.84090    0.009
 5397.00    0.99236   0.84222    0.009
 5398.00    0.85511   0.83140    0.009
 5399.00    0.71390   0.80322    0.009
 5400.00    0.95166   0.77107    0.009
 5401.00    1.17603   0.75810    0.009
 5402.00    1.05488   0.77132    0.009
 5403.00    0.93872   0.79153    0.009
 5404.00    0.89019   0.79700    0.009
 5405.00    0.83887   0.79294    0.009
 5406.00    0.76247   0.80108    0.009
 5407.00    0.69650   0.82456    0.009
 5408.00    0.69939   0.84551    0.009
 5409.00    0.71691   0.85262    0.009
 5410.00    0.80967   0.85366    0.009
 5411.00    0.88152   0.86088    0.009
 5412.00    0.86658   0.87280    0.009
 5413.00    0.85549   0.87812    0.009
 5414.00    0.85762   0.87249    0.009
 5415.00    0.85561   0.86248    0.009
 5416.00    0.84161   0.85734    0.009
 5417.00    0.84787   0.85755    0.009
 5418.00    0.90413   0.85279    0.009
 5419.00    0.93216   0.84147    0.009
 5420.00    0.90010   0.83953    0.009
 5421.00    0.85430   0.85450    0.009
 5422.00    0.78308   0.86921    0.009
 5423.00    0.76237   0.86024    0.009
 5424.00    0.82326   0.82810    0.009
 5425.00    0.84824   0.80344    0.009
 5426.00    0.82232   0.80616    0.009
 5427.00    0.86529   0.81672    0.009
 5428.00    0.99418   0.81269    0.009
 5429.00    1.01264   0.79937    0.009
 5430.00    0.90972   0.79324    0.009
 5431.00    0.84481   0.80237    0.009
 5432.00    0.81675   0.82403    0.009
 5433.00    0.91952   0.85049    0.009
 5434.00    1.13416   0.87358    0.009
 5435.00    1.15559   0.88814    0.009
 5436.00    1.03155   0.89438    0.009
 5437.00    0.86315   0.89546    0.009
 5438.00    0.66539   0.89154    0.009
 5439.00    0.63048   0.87675    0.009
 5440.00    0.68992   0.84621    0.009
 5441.00    0.75162   0.80775    0.009
 5442.00    0.81447   0.78404    0.009
 5443.00    0.95376   0.79200    0.009
 5444.00    1.12646   0.82009    0.009
 5445.00    1.16271   0.84348    0.009
 5446.00    1.14781   0.85176    0.009
 5447.00    1.04873   0.84838    0.009
 5448.00    0.92286   0.83589    0.009
 5449.00    0.81234   0.81307    0.009
 5450.00    0.70589   0.78702    0.009
 5451.00    0.80143   0.77837    0.009
 5452.00    0.94092   0.79818    0.009
 5453.00    0.93811   0.82977    0.009
 5454.00    0.91073   0.84909    0.009
 5455.00    0.94543   0.84913    0.009
 5456.00    0.98827   0.83701    0.009
 5457.00    0.87341   0.82091    0.009
 5458.00    0.74397   0.80891    0.009
 5459.00    0.79832   0.81009    0.009
 5460.00    0.86299   0.82227    0.009
 5461.00    0.91794   0.83296    0.009
 5462.00    0.97205   0.83848    0.009
 5463.00    0.96092   0.84232    0.009
 5464.00    0.95166   0.84217    0.009
 5465.00    0.98638   0.83627    0.009
 5466.00    1.01287   0.83013    0.009
 5467.00    0.93360   0.82584    0.009
 5468.00    0.85588   0.81923    0.009
 5469.00    0.79154   0.81015    0.009
 5470.00    0.74487   0.79817    0.009
 5471.00    0.81153   0.78041    0.009
 5472.00    0.86015   0.76896    0.009
 5473.00    0.81834   0.78082    0.009
 5474.00    0.75900   0.80524    0.009
 5475.00    0.62853   0.81532    0.009
 5476.00    0.55655   0.80697    0.009
 5477.00    0.68149   0.80041    0.009
 5478.00    0.80106   0.80949   -2.000
 5479.00    0.90538   0.82864   -2.000
 5480.00    0.90644   0.84411   -2.000
 5481.00    0.65678   0.84488   -2.000
 5482.00    0.69059   0.83221   -2.000
 5483.00    1.31821   0.82087   -2.000
 5484.00    1.62150   0.82096   -2.000
 5485.00    1.33416   0.82766   -2.000
 5486.00    0.75585   0.83435   -2.000
 5487.00   -0.28560   0.83830   -2.000
 5488.00   -0.33961   0.83722   -2.000
 5489.00    0.98580   0.83435   -2.000
 5490.00    1.78926   0.83377   -2.000
 5491.00    1.95106   0.83065   -2.000
 5492.00    2.18046   0.82315   -2.000
 5493.00    2.48313   0.82203   -2.000
 5494.00    2.20978   0.83092   -2.000
 5495.00    1.38581   0.83521   -2.000
 5496.00    0.96896   0.82586   -2.000
 5497.00    0.89525   0.81399   -2.000
 5498.00    0.81602   0.81139   -2.000
 5499.00    0.73267   0.81422   -2.000
 5500.00    0.71568   0.81171   -2.000
 5501.00    0.74195   0.80297   -2.000
 5502.00    0.76223   0.80024    0.009
 5503.00    0.77909   0.81005    0.009
 5504.00    0.75985   0.82134    0.009
 5505.00    0.72267   0.82212    0.009
 5506.00    0.75423   0.81180    0.009
 5507.00    0.81532   0.79676    0.009
 5508.00    0.87288   0.78640    0.009
 5509.00    0.92913   0.78664    0.009
 5510.00    0.84837   0.79527    0.009
 5511.00    0.72485   0.80766    0.009
 5512.00    0.64835   0.82218    0.008
 5513.00    0.58407   0.83776    0.008
 5514.00    0.65476   0.84944    0.008
 5515.00    0.75411   0.85263    0.008
 5516.00    0.79713   0.85008    0.009
 5517.00    0.83069   0.84756    0.009
 5518.00    0.87944   0.84648    0.009
 5519.00    0.93011   0.84401    0.009
 5520.00    0.94044   0.83661    0.009
 5521.00    0.94721   0.82252    0.009
 5522.00    0.95115   0.80370    0.009
 5523.00    0.95495   0.78950    0.009
 5524.00    0.83220   0.79237    0.009
 5525.00    0.70860   0.81097    0.009
 5526.00    0.69912   0.82873    0.008
 5527.00    0.69433   0.83438    0.008
 5528.00    0.79049   0.83037    0.009
 5529.00    0.87787   0.82283    0.009
 5530.00    0.85819   0.81717    0.009
 5531.00    0.84368   0.81806    0.009
 5532.00    0.87231   0.82382    0.009
 5533.00    0.89405   0.82960    0.009
 5534.00    0.87292   0.83613    0.009
 5535.00    0.86558   0.84466    0.009
 5536.00    0.92560   0.84995    0.009
 5537.00    0.95411   0.84655    0.009
 5538.00    0.85748   0.83729    0.009
 5539.00    0.80524   0.83035    0.009
 5540.00    0.89945   0.82871    0.009
 5541.00    0.96660   0.83023    0.009
 5542.00    0.95824   0.83583    0.009
 5543.00    0.94091   0.84599    0.009
 5544.00    0.90217   0.85525    0.009
 5545.00    0.87785   0.85900    0.009
 5546.00    0.88325   0.85764    0.009
 5547.00    0.86384   0.85202    0.009
 5548.00    0.79994   0.84289    0.009
 5549.00    0.77885   0.83427    0.009
 5550.00    0.82492   0.83096    0.009
 5551.00    0.82864   0.83229    0.009
 5552.00    0.77406   0.83360    0.009
 5553.00    0.76782   0.83386    0.009
 5554.00    0.82017   0.83491    0.009
 5555.00    0.87554   0.83522    0.008
 5556.00    0.93413   0.83171    0.008
 5557.00    0.98068   0.82483    0.008
 5558.00    1.01587   0.81858    0.009
 5559.00    0.99276   0.81550    0.009
 5560.00    0.92120   0.81291    0.008
 5561.00    0.79621   0.80919    0.008
 5562.00    0.63213   0.80725    0.008
 5563.00    0.65665   0.80726    0.008
 5564.00    0.80231   0.80721    0.008
 5565.00    0.88766   0.80932    0.008
 5566.00    0.93914   0.81277    0.008
 5567.00    0.96715   0.81088    0.008
 5568.00    0.98368   0.80687    0.008
 5569.00    0.99655   0.81076    0.008
 5570.00    1.00786   0.81917    0.008
 5571.00    0.94110   0.82373    0.008
 5572.00    0.84610   0.82597    0.008
 5573.00    0.72658   0.82847    0.008
 5574.00    0.59956   0.83035    0.009
 5575.00    0.69268   0.83128    0.009
 5576.00    0.84185   0.82955    0.009
 5577.00    0.89719   0.82537    0.009
 5578.00    0.93309   0.82216    0.009
 5579.00    0.90394   0.81797    0.009
 5580.00    0.86418   0.80611    0.009
 5581.00    0.86464   0.78507    0.009
 5582.00    0.87002   0.76219    0.009
 5583.00    0.88115   0.74815    0.009
 5584.00    0.89276   0.74876    0.009
 5585.00    0.73998   0.76165    0.009
 5586.00    0.57924   0.77795    0.009
 5587.00    0.58351   0.78820    0.009
 5588.00    0.59113   0.79016    0.009
 5589.00    0.65111   0.79090    0.009
 5590.00    0.70483   0.79940    0.009
 5591.00    0.63417   0.81224    0.009
 5592.00    0.57149   0.81403    0.009
 5593.00    0.60132   0.80095    0.009
 5594.00    0.63951   0.78654    0.009
 5595.00    0.74489   0.77869    0.009
 5596.00    0.83364   0.77287    0.009
 5597.00    0.82193   0.76847    0.009
 5598.00    0.80988   0.77341    0.009
 5599.00    0.79620   0.79192    0.009
 5600.00    0.79700   0.81642    0.009
 5601.00    0.85404   0.83536    0.009
 5602.00    0.91404   0.84404    0.009
 5603.00    0.98364   0.84487    0.009
 5604.00    1.02494   0.84270    0.009
 5605.00    0.98874   0.84173    0.009
 5606.00    0.96083   0.84360    0.008
 5607.00    0.95237   0.84500    0.009
 5608.00    0.96817   0.83668    0.009
 5609.00    1.03319   0.81140    0.008
 5610.00    1.04038   0.77957    0.008
 5611.00    0.94546   0.76532    0.008
 5612.00    0.90353   0.77589    0.008
 5613.00    0.94347   0.79293    0.008
 5614.00    0.98697   0.80133    0.008
 5615.00    1.03529   0.80487    0.008
 5616.00    1.04382   0.81053    0.008
 5617.00    1.00481   0.81393    0.008
 5618.00    0.94002   0.80561    0.008
 5619.00    0.84808   0.78788    0.008
 5620.00    0.83704   0.77674    0.008
 5621.00    0.90118   0.78186    0.008
 5622.00    0.93064   0.79574    0.008
 5623.00    0.93170   0.80840    0.008
 5624.00    0.90513   0.81846    0.008
 5625.00    0.85864   0.82642    0.008
 5626.00    0.86427   0.83048    0.008
 5627.00    0.90289   0.82990    0.008
 5628.00    0.94084   0.82585    0.009
 5629.00    0.97843   0.81966    0.009
 5630.00    0.94310   0.81197    0.008
 5631.00    0.87270   0.80339    0.008
 5632.00    0.85435   0.79664    0.008
 5633.00    0.85763   0.79522    0.008
 5634.00    0.91924   0.79768    0.008
 5635.00    1.00156   0.79787    0.008
 5636.00    1.03449   0.79448    0.008
 5637.00    1.05260   0.79318    0.008
 5638.00    1.05200   0.79643    0.008
 5639.00    1.04674   0.80111    0.008
 5640.00    0.92880   0.80530    0.008
 5641.00    0.78810   0.80926    0.008
 5642.00    0.82930   0.81236    0.008
 5643.00    0.89930   0.81297    0.008
 5644.00    0.99154   0.81152    0.008
 5645.00    1.08639   0.81198    0.008
 5646.00    0.96703   0.81711    0.008
 5647.00    0.83056   0.82332    0.008
 5648.00    0.90028   0.82356    0.008
 5649.00    0.97917   0.81628    0.008
 5650.00    0.95126   0.80807    0.008
 5651.00    0.92020   0.80140    0.008
 5652.00    0.79412   0.78815    0.008
 5653.00    0.67787   0.76896    0.008
 5654.00    0.74278   0.76138    0.008
 5655.00    0.80219   0.77123    0.008
 5656.00    0.80067   0.78120    0.008
 5657.00    0.79010   0.78121    0.008
 5658.00    0.70933   0.78204    0.008
 5659.00    0.63982   0.79231    0.008
 5660.00    0.63646   0.80463    0.008
 5661.00    0.64992   0.80837    0.008
 5662.00    0.74159   0.80330    0.008
 5663.00    0.81582   0.79758    0.008
 5664.00    0.82377   0.79685    0.008
 5665.00    0.84669   0.80014    0.008
 5666.00    0.91712   0.80621    0.008
 5667.00    0.95498   0.81577    0.008
 5668.00    0.90524   0.82569    0.008
 5669.00    0.86877   0.82995    0.008
 5670.00    0.86290   0.82890    0.008
 5671.00    0.85419   0.82850    0.008
 5672.00    0.83981   0.82958    0.008
 5673.00    0.81816   0.82779    0.008
 5674.00    0.78386   0.82296    0.008
 5675.00    0.75790   0.81779    0.008
 5676.00    0.74462   0.81073    0.008
 5677.00    0.76351   0.80096    0.008
 5678.00    0.82545   0.79503    0.008
 5679.00    0.93287   0.79762    0.008
 5680.00    1.09387   0.80213    0.009
 5681.00    1.13072   0.79960    0.008
 5682.00    1.03861   0.79141    0.008
 5683.00    0.99409   0.78705    0.008
 5684.00    0.99316   0.79241    0.008
 5685.00    0.93850   0.80452    0.008
 5686.00    0.84043   0.81707    0.008
 5687.00    0.81569   0.82607    0.008
 5688.00    0.84306   0.82939    0.008
 5689.00    0.78230   0.82733    0.008
 5690.00    0.66658   0.82368    0.008
 5691.00    0.69065   0.82069    0.008
 5692.00    0.79088   0.81582    0.008
 5693.00    0.81387   0.80781    0.008
 5694.00    0.80029   0.79982    0.008
 5695.00    0.80655   0.79287    0.008
 5696.00    0.82090   0.78610    0.008
 5697.00    0.88921   0.78324    0.008
 5698.00    0.97634   0.78777    0.008
 5699.00    1.00557   0.79463    0.008
 5700.00    1.01778   0.79469    0.008
 5701.00    0.95896   0.78564    0.008
 5702.00    0.88283   0.77265    0.008
 5703.00    0.89122   0.76080    0.008
 5704.00    0.91625   0.75398    0.008
 5705.00    0.91578   0.75425    0.008
 5706.00    0.91140   0.75924    0.008
 5707.00    0.90446   0.76868    0.008
 5708.00    0.89723   0.78419    0.008
 5709.00    0.87433   0.80043    0.008
 5710.00    0.85025   0.81092    0.008
 5711.00    0.92054   0.81570    0.008
 5712.00    0.99468   0.81733    0.008
 5713.00    0.95590   0.81863    0.008
 5714.00    0.91667   0.82202    0.008
 5715.00    0.89475   0.82696    0.008
 5716.00    0.86981   0.83204    0.008
 5717.00    0.79323   0.83661    0.008
 5718.00    0.73200   0.83907    0.008
 5719.00    0.83319   0.83770    0.008
 5720.00    0.92312   0.83167    0.008
 5721.00    0.92864   0.82138    0.008
 5722.00    0.93009   0.81226    0.008
 5723.00    0.90834   0.81183    0.008
 5724.00    0.87865   0.81761    0.008
 5725.00    0.81294   0.81893    0.008
 5726.00    0.75457   0.81378    0.008
 5727.00    0.72354   0.81179    0.008
 5728.00    0.70660   0.81807    0.008
 5729.00    0.73348   0.82667    0.008
 5730.00    0.75665   0.83058    0.008
 5731.00    0.76999   0.82871    0.008
 5732.00    0.77971   0.82444    0.008
 5733.00    0.78121   0.82133    0.008
 5734.00    0.79020   0.82034    0.008
 5735.00    0.81391   0.82055    0.008
 5736.00    0.83965   0.82037    0.008
 5737.00    0.86885   0.81891    0.008
 5738.00    0.86916   0.81854    0.008
 5739.00    0.82613   0.82293    0.008
 5740.00    0.80262   0.82971    0.000
 5741.00    0.80484   0.83076    0.000
 5742.00    0.83410   0.82259    0.000
 5743.00    0.89477   0.81341    0.000
 5744.00    0.92771   0.81369    0.000
 5745.00    0.93225   0.82081    0.000
 5746.00    0.92487   0.82198    0.000
 5747.00    0.90673   0.81098    0.000
 5748.00    0.86695   0.79557    0.000
 5749.00    0.80995   0.78945    0.000
 5750.00    0.83954   0.79886    0.000
 5751.00    0.92977   0.81646    0.000
 5752.00    0.92383   0.82993    0.000
 5753.00    0.85883   0.83287    0.000
 5754.00    0.87288   0.82530    0.000
 5755.00    0.92933   0.81073    0.000
 5756.00    0.89750   0.79475    0.000
 5757.00    0.82456   0.78451    0.000
 5758.00    0.80797   0.78695    0.000
 5759.00    0.81401   0.80171    0.000
 5760.00    0.86229   0.81852    0.000
 5761.00    0.92503   0.82857    0.000
 5762.00    0.88535   0.83187    0.000
 5763.00    0.81616   0.83149    0.000
 5764.00    0.84078   0.82904    0.000
 5765.00    0.88774   0.82555    0.000
 5766.00    0.92371   0.82148    0.000
 5767.00    0.95757   0.81760    0.000
 5768.00    0.93650   0.81487    0.000
 5769.00    0.90724   0.81316    0.000
 5770.00    0.88801   0.81328    0.000
 5771.00    0.86986   0.81611    0.000
 5772.00    0.77147   0.81905    0.000
 5773.00    0.66733   0.81743    0.000
 5774.00    0.74291   0.80743    0.000
 5775.00    0.82511   0.78921    0.000
 5776.00    0.85820   0.77071    0.000
 5777.00    0.88884   0.76191    0.000
 5778.00    0.83930   0.76210    0.000
 5779.00    0.79369   0.76264    0.000
 5780.00    0.81129   0.76277    0.000
 5781.00    0.83377   0.77004    0.000
 5782.00    0.90559   0.78472    0.000
 5783.00    0.96860   0.79815    0.000
 5784.00    0.96776   0.80368    0.000
 5785.00    0.98044   0.80121    0.000
 5786.00    1.06820   0.79771    0.000
 5787.00    1.12390   0.80096    0.000
 5788.00    1.03736   0.81029    0.000
 5789.00    0.96205   0.82003    0.000
 5790.00    0.92762   0.82499    0.000
 5791.00    0.89832   0.82122   -2.000
 5792.00    0.88465   0.81152   -2.000
 5793.00    0.86909   0.80726   -2.000
 5794.00    0.84863   0.81553   -2.000
 5795.00    0.81305   0.82982   -2.000
 5796.00    0.74369   0.83987   -2.000
 5797.00    0.73252   0.84143   -2.000
 5798.00    0.83393   0.83428   -2.000
 5799.00    0.93288   0.82253   -2.000
 5800.00    1.02768   0.81402   -2.000
 5801.00    1.05672   0.81252   -2.000
 5802.00    0.98855   0.81548   -2.000
 5803.00    0.96870   0.81897   -2.000
 5804.00    1.01163   0.82178   -2.000
 5805.00    1.03762   0.82434   -2.000
 5806.00    1.04422   0.82600   -2.000
 5807.00    1.00272   0.82534   -2.000
 5808.00    0.91265   0.82163   -2.000
 5809.00    0.84243   0.81447   -2.000
 5810.00    0.78988   0.80534   -2.000
 5811.00    0.76402   0.80008    0.000
 5812.00    0.75912   0.80424    0.000
 5813.00    0.76243   0.81535    0.000
 5814.00    0.77141   0.82538    0.000
 5815.00    0.83981   0.82998    0.000
 5816.00    0.94416   0.82981    0.000
 5817.00    0.97772   0.82681    0.000
 5818.00    0.97391   0.82364    0.000
 5819.00    0.89480   0.82295    0.000
 5820.00    0.78119   0.82462    0.000
 5821.00    0.78958   0.82612    0.000
 5822.00    0.84610   0.82664    0.000
 5823.00    0.88767   0.82745    0.000
 5824.00    0.92420   0.82901    0.000
 5825.00    0.94739   0.82983    0.000
 5826.00    0.96682   0.82897    0.000
 5827.00    0.91290   0.82717    0.000
 5828.00    0.84192   0.82402    0.000
 5829.00    0.79975   0.81961    0.000
 5830.00    0.76297   0.81727    0.000
 5831.00    0.81189   0.81843    0.000
 5832.00    0.87317   0.81894    0.000
 5833.00    0.89910   0.81703    0.000
 5834.00    0.92133   0.81743    0.000
 5835.00    0.91996   0.82284    0.000
 5836.00    0.91700   0.82957    0.000
 5837.00    0.82071   0.83338    0.000
 5838.00    0.72133   0.83307    0.000
 5839.00    0.74329   0.82909    0.000
 5840.00    0.76576   0.82241    0.000
 5841.00    0.80194   0.81435    0.000
 5842.00    0.83198   0.80740    0.000
 5843.00    0.76923   0.80440    0.000
 5844.00    0.71653   0.80497    0.000
 5845.00    0.76135   0.80476    0.000
 5846.00    0.80225   0.79930    0.000
 5847.00    0.81569   0.78869    0.000
 5848.00    0.82969   0.77938    0.000
 5849.00    0.84672   0.77743    0.000
 5850.00    0.87292   0.77846    0.000
 5851.00    0.93881   0.77271    0.000
 5852.00    0.96622   0.76133    0.000
 5853.00    0.85635   0.75668    0.000
 5854.00    0.78958   0.76457    0.000
 5855.00    0.85194   0.77747    0.000
 5856.00    0.90853   0.78570    0.000
 5857.00    0.95043   0.78708    0.000
 5858.00    0.98573   0.78711    0.000
 5859.00    1.00657   0.78911    0.000
 5860.00    1.01109   0.78930    0.000
 5861.00    0.98451   0.78580    0.000
 5862.00    0.93153   0.78454    0.000
 5863.00    0.83466   0.79032    0.000
 5864.00    0.79055   0.79939    0.000
 5865.00    0.82328   0.80517    0.000
 5866.00    0.85537   0.80496    0.000
 5867.00    0.88663   0.80046    0.000
 5868.00    0.91619   0.79548    0.000
 5869.00    0.94384   0.79217    0.000
 5870.00    0.94757   0.78948    0.000
 5871.00    0.92748   0.78637    0.000
 5872.00    0.88695   0.78356    0.000
 5873.00    0.82847   0.78035    0.000
 5874.00    0.83131   0.77511    0.000
 5875.00    0.88158   0.77044    0.000
 5876.00    0.90723   0.77033    0.000
 5877.00    0.91612   0.77267    0.000
 5878.00    0.89128   0.77216    0.000
 5879.00    0.84632   0.76909    0.000
 5880.00    0.82579   0.76605    0.000
 5881.00    0.81795   0.75806    0.000
 5882.00    0.80036   0.73228    0.000
 5883.00    0.77837   0.68055    0.000
 5884.00    0.76344   0.61824    0.000
 5885.00    0.75124   0.58375    0.000
 5886.00    0.74000   0.59886    0.000
 5887.00    0.72906   0.64022    0.000
 5888.00    0.72230   0.66769    0.000
 5889.00    0.71670   0.66146    0.000
 5890.00    0.70805   0.63269    0.000
 5891.00    0.69870   0.61680    0.000
 5892.00    0.74936   0.63756    0.000
 5893.00    0.81095   0.67903    0.000
 5894.00    0.80837   0.71416    0.000
 5895.00    0.79684   0.73682    0.000
 5896.00    0.85696   0.75195    0.000
 5897.00    0.92426   0.76156    0.000
 5898.00    0.93374   0.76651    0.000
 5899.00    0.93953   0.76777    0.000
 5900.00    0.79947   0.76674    0.000
 5901.00    0.65557   0.76678    0.007
 5902.00    0.66187   0.77002    0.007
 5903.00    0.66878   0.77431    0.007
 5904.00    0.69289   0.77712    0.007
 5905.00    0.71958   0.77902    0.007
 5906.00    0.78305   0.78004    0.007
 5907.00    0.84017   0.77661    0.007
 5908.00    0.83812   0.76689    0.007
 5909.00    0.83739   0.75626    0.007
 5910.00    0.84568   0.75201    0.007
 5911.00    0.85173   0.75541    0.007
 5912.00    0.84599   0.76270    0.007
 5913.00    0.85351   0.76966    0.007
 5914.00    0.91721   0.77447    0.007
 5915.00    0.95891   0.77674    0.007
 5916.00    0.92369   0.77583    0.007
 5917.00    0.88266   0.77347    0.007
 5918.00    0.82458   0.77339    0.007
 5919.00    0.77971   0.77622    0.007
 5920.00    0.76795   0.77966    0.007
 5921.00    0.78110   0.78126    0.007
 5922.00    0.84807   0.77899    0.007
 5923.00    0.89099   0.77262    0.007
 5924.00    0.88883   0.76552    0.007
 5925.00    0.87681   0.76374    0.007
 5926.00    0.84866   0.76958    0.007
 5927.00    0.84843   0.77650    0.007
 5928.00    0.88831   0.77638    0.007
 5929.00    0.90674   0.77066    0.007
 5930.00    0.89809   0.76813    0.007
 5931.00    0.88065   0.77251    0.007
 5932.00    0.85342   0.77939    0.007
 5933.00    0.83766   0.78398    0.007
 5934.00    0.83315   0.78370    0.007
 5935.00    0.80962   0.77751    0.007
 5936.00    0.76961   0.76972    0.007
 5937.00    0.73692   0.76734    0.007
 5938.00    0.70981   0.77186    0.007
 5939.00    0.70260   0.77937    0.007
 5940.00    0.70873   0.78560    0.007
 5941.00    0.72542   0.78691    0.007
 5942.00    0.74831   0.78119    0.007
 5943.00    0.78768   0.77168    0.007
 5944.00    0.83549   0.76619    0.007
 5945.00    0.81738   0.76769    0.007
 5946.00    0.77005   0.76981    0.007
 5947.00    0.73314   0.76738    0.007
 5948.00    0.70020   0.76484    0.007
 5949.00    0.69334   0.76662    0.007
 5950.00    0.69491   0.76811    0.007
 5951.00    0.72136   0.76493    0.007
 5952.00    0.75454   0.76136    0.007
 5953.00    0.73140   0.76344    0.007
 5954.00    0.69575   0.77115    0.007
 5955.00    0.68968   0.78014    0.007
 5956.00    0.68884   0.78659    0.007
 5957.00    0.69828   0.78910    0.007
 5958.00    0.70912   0.78822    0.007
 5959.00    0.72088   0.78480    0.007
 5960.00    0.73274   0.78043    0.007
 5961.00    0.77514   0.77867    0.007
 5962.00    0.81936   0.78142    0.007
 5963.00    0.85162   0.78628    0.007
 5964.00    0.88316   0.79061    0.007
 5965.00    0.85179   0.79382    0.007
 5966.00    0.82214   0.79547    0.007
 5967.00    0.83649   0.79493    0.007
 5968.00    0.85201   0.79185    0.007
 5969.00    0.88334   0.78545    0.007
 5970.00    0.90742   0.77595    0.007
 5971.00    0.86649   0.76657    0.007
 5972.00    0.83920   0.76147    0.007
 5973.00    0.90168   0.76267    0.007
 5974.00    0.95334   0.76916    0.007
 5975.00    0.94949   0.77666    0.007
 5976.00    0.93755   0.77914    0.007
 5977.00    0.89206   0.77301    0.007
 5978.00    0.84722   0.76091    0.007
 5979.00    0.80461   0.75179    0.007
 5980.00    0.76356   0.75286    0.007
 5981.00    0.72700   0.76114    0.007
 5982.00    0.70055   0.76904    0.007
 5983.00    0.69899   0.77418    0.007
 5984.00    0.70506   0.77724    0.007
 5985.00    0.72730   0.77735    0.007
 5986.00    0.74574   0.77591    0.007
 5987.00    0.75714   0.77789    0.007
 5988.00    0.76534   0.78445    0.007
 5989.00    0.76839   0.78990    0.007
 5990.00    0.79353   0.78866    0.007
 5991.00    0.84991   0.78110    0.007
 5992.00    0.90932   0.77241    0.007
 5993.00    0.97248   0.76803    0.007
 5994.00    0.97973   0.76930    0.007
 5995.00    0.92561   0.77249    0.007
 5996.00    0.85254   0.77246    0.007
 5997.00    0.76112   0.76878    0.007
 5998.00    0.72973   0.76660    0.007
 5999.00    0.74958   0.76808    0.007
 6000.00    0.76762   0.76808    0.007
 6001.00    0.78429   0.76188    0.007
 6002.00    0.80294   0.75251    0.007
 6003.00    0.82288   0.74904    0.007
 6004.00    0.83419   0.75670    0.007
 6005.00    0.84050   0.76872    0.007
 6006.00    0.81686   0.77332    0.007
 6007.00    0.77814   0.76813    0.007
 6008.00    0.76670   0.76164    0.007
 6009.00    0.76717   0.76046    0.007
 6010.00    0.79813   0.76180    0.007
 6011.00    0.84051   0.76130    0.007
 6012.00    0.85428   0.76028    0.007
 6013.00    0.85898   0.75980    0.007
 6014.00    0.84853   0.75764    0.007
 6015.00    0.83406   0.75442    0.007
 6016.00    0.81951   0.75387    0.007
 6017.00    0.80494   0.75665    0.007
 6018.00    0.78286   0.76047    0.007
 6019.00    0.75949   0.76503    0.007
 6020.00    0.80091   0.77038    0.007
 6021.00    0.85078   0.77480    0.007
 6022.00    0.85483   0.77835    0.007
 6023.00    0.85467   0.78277    0.007
 6024.00    0.81282   0.78676    0.007
 6025.00    0.76865   0.78805    0.007
 6026.00    0.75118   0.78824    0.007
 6027.00    0.73479   0.78996    0.007
 6028.00    0.76685   0.79247    0.007
 6029.00    0.79857   0.79363    0.007
 6030.00    0.82249   0.79328    0.007
 6031.00    0.84863   0.79259    0.007
 6032.00    0.90297   0.79194    0.007
 6033.00    0.95557   0.79038    0.007
 6034.00    0.99317   0.78749    0.007
 6035.00    1.01956   0.78470    0.007
 6036.00    0.97441   0.78385    0.007
 6037.00    0.93248   0.78604    0.007
 6038.00    0.90661   0.79073    0.007
 6039.00    0.88384   0.79555    0.007
 6040.00    0.87359   0.79854    0.007
 6041.00    0.85298   0.79973    0.007
 6042.00    0.79755   0.79958    0.007
 6043.00    0.75050   0.79851    0.007
 6044.00    0.72718   0.79798    0.007
 6045.00    0.72499   0.79828    0.007
 6046.00    0.77399   0.79706    0.007
 6047.00    0.83547   0.79282    0.007
 6048.00    0.92304   0.78737    0.007
 6049.00    0.97679   0.78261    0.007
 6050.00    0.96908   0.77848    0.007
 6051.00    0.93746   0.77547    0.007
 6052.00    0.86785   0.77568    0.007
 6053.00    0.80545   0.78003    0.007
 6054.00    0.75310   0.78623    0.007
 6055.00    0.74884   0.79025    0.007
 6056.00    0.80360   0.78921    0.007
 6057.00    0.82908   0.78281    0.007
 6058.00    0.82287   0.77239    0.007
 6059.00    0.77765   0.76099    0.007
 6060.00    0.69520   0.75597    0.007
 6061.00    0.65229   0.76377    0.007
 6062.00    0.64266   0.78003    0.007
 6063.00    0.67865   0.79389    0.007
 6064.00    0.74843   0.80032    0.007
 6065.00    0.77187   0.80209    0.007
 6066.00    0.76514   0.80286    0.007
 6067.00    0.78001   0.80373    0.007
 6068.00    0.80716   0.80416    0.007
 6069.00    0.82242   0.80328    0.007
 6070.00    0.83177   0.80021    0.007
 6071.00    0.84038   0.79415    0.007
 6072.00    0.84867   0.78533    0.007
 6073.00    0.81912   0.77684    0.007
 6074.00    0.77566   0.77239    0.007
 6075.00    0.76544   0.77052    0.007
 6076.00    0.76557   0.76750    0.007
 6077.00    0.78650   0.76483    0.007
 6078.00    0.81282   0.76576    0.007
 6079.00    0.81125   0.76830    0.007
 6080.00    0.80377   0.76979    0.007
 6081.00    0.81919   0.77176    0.007
 6082.00    0.83844   0.77487    0.007
 6083.00    0.82819   0.77520    0.007
 6084.00    0.81421   0.77005    0.007
 6085.00    0.79759   0.76337    0.007
 6086.00    0.78073   0.76077    0.007
 6087.00    0.79925   0.76291    0.007
 6088.00    0.81960   0.76830    0.007
 6089.00    0.83880   0.77583    0.007
 6090.00    0.85682   0.78179    0.007
 6091.00    0.79021   0.78271    0.007
 6092.00    0.72659   0.78118    0.007
 6093.00    0.72690   0.78191    0.007
 6094.00    0.73036   0.78335    0.007
 6095.00    0.77201   0.77707    0.007
 6096.00    0.80669   0.75758    0.007
 6097.00    0.78359   0.73502    0.007
 6098.00    0.76055   0.72897    0.007
 6099.00    0.73796   0.74361    0.007
 6100.00    0.71471   0.76290    0.007
 6101.00    0.68829   0.77272    0.007
 6102.00    0.66738   0.77415    0.007
 6103.00    0.66829   0.77512    0.007
 6104.00    0.67428   0.77787    0.007
 6105.00    0.69696   0.77848    0.007
 6106.00    0.71932   0.77674    0.007
 6107.00    0.74080   0.77794    0.007
 6108.00    0.75210   0.78324    0.007
 6109.00    0.73919   0.78687    0.007
 6110.00    0.73971   0.78451    0.007
 6111.00    0.76787   0.77952    0.007
 6112.00    0.78701   0.77677    0.007
 6113.00    0.79000   0.77384    0.007
 6114.00    0.80307   0.76449    0.007
 6115.00    0.83194   0.74790    0.007
 6116.00    0.82274   0.73116    0.007
 6117.00    0.76122   0.72600    0.007
 6118.00    0.71379   0.73729    0.007
 6119.00    0.68340   0.75444    0.007
 6120.00    0.67046   0.76384    0.007
 6121.00    0.67612   0.76377    0.007
 6122.00    0.66590   0.76074    0.007
 6123.00    0.64075   0.76064    0.007
 6124.00    0.65612   0.76596    0.009
 6125.00    0.70511   0.77447    0.031
 6126.00    0.73369   0.78115   -1.000
 6127.00    0.74738   0.78262   -1.000
 6128.00    0.79383   0.77665   -1.000
 6129.00    0.86129   0.76020   -1.000
 6130.00    0.88907   0.73337   -1.000
 6131.00    0.89461   0.70646   -1.000
 6132.00    0.89834   0.69780   -1.000
 6133.00    0.90120   0.71506   -1.000
 6134.00    0.86116   0.74180   -1.000
 6135.00    0.80303   0.75541   -1.000
 6136.00    0.78123   0.75442    0.019
 6137.00    0.77255   0.75510    0.008
 6138.00    0.79029   0.76565    0.007
 6139.00    0.81610   0.77812    0.007
 6140.00    0.84111   0.78336    0.007
 6141.00    0.86593   0.78049    0.007
 6142.00    0.91538   0.77239    0.007
 6143.00    0.96991   0.76209    0.007
 6144.00    0.97315   0.75381    0.007
 6145.00    0.96807   0.75183    0.007
 6146.00    0.90402   0.75644    0.007
 6147.00    0.83281   0.76249    0.006
 6148.00    0.78325   0.76368    0.007
 6149.00    0.73550   0.75939    0.007
 6150.00    0.72458   0.75481    0.007
 6151.00    0.71542   0.75287    0.007
 6152.00    0.70786   0.75090    0.006
 6153.00    0.70019   0.74482    0.006
 6154.00    0.68557   0.73003    0.007
 6155.00    0.67154   0.70359    0.007
 6156.00    0.66911   0.67329    0.007
 6157.00    0.66644   0.65647    0.007
 6158.00    0.66113   0.66225    0.007
 6159.00    0.65894   0.68214    0.007
 6160.00    0.68168   0.70170    0.007
 6161.00    0.69987   0.71349    0.007
 6162.00    0.69073   0.71495    0.007
 6163.00    0.68612   0.70529    0.007
 6164.00    0.70307   0.69304    0.007
 6165.00    0.72046   0.69308    0.007
 6166.00    0.73955   0.70708    0.007
 6167.00    0.75548   0.72154    0.007
 6168.00    0.76121   0.72778    0.007
 6169.00    0.76388   0.72893    0.007
 6170.00    0.75815   0.72911    0.007
 6171.00    0.75619   0.72973    0.007
 6172.00    0.76300   0.73248    0.007
 6173.00    0.76005   0.73702    0.007
 6174.00    0.73731   0.74034    0.007
 6175.00    0.72374   0.74222    0.007
 6176.00    0.72630   0.74493    0.007
 6177.00    0.73488   0.74760    0.007
 6178.00    0.75272   0.74773    0.006
 6179.00    0.76605   0.74444    0.006
 6180.00    0.77328   0.73738    0.006
 6181.00    0.75322   0.72781    0.006
 6182.00    0.70062   0.71965    0.007
 6183.00    0.65274   0.71415    0.007
 6184.00    0.60980   0.70689    0.007
 6185.00    0.60332   0.69512    0.007
 6186.00    0.63064   0.68651    0.007
 6187.00    0.67839   0.69179    0.007
 6188.00    0.74283   0.70855    0.007
 6189.00    0.76890   0.72458    0.007
 6190.00    0.76735   0.73415    0.007
 6191.00    0.74133   0.73843    0.007
 6192.00    0.69986   0.73699    0.007
 6193.00    0.69422   0.72864    0.007
 6194.00    0.70838   0.71842    0.007
 6195.00    0.76409   0.71566    0.007
 6196.00    0.83976   0.72312   -2.000
 6197.00    0.62973   0.73375   -2.000
 6198.00    0.30128   0.74009   -2.000
 6199.00    0.11155   0.74161   -2.000
 6200.00   -0.02900   0.74190   -2.000
 6201.00    0.20445   0.74287   -2.000
 6202.00    0.54983   0.74362   -2.000
 6203.00    0.90878   0.74268   -2.000
 6204.00    1.27110   0.73933   -2.000
 6205.00    1.26193   0.73354   -2.000
 6206.00    1.17796   0.72511   -2.000
 6207.00    1.00274   0.71284   -2.000
 6208.00    0.81314   0.69783    0.007
 6209.00    0.76299   0.68605    0.007
 6210.00    0.72919   0.68307    0.007
 6211.00    0.77363   0.68850    0.007
 6212.00    0.82428   0.69591    0.007
 6213.00    0.80515   0.69794    0.007
 6214.00    0.78296   0.69446    0.007
 6215.00    0.73509   0.69241    0.007
 6216.00    0.68791   0.69562    0.007
 6217.00    0.68678   0.70075    0.007
 6218.00    0.68630   0.70355    0.007
 6219.00    0.69769   0.70455    0.007
 6220.00    0.70718   0.70652    0.007
 6221.00    0.69570   0.70891    0.007
 6222.00    0.68357   0.70796    0.007
 6223.00    0.66649   0.69975    0.007
 6224.00    0.65579   0.68414    0.007
 6225.00    0.68242   0.66910    0.007
 6226.00    0.70633   0.66546    0.007
 6227.00    0.71755   0.67552    0.007
 6228.00    0.72332   0.69289    0.007
 6229.00    0.70845   0.70998    0.007
 6230.00    0.69887   0.72006    0.007
 6231.00    0.70603   0.71989    0.007
 6232.00    0.71449   0.71169    0.007
 6233.00    0.72640   0.70032    0.007
 6234.00    0.72760   0.69080    0.006
 6235.00    0.70414   0.68639    0.006
 6236.00    0.70507   0.68515    0.007
 6237.00    0.75461   0.68201    0.007
 6238.00    0.78489   0.67760    0.007
 6239.00    0.78173   0.67669    0.007
 6240.00    0.78203   0.67985    0.007
 6241.00    0.78759   0.68646    0.007
 6242.00    0.80584   0.69702    0.007
 6243.00    0.84107   0.70771    0.007
 6244.00    0.84679   0.71212    0.007
 6245.00    0.81784   0.70724    0.007
 6246.00    0.79205   0.69505    0.007
 6247.00    0.76955   0.68226    0.007
 6248.00    0.75230   0.67592    0.007
 6249.00    0.73983   0.67556    0.007
 6250.00    0.72267   0.67457    0.007
 6251.00    0.70173   0.66881    0.007
 6252.00    0.69741   0.66156    0.007
 6253.00    0.70487   0.66054    0.007
 6254.00    0.70722   0.66950    0.007
 6255.00    0.70641   0.68420    0.007
 6256.00    0.70547   0.69851    0.007
 6257.00    0.70445   0.71001    0.007
 6258.00    0.71818   0.71533    0.007
 6259.00    0.73888   0.71237    0.007
 6260.00    0.67232   0.70719    0.007
 6261.00    0.57020   0.70688    0.008
 6262.00    0.57223   0.70957    0.008
 6263.00    0.61051   0.70996    0.008
 6264.00    0.69815   0.70870    0.008
 6265.00    0.80028   0.70961    0.008
 6266.00    0.91809   0.71333    0.008
 6267.00    1.03971   0.71726    0.007
 6268.00    1.01186   0.71892    0.007
 6269.00    0.95468   0.71851    0.007
 6270.00    0.85870   0.71812    0.007
 6271.00    0.75678   0.71828    0.007
 6272.00    0.77492   0.71751    0.007
 6273.00    0.80661   0.71400    0.007
 6274.00    0.84924   0.70763    0.007
 6275.00    0.89269   0.70227    0.007
 6276.00    0.83521   0.70297    0.007
 6277.00    0.77369   0.70946    0.006
 6278.00    0.69462   0.71671    0.006
 6279.00    0.61719   0.72106    0.006
 6280.00    0.61132   0.72352    0.000
 6281.00    0.60506   0.72769    0.000
 6282.00    0.59213   0.73365    0.000
 6283.00    0.58345   0.73756    0.000
 6284.00    0.61959   0.73625    0.000
 6285.00    0.65899   0.73012    0.000
 6286.00    0.72278   0.72309    0.000
 6287.00    0.78066   0.71900    0.000
 6288.00    0.80499   0.71830    0.000
 6289.00    0.81695   0.71764    0.000
 6290.00    0.77287   0.71264    0.000
 6291.00    0.73619   0.70475    0.000
 6292.00    0.72702   0.70088    0.000
 6293.00    0.72168   0.70347    0.000
 6294.00    0.72821   0.70669    0.000
 6295.00    0.73015   0.70464    0.000
 6296.00    0.71996   0.69993    0.000
 6297.00    0.72169   0.69984    0.000
 6298.00    0.75040   0.70577    0.000
 6299.00    0.76394   0.71259    0.000
 6300.00    0.74774   0.71805    0.000
 6301.00    0.72502   0.72488    0.000
 6302.00    0.69116   0.73284    0.000
 6303.00    0.68284   0.73677    0.000
 6304.00    0.71278   0.73388    0.000
 6305.00    0.74584   0.72694    0.000
 6306.00    0.78299   0.72109    0.000
 6307.00    0.79590   0.71836    0.000
 6308.00    0.78070   0.71574    0.000
 6309.00    0.77341   0.71073    0.000
 6310.00    0.77419   0.70588    0.000
 6311.00    0.77531   0.70272    0.000
 6312.00    0.77673   0.69899    0.000
 6313.00    0.75194   0.69695    0.000
 6314.00    0.70632   0.70175    0.000
 6315.00    0.66162   0.71065    0.000
 6316.00    0.61754   0.71722    0.000
 6317.00    0.63674   0.72119    0.000
 6318.00    0.69472   0.72569    0.000
 6319.00    0.73263   0.73035    0.000
 6320.00    0.75980   0.73276    0.000
 6321.00    0.79561   0.73301    0.007
 6322.00    0.83544   0.73309    0.007
 6323.00    0.86524   0.73368    0.007
 6324.00    0.89102   0.73334    0.007
 6325.00    0.83287   0.73272    0.007
 6326.00    0.74604   0.73469    0.007
 6327.00    0.73007   0.73741    0.006
 6328.00    0.73448   0.73399    0.006
 6329.00    0.75663   0.72133    0.006
 6330.00    0.78300   0.70676    0.006
 6331.00    0.82066   0.70133    0.006
 6332.00    0.86048   0.70682    0.006
 6333.00    0.84000   0.71621    0.006
 6334.00    0.81057   0.72466    0.006
 6335.00    0.82237   0.73076    0.006
 6336.00    0.83864   0.73130    0.006
 6337.00    0.85445   0.72461    0.006
 6338.00    0.87022   0.71524    0.006
 6339.00    0.86098   0.71044    0.006
 6340.00    0.85084   0.71250    0.006
 6341.00    0.81613   0.71808    0.006
 6342.00    0.78173   0.72440    0.006
 6343.00    0.76165   0.73060    0.006
 6344.00    0.74363   0.73528    0.006
 6345.00    0.75843   0.73742    0.007
 6346.00    0.77059   0.73697    0.007
 6347.00    0.75619   0.73303    0.007
 6348.00    0.74362   0.72522    0.006
 6349.00    0.74419   0.71693    0.006
 6350.00    0.75161   0.71253    0.006
 6351.00    0.79695   0.71039    0.007
 6352.00    0.83690   0.70489    0.007
 6353.00    0.85296   0.69615    0.007
 6354.00    0.86698   0.68946    0.006
 6355.00    0.87361   0.68605    0.006
 6356.00    0.87408   0.68364    0.006
 6357.00    0.85580   0.68325    0.006
 6358.00    0.82571   0.68766    0.006
 6359.00    0.76501   0.69613    0.006
 6360.00    0.72146   0.70576    0.006
 6361.00    0.71608   0.71501    0.006
 6362.00    0.71324   0.72300    0.006
 6363.00    0.71530   0.72746    0.006
 6364.00    0.71695   0.72742    0.006
 6365.00    0.71792   0.72668    0.007
 6366.00    0.73962   0.72993    0.007
 6367.00    0.79190   0.73623    0.007
 6368.00    0.81955   0.74072    0.007
 6369.00    0.81526   0.74147    0.007
 6370.00    0.80531   0.74037    0.007
 6371.00    0.78891   0.73811    0.007
 6372.00    0.79016   0.73327    0.007
 6373.00    0.80918   0.72664    0.007
 6374.00    0.82410   0.72174    0.007
 6375.00    0.83538   0.72061    0.007
 6376.00    0.83220   0.72258    0.007
 6377.00    0.81770   0.72522    0.007
 6378.00    0.80938   0.72606    0.007
 6379.00    0.80532   0.72589    0.006
 6380.00    0.78263   0.72741    0.006
 6381.00    0.74867   0.73037    0.006
 6382.00    0.73259   0.73234    0.006
 6383.00    0.72593   0.73293    0.006
 6384.00    0.74032   0.73276    0.006
 6385.00    0.76434   0.72967    0.006
 6386.00    0.77856   0.72034    0.006
 6387.00    0.78894   0.70707    0.006
 6388.00    0.80658   0.69997    0.006
 6389.00    0.82665   0.70634    0.006
 6390.00    0.83251   0.72102    0.006
 6391.00    0.83435   0.73239    0.006
 6392.00    0.82802   0.73241    0.006
 6393.00    0.81980   0.72013    0.006
 6394.00    0.77526   0.70459    0.007
 6395.00    0.72396   0.70101    0.007
 6396.00    0.71611   0.71387    0.007
 6397.00    0.71451   0.73149    0.007
 6398.00    0.77610   0.74225    0.007
 6399.00    0.84427   0.74409    0.007
 6400.00    0.87428   0.73922    0.007
 6401.00    0.90173   0.73056    0.007
 6402.00    0.89561   0.72320    0.007
 6403.00    0.88839   0.72206    0.007
 6404.00    0.84911   0.72444    0.007
 6405.00    0.80996   0.72318    0.007
 6406.00    0.77526   0.71886    0.007
 6407.00    0.74563   0.71774    0.007
 6408.00    0.79205   0.72106    0.014
 6409.00    0.83540   0.72586   -1.000
 6410.00    0.84912   0.73004   -1.000
 6411.00    0.85865   0.73183   -1.000
 6412.00    0.83891   0.72925   -1.000
 6413.00    0.82089   0.72148   -1.000
 6414.00    0.81213   0.71083   -1.000
 6415.00    0.79683   0.70414   -1.000
 6416.00    0.75325   0.70826   -1.000
 6417.00    0.71102   0.72141   -1.000
 6418.00    0.67353   0.73385   -1.000
 6419.00    0.64918   0.73969    0.050
 6420.00    0.66406   0.74190    0.010
 6421.00    0.68947   0.74414    0.006
 6422.00    0.74167   0.74428    0.006
 6423.00    0.77476   0.73745    0.007
 6424.00    0.76595   0.72323    0.007
 6425.00    0.75139   0.70958    0.007
 6426.00    0.72590   0.70655    0.007
 6427.00    0.69595   0.71491    0.007
 6428.00    0.65861   0.72677    0.007
 6429.00    0.65768   0.73540    0.007
 6430.00    0.70970   0.73822    0.007
 6431.00    0.73597   0.73347    0.007
 6432.00    0.72931   0.72124    0.007
 6433.00    0.72286   0.70941    0.007
 6434.00    0.71664   0.70964    0.006
 6435.00    0.70147   0.72280    0.006
 6436.00    0.67741   0.73815    0.006
 6437.00    0.68922   0.74749    0.006
 6438.00    0.73247   0.75116    0.006
 6439.00    0.76886   0.75274    0.006
 6440.00    0.79995   0.75332    0.006
 6441.00    0.79611   0.74945    0.006
 6442.00    0.76858   0.73575    0.006
 6443.00    0.75493   0.71243    0.006
 6444.00    0.74953   0.69157    0.006
 6445.00    0.75747   0.68808    0.006
 6446.00    0.77233   0.70224    0.007
 6447.00    0.78212   0.72035    0.007
 6448.00    0.78963   0.72956    0.007
 6449.00    0.75563   0.72718    0.007
 6450.00    0.70558   0.72131    0.007
 6451.00    0.69960   0.72252    0.007
 6452.00    0.70813   0.73246    0.007
 6453.00    0.69682   0.74348    0.007
 6454.00    0.68003   0.74662    0.007
 6455.00    0.67691   0.73695    0.007
 6456.00    0.67688   0.71762    0.006
 6457.00    0.61344   0.70226    0.006
 6458.00    0.53850   0.70294    0.006
 6459.00    0.59092   0.71642    0.006
 6460.00    0.66106   0.73111    0.006
 6461.00    0.69184   0.74044    0.006
 6462.00    0.71870   0.74364    0.006
 6463.00    0.67143   0.74141    0.006
 6464.00    0.61947   0.73569    0.006
 6465.00    0.64548   0.72972    0.006
 6466.00    0.67374   0.72724    0.006
 6467.00    0.70160   0.72905    0.006
 6468.00    0.72861   0.73091    0.006
 6469.00    0.73168   0.73009    0.006
 6470.00    0.73194   0.72986    0.006
 6471.00    0.69235   0.73283    0.007
 6472.00    0.65780   0.73615    0.007
 6473.00    0.66981   0.73629    0.007
 6474.00    0.68147   0.73172    0.007
 6475.00    0.69072   0.72184    0.007
 6476.00    0.70429   0.70979    0.007
 6477.00    0.74058   0.70307    0.007
 6478.00    0.76974   0.70576    0.007
 6479.00    0.76882   0.71411    0.007
 6480.00    0.76469   0.72210    0.007
 6481.00    0.74937   0.72718    0.007
 6482.00    0.74316   0.72908    0.006
 6483.00    0.76373   0.72722    0.006
 6484.00    0.79259   0.72158    0.006
 6485.00    0.84218   0.71356    0.006
 6486.00    0.86624   0.70230    0.006
 6487.00    0.83529   0.68366    0.006
 6488.00    0.80360   0.65814    0.006
 6489.00    0.77054   0.63617    0.006
 6490.00    0.75004   0.62841    0.006
 6491.00    0.75006   0.63524    0.006
 6492.00    0.72409   0.64928    0.006
 6493.00    0.66087   0.66357    0.006
 6494.00    0.61210   0.67698    0.006
 6495.00    0.58155   0.69049    0.006
 6496.00    0.57241   0.70265    0.007
 6497.00    0.58708   0.71169    0.007
 6498.00    0.59768   0.71778    0.007
 6499.00    0.60428   0.72216    0.007
 6500.00    0.65078   0.72489    0.007
 6501.00    0.73173   0.72462    0.007
 6502.00    0.73117   0.72152    0.007
 6503.00    0.66855   0.71901    0.007
 6504.00    0.66986   0.72013    0.007
 6505.00    0.71393   0.72358    0.007
 6506.00    0.73978   0.72596    0.006
 6507.00    0.75496   0.72588    0.006
 6508.00    0.76258   0.72322    0.006
 6509.00    0.76635   0.71800    0.006
 6510.00    0.78302   0.71175    0.006
 6511.00    0.80540   0.70678    0.006
 6512.00    0.86415   0.70426    0.006
 6513.00    0.93671   0.70555    0.006
 6514.00    0.92635   0.71150    0.006
 6515.00    0.88923   0.71933    0.006
 6516.00    0.85896   0.72487    0.006
 6517.00    0.83053   0.72713    0.006
 6518.00    0.82164   0.72772    0.006
 6519.00    0.81709   0.72679    0.006
 6520.00    0.82853   0.72312    0.007
 6521.00    0.84278   0.71841    0.007
 6522.00    0.84101   0.71692    0.007
 6523.00    0.83709   0.71950    0.007
 6524.00    0.85425   0.72216    0.007
 6525.00    0.87343   0.72088    0.007
 6526.00    0.76209   0.71610    0.007
 6527.00    0.64302   0.71231    0.007
 6528.00    0.62858   0.71342    0.000
 6529.00    0.61710   0.71856    0.000
 6530.00    0.65443   0.72305    0.000
 6531.00    0.69077   0.72407    0.000
 6532.00    0.70223   0.72397    0.000
 6533.00    0.71503   0.72591    0.000
 6534.00    0.74584   0.72853    0.000
 6535.00    0.77543   0.72788    0.000
 6536.00    0.79408   0.72271    0.000
 6537.00    0.81643   0.71500    0.000
 6538.00    0.86301   0.70646    0.000
 6539.00    0.89870   0.69698    0.000
 6540.00    0.87876   0.68804    0.000
 6541.00    0.85331   0.68438    0.000
 6542.00    0.80516   0.68772    0.000
 6543.00    0.77348   0.69317    0.000
 6544.00    0.79812   0.69477    0.000
 6545.00    0.82241   0.69137    0.000
 6546.00    0.84570   0.68553    0.000
 6547.00    0.89053   0.67866    0.000
 6548.00    0.98835   0.67022    0.000
 6549.00    1.05830   0.66137    0.000
 6550.00    1.06914   0.65549    0.000
 6551.00    1.05591   0.65395    0.000
 6552.00    0.99830   0.65337    0.000
 6553.00    0.93526   0.64746    0.000
 6554.00    0.86345   0.62828    0.000
 6555.00    0.79973   0.58850    0.000
 6556.00    0.74744   0.53507    0.000
 6557.00    0.73444   0.49890    0.000
 6558.00    0.77028   0.50898    0.000
 6559.00    0.80851   0.55695    0.000
 6560.00    0.84936   0.60904    0.000
 6561.00    0.94436   0.64324    0.000
 6562.00    1.09166   0.65839    0.000
 6563.00    1.24962   0.66230    0.000
 6564.00    1.41667   0.66318    0.000
 6565.00    1.46797   0.66429    0.000
 6566.00    1.43244   0.66348    0.000
 6567.00    1.33028   0.65970    0.000
 6568.00    1.18420   0.65683    0.000
 6569.00    1.05745   0.65993    0.000
 6570.00    0.94184   0.67014    0.000
 6571.00    0.87877   0.68317    0.000
 6572.00    0.84211   0.69285    0.000
 6573.00    0.85374   0.69571    0.000
 6574.00    0.88640   0.69285    0.000
 6575.00    0.86468   0.68898    0.000
 6576.00    0.82268   0.68895    0.000
 6577.00    0.79507   0.69314    0.000
 6578.00    0.77201   0.69766    0.000
 6579.00    0.78889   0.69943    0.000
 6580.00    0.81631   0.69956    0.000
 6581.00    0.87567   0.70148    0.000
 6582.00    0.94192   0.70603    0.000
 6583.00    0.97623   0.71012    0.000
 6584.00    1.00505   0.70964    0.000
 6585.00    1.05077   0.70128    0.000
 6586.00    1.09869   0.68523    0.000
 6587.00    1.05124   0.66930    0.000
 6588.00    0.99507   0.66454    0.000
 6589.00    0.94559   0.67289    0.000
 6590.00    0.89649   0.68495    0.000
 6591.00    0.86636   0.69151    0.000
 6592.00    0.83678   0.69218    0.000
 6593.00    0.81993   0.69291    0.000
 6594.00    0.80497   0.69787    0.000
 6595.00    0.83322   0.70516    0.000
 6596.00    0.86169   0.70985    0.000
 6597.00    0.89282   0.70946    0.000
 6598.00    0.91247   0.70498    0.000
 6599.00    0.83374   0.69906    0.000
 6600.00    0.76463   0.69362    0.000
 6601.00    0.75677   0.68854    0.000
 6602.00    0.74862   0.68320    0.000
 6603.00    0.73907   0.68017    0.000
 6604.00    0.73757   0.68376    0.000
 6605.00    0.76856   0.69315    0.000
 6606.00    0.78812   0.70134    0.000
 6607.00    0.76936   0.70388    0.000
 6608.00    0.74483   0.70388    0.000
 6609.00    0.70395   0.70574    0.007
 6610.00    0.67731   0.70859    0.007
 6611.00    0.68508   0.70943    0.006
 6612.00    0.69731   0.70863    0.006
 6613.00    0.71883   0.70859    0.007
 6614.00    0.73680   0.70982    0.007
 6615.00    0.74830   0.71036    0.007
 6616.00    0.76801   0.70775    0.007
 6617.00    0.80073   0.70094    0.007
 6618.00    0.79107   0.69206    0.007
 6619.00    0.72243   0.68610    0.007
 6620.00    0.69613   0.68626    0.007
 6621.00    0.72170   0.69023    0.007
 6622.00    0.76609   0.69345    0.007
 6623.00    0.83079   0.69393    0.007
 6624.00    0.86112   0.69222    0.007
 6625.00    0.85870   0.68876    0.007
 6626.00    0.85353   0.68319    0.007
 6627.00    0.84606   0.67660    0.007
 6628.00    0.83688   0.67299    0.007
 6629.00    0.82645   0.67574    0.007
 6630.00    0.80799   0.68331    0.007
 6631.00    0.78431   0.69062    0.007
 6632.00    0.72815   0.69398    0.007
 6633.00    0.65353   0.69369    0.006
 6634.00    0.62867   0.69281    0.006
 6635.00    0.62844   0.69268    0.006
 6636.00    0.68294   0.69066    0.007
 6637.00    0.76086   0.68546    0.007
 6638.00    0.71849   0.68156    0.007
 6639.00    0.63201   0.68315    0.007
 6640.00    0.60973   0.68775    0.007
 6641.00    0.60738   0.69068    0.007
 6642.00    0.66697   0.69138    0.007
 6643.00    0.74260   0.69146    0.007
 6644.00    0.74657   0.69070    0.007
 6645.00    0.73542   0.68836    0.007
 6646.00    0.67195   0.68554    0.007
 6647.00    0.59977   0.68408    0.007
 6648.00    0.58662   0.68434    0.007
 6649.00    0.58088   0.68514    0.007
 6650.00    0.61288   0.68536    0.007
 6651.00    0.64817   0.68514    0.007
 6652.00    0.65377   0.68501    0.007
 6653.00    0.65784   0.68440    0.007
 6654.00    0.66111   0.68223    0.007
 6655.00    0.66419   0.67801    0.007
 6656.00    0.65485   0.67179    0.007
 6657.00    0.64367   0.66550    0.007
 6658.00    0.59367   0.66288    0.007
 6659.00    0.54850   0.66503    0.007
 6660.00    0.56156   0.66871    0.007
 6661.00    0.57438   0.67137    0.007
 6662.00    0.58522   0.67433    0.007
 6663.00    0.59749   0.67936    0.007
 6664.00    0.61858   0.68541    0.007
 6665.00    0.63340   0.68982    0.007
 6666.00    0.61776   0.69144    0.007
 6667.00    0.60103   0.69126    0.007
 6668.00    0.57998   0.69034    0.007
 6669.00    0.58862   0.68733    0.007
 6670.00    0.69477   0.67884    0.007
 6671.00    0.78072   0.66467    0.007
 6672.00    0.81063   0.65219    0.007
 6673.00    0.81518   0.65008    0.007
 6674.00    0.75944   0.65737    0.007
 6675.00    0.70725   0.66576    0.007
 6676.00    0.66235   0.67079    0.007
 6677.00    0.64939   0.67402    0.007
 6678.00    0.69352   0.67698    0.007
 6679.00    0.72366   0.67893    0.007
 6680.00    0.73198   0.67911    0.007
 6681.00    0.72823   0.67804    0.007
 6682.00    0.70794   0.67708    0.007
 6683.00    0.70177   0.67735    0.007
 6684.00    0.71265   0.67861    0.007
 6685.00    0.70386   0.67966    0.007
 6686.00    0.67413   0.67977    0.007
 6687.00    0.68157   0.67884    0.007
 6688.00    0.72393   0.67626    0.007
 6689.00    0.73280   0.67133    0.007
 6690.00    0.71394   0.66552    0.007
 6691.00    0.66590   0.66232    0.007
 6692.00    0.59660   0.66387    0.007
 6693.00    0.59915   0.66912    0.007
 6694.00    0.64767   0.67515    0.007
 6695.00    0.64318   0.67875    0.007
 6696.00    0.60901   0.67803    0.000
 6697.00    0.67469   0.67390    0.000
 6698.00    0.78899   0.66979    0.000
 6699.00    0.84947   0.66886    0.000
 6700.00    0.88730   0.67125    0.000
 6701.00    0.85970   0.67443    0.000
 6702.00    0.80854   0.67600    0.000
 6703.00    0.77936   0.67529    0.000
 6704.00    0.75687   0.67310    0.000
 6705.00    0.71270   0.67088    0.000
 6706.00    0.66304   0.66886    0.000
 6707.00    0.62784   0.66557    0.000
 6708.00    0.59563   0.65989    0.000
 6709.00    0.66587   0.65211    0.000
 6710.00    0.75270   0.64360    0.000
 6711.00    0.73990   0.63736    0.000
 6712.00    0.71503   0.63738    0.000
 6713.00    0.68080   0.64415    0.000
 6714.00    0.64578   0.65263    0.000
 6715.00    0.74410   0.65791    0.000
 6716.00    0.84874   0.66031    0.000
 6717.00    0.84228   0.66233    0.000
 6718.00    0.83374   0.66382    0.000
 6719.00    0.79635   0.66312    0.000
 6720.00    0.75929   0.66101    0.000
 6721.00    0.72854   0.66034    0.000
 6722.00    0.69890   0.66235    0.000
 6723.00    0.68201   0.66562    0.000
 6724.00    0.66746   0.66820    0.000
 6725.00    0.67155   0.66901    0.000
 6726.00    0.67822   0.66797    0.000
 6727.00    0.70035   0.66623    0.000
 6728.00    0.71832   0.66548    0.000
 6729.00    0.71651   0.66617    0.000
 6730.00    0.71736   0.66669    0.000
 6731.00    0.72852   0.66493    0.000
 6732.00    0.75273   0.66100    0.000
 6733.00    0.81894   0.65770    0.000
 6734.00    0.83915   0.65720    0.000
 6735.00    0.73396   0.65808    0.000
 6736.00    0.66168   0.65764    0.000
 6737.00    0.66629   0.65620    0.000
 6738.00    0.66133   0.65614    0.000
 6739.00    0.63707   0.65736    0.000
 6740.00    0.62446   0.65735    0.000
 6741.00    0.63237   0.65506    0.000
 6742.00    0.63804   0.65162    0.000
 6743.00    0.64026   0.64861    0.000
 6744.00    0.62582   0.64721    0.000
 6745.00    0.58884   0.64742    0.000
 6746.00    0.57020   0.64804    0.000
 6747.00    0.57339   0.64883    0.000
 6748.00    0.60327   0.65118    0.000
 6749.00    0.66118   0.65532    0.000
 6750.00    0.68070   0.66000    0.000
 6751.00    0.66468   0.66455    0.000
 6752.00    0.59980   0.66864    0.000
 6753.00    0.49505   0.67147    0.008
 6754.00    0.47550   0.67250    0.008
 6755.00    0.51716   0.67188    0.008
 6756.00    0.60488   0.67057    0.008
 6757.00    0.72165   0.66970    0.009
 6758.00    0.80464   0.66894    0.009
 6759.00    0.86902   0.66638    0.009
 6760.00    0.84537   0.66124    0.009
 6761.00    0.77955   0.65584    0.009
 6762.00    0.78084   0.65351    0.009
 6763.00    0.80989   0.65441    0.009
 6764.00    0.82664   0.65561    0.009
 6765.00    0.83903   0.65598    0.009
 6766.00    0.79497   0.65782    0.009
 6767.00    0.73407   0.66272    0.009
 6768.00    0.77907   0.66903    0.008
 6769.00    0.85031   0.67404    0.008
 6770.00    0.78779   0.67654    0.008
 6771.00    0.69842   0.67717    0.008
 6772.00    0.68187   0.67739    0.008
 6773.00    0.67677   0.67759    0.008
 6774.00    0.60245   0.67613    0.008
 6775.00    0.52004   0.67097    0.008
 6776.00    0.57227   0.66203    0.008
 6777.00    0.63512   0.65183    0.008
 6778.00    0.67956   0.64412    0.008
 6779.00    0.72320   0.64147    0.008
 6780.00    0.66464   0.64388    0.008
 6781.00    0.60718   0.64933    0.009
 6782.00    0.65114   0.65483    0.009
 6783.00    0.69455   0.65803    0.009
 6784.00    0.72812   0.65897    0.009
 6785.00    0.76070   0.65894    0.008
 6786.00    0.78254   0.65792    0.008
 6787.00    0.79369   0.65556    0.008
 6788.00    0.72270   0.65332    0.008
 6789.00    0.67021   0.65295    0.008
 6790.00    0.72559   0.65431    0.008
 6791.00    0.76096   0.65627    0.008
 6792.00    0.70381   0.65816    0.008
 6793.00    0.66507   0.65997    0.008
 6794.00    0.69593   0.66194    0.008
 6795.00    0.71696   0.66375    0.008
 6796.00    0.70699   0.66443    0.008
 6797.00    0.68040   0.66357    0.008
 6798.00    0.60932   0.66201    0.008
 6799.00    0.56432   0.66077    0.008
 6800.00    0.57927   0.65985    0.008
 6801.00    0.61326   0.65915    0.008
 6802.00    0.68512   0.65902    0.008
 6803.00    0.71398   0.65902    0.008
 6804.00    0.66836   0.65881    0.008
 6805.00    0.63045   0.65913    0.008
 6806.00    0.60426   0.65986    0.008
 6807.00    0.59050   0.65922    0.008
 6808.00    0.59331   0.65664    0.008
 6809.00    0.62641   0.65456    0.008
 6810.00    0.69505   0.65575    0.008
 6811.00    0.70233   0.65926    0.008
 6812.00    0.64612   0.66128    0.008
 6813.00    0.58861   0.66016    0.008
 6814.00    0.52993   0.65833    0.008
 6815.00    0.57675   0.65894    0.008
 6816.00    0.70845   0.66231    0.008
 6817.00    0.75845   0.66616    0.008
 6818.00    0.75061   0.66853    0.008
 6819.00    0.68435   0.66889    0.008
 6820.00    0.58181   0.66692    0.008
 6821.00    0.53931   0.66263    0.008
 6822.00    0.52939   0.65804    0.008
 6823.00    0.55679   0.65646    0.008
 6824.00    0.60177   0.65873    0.008
 6825.00    0.64276   0.66198    0.008
 6826.00    0.68212   0.66348    0.008
 6827.00    0.69768   0.66377    0.008
 6828.00    0.70499   0.66478    0.008
 6829.00    0.71678   0.66622    0.008
 6830.00    0.72988   0.66599    0.009
 6831.00    0.71386   0.66302    0.009
 6832.00    0.69079   0.65771    0.009
 6833.00    0.62366   0.65077    0.009
 6834.00    0.54791   0.64329    0.008
 6835.00    0.59107   0.63755    0.008
 6836.00    0.65236   0.63633    0.008
 6837.00    0.58346   0.64073    0.008
 6838.00    0.49995   0.64865    0.008
 6839.00    0.56771   0.65614    0.008
 6840.00    0.64677   0.66058    0.009
 6841.00    0.60465   0.66213    0.008
 6842.00    0.55771   0.66214    0.008
 6843.00    0.64556   0.66127    0.008
 6844.00    0.73400   0.66001    0.008
 6845.00    0.80909   0.65911    0.008
 6846.00    0.87483   0.65837    0.008
 6847.00    0.78274   0.65591    0.008
 6848.00    0.69100   0.65056    0.008
 6849.00    0.60294   0.64452    0.008
 6850.00    0.52999   0.64171    0.008
 6851.00    0.56932   0.64299    0.008
 6852.00    0.60948   0.64555    0.008
 6853.00    0.65435   0.64633    0.008
 6854.00    0.68805   0.64415    0.008
 6855.00    0.67131   0.64104    0.008
 6856.00    0.64212   0.64169    0.008
 6857.00    0.56684   0.64799    0.008
 6858.00    0.53490   0.65554    0.008
 6859.00    0.63720   0.65833    0.008
 6860.00    0.70733   0.65495    0.008
 6861.00    0.69286   0.64886    0.008
 6862.00    0.65361   0.64470    0.008
 6863.00    0.55838   0.64477    0.008
 6864.00    0.47228   0.64703    0.008
 6865.00    0.40408   0.64779    0.008
 6866.00    0.35435   0.64662    0.008
 6867.00    0.33616   0.64626    0.008
 6868.00    0.36898   0.64794    0.008
 6869.00    0.47804   0.65056    0.009
 6870.00    0.56867   0.65373    0.009
 6871.00    0.63510   0.65774    0.009
 6872.00    0.67917   0.66132    0.009
 6873.00    0.69736   0.66210    0.009
 6874.00    0.69634   0.65893    0.009
 6875.00    0.67572   0.65293    0.008
 6876.00    0.58989   0.64721    0.008
 6877.00    0.44537   0.64521    0.008
 6878.00    0.48289   0.64752    0.008
 6879.00    0.66482   0.65144    0.008
 6880.00    0.73397   0.65486    0.008
 6881.00    0.72443   0.65834    0.008
 6882.00    0.65306   0.66240    0.008
 6883.00    0.54386   0.66598    0.008
 6884.00    0.55712   0.66829    0.008
 6885.00    0.63581   0.66918    0.008
 6886.00    0.74429   0.66864    0.008
 6887.00    0.86658   0.66716    0.008
 6888.00    0.80491   0.66540    0.008
 6889.00    0.66971   0.66370    0.008
 6890.00    0.64336   0.66276    0.008
 6891.00    0.65410   0.66317    0.008
 6892.00    0.59115   0.66397    0.009
 6893.00    0.50707   0.66352    0.009
 6894.00    0.58490   0.66228    0.009
 6895.00    0.70108   0.66246    0.009
 6896.00    0.71503   0.66454    0.009
 6897.00    0.70950   0.66653    0.009
 6898.00    0.69279   0.66712    0.009
 6899.00    0.67443   0.66743    0.009
 6900.00    0.64802   0.66903    0.009
 6901.00    0.62075   0.67176    0.009
 6902.00    0.62352   0.67403    0.009
 6903.00    0.62842   0.67465    0.008
 6904.00    0.64628   0.67324    0.008
 6905.00    0.66462   0.66998    0.008
 6906.00    0.65068   0.66556    0.008
 6907.00    0.64019   0.66090    0.008
 6908.00    0.75278   0.65741    0.008
 6909.00    0.85261   0.65643    0.008
 6910.00    0.75043   0.65748    0.008
 6911.00    0.66094   0.65911    0.008
 6912.00    0.69851   0.66114    0.008
 6913.00    0.73592   0.66394    0.009
 6914.00    0.77225   0.66720    0.009
 6915.00    0.78696   0.66967    0.009
 6916.00    0.68250   0.66939    0.008
 6917.00    0.60706   0.66510    0.008
 6918.00    0.65959   0.65822    0.009
 6919.00    0.70371   0.65297    0.009
 6920.00    0.71736   0.65298    0.009
 6921.00    0.70899   0.65778    0.009
 6922.00    0.63371   0.66363    0.009
 6923.00    0.57087   0.66743    0.009
 6924.00    0.54021   0.66843    0.008
 6925.00    0.54354   0.66695    0.008
 6926.00    0.62244   0.66386    0.008
 6927.00    0.70109   0.66142    0.008
 6928.00    0.77928   0.66206    0.008
 6929.00    0.80901   0.66508    0.008
 6930.00    0.75730   0.66744    0.008
 6931.00    0.73661   0.66813    0.008
 6932.00    0.76161   0.66877    0.009
 6933.00    0.72453   0.67081    0.009
 6934.00    0.60704   0.67355    0.009
 6935.00    0.54340   0.67467    0.009
 6936.00    0.54120   0.67223    0.009
 6937.00    0.58000   0.66643    0.009
 6938.00    0.66004   0.65973    0.009
 6939.00    0.67810   0.65617    0.009
 6940.00    0.64116   0.65854    0.009
 6941.00    0.63755   0.66514    0.009
 6942.00    0.66002   0.67124    0.009
 6943.00    0.64162   0.67362    0.009
 6944.00    0.59514   0.67170    0.009
 6945.00    0.59280   0.66705    0.009
 6946.00    0.61707   0.66260    0.008
 6947.00    0.64271   0.66025    0.008
 6948.00    0.66907   0.66051    0.009
 6949.00    0.56564   0.66346    0.009
 6950.00    0.40298   0.66795    0.008
 6951.00    0.42654   0.67157    0.008
 6952.00    0.52325   0.67309    0.008
 6953.00    0.48601   0.67338    0.008
 6954.00    0.40398   0.67376    0.008
 6955.00    0.48687   0.67472    0.008
 6956.00    0.61610   0.67591    0.009
 6957.00    0.60697   0.67671    0.009
 6958.00    0.56582   0.67647    0.009
 6959.00    0.68487   0.67514    0.009
 6960.00    0.83366   0.67447    0.009
 6961.00    0.69648   0.67636    0.009
 6962.00    0.51837   0.67951    0.009
 6963.00    0.61352   0.68055    0.009
 6964.00    0.73696   0.67860    0.009
 6965.00    0.66586   0.67623    0.009
 6966.00    0.58180   0.67597    0.009
 6967.00    0.66215   0.67664    0.009
 6968.00    0.74758   0.67476    0.009
 6969.00   -0.00193   0.66893    0.000
 6970.00   -0.70550   0.65972    0.000
 6971.00   -0.00073   0.64811    0.000
 6972.00    0.65951   0.63778   -1.000
 6973.00    0.65704   0.63544   -1.000
 6974.00    0.65324   0.64377   -1.000
 6975.00    0.63674   0.65744   -1.000
 6976.00    0.62376   0.66956   -1.000
 6977.00    0.63532   0.67732   -1.000
 6978.00    0.64741   0.68105   -1.000
 6979.00    0.66234   0.68199   -1.000
 6980.00    0.67223   0.68104   -1.000
 6981.00    0.66037   0.67837   -1.000
 6982.00    0.67576   0.67420   -1.000
 6983.00    0.78789   0.67024   -1.000
 6984.00    0.83951   0.66922   -1.000
 6985.00    0.71066   0.67184   -1.000
 6986.00    0.62784   0.67556   -1.000
 6987.00    0.66191   0.67719   -1.000
 6988.00    0.69037   0.67641   -1.000
 6989.00    0.70657   0.67548   -1.000
 6990.00    0.69922   0.67567   -1.000
 6991.00    0.64721   0.67530   -1.000
 6992.00    0.61438   0.67207   -1.000
 6993.00    0.61329   0.66668   -1.000
 6994.00    0.55665   0.66329   -1.000
 6995.00    0.41936   0.66473   -1.000
 6996.00    0.35303   0.66835   -1.000
 6997.00    0.37726   0.66928   -1.000
 6998.00    0.46880   0.66651   -1.000
 6999.00    0.63607   0.66338   -1.000
 7000.00    0.70953   0.66295   -1.000
 7001.00    0.68996   0.66541   -1.000
 7002.00    0.66155   0.66912   -1.000
 7003.00    0.62541   0.67204   -1.000
 7004.00    0.59602   0.67290   -1.000
 7005.00    0.57183   0.67259   -1.000
 7006.00    0.55342   0.67283   -1.000
 7007.00    0.53894   0.67236   -1.000
 7008.00    0.55654   0.66722   -1.000
 7009.00    0.59318   0.65687   -1.000
 7010.00    0.57628   0.64807   -1.000
 7011.00    0.53167   0.64901   -1.000
 7012.00    0.53291   0.65956   -1.000
 7013.00    0.55475   0.67177   -1.000
 7014.00    0.67329   0.67888   -1.000
 7015.00    0.82916   0.67908   -1.000
 7016.00    0.83928   0.67334   -1.000
 7017.00    0.80156   0.66493   -1.000
 7018.00    0.62578   0.65914   -1.000
 7019.00    0.41202   0.65932   -1.000
 7020.00    0.50518   0.66380   -1.000
 7021.00    0.66773   0.66871   -1.000
 7022.00    0.73267   0.67244   -1.000
 7023.00    0.77997   0.67547   -1.000
 7024.00    0.63329   0.67786   -1.000
 7025.00    0.45973   0.67876   -1.000
 7026.00    0.48586   0.67807   -1.000
 7027.00    0.53182   0.67707   -1.000
 7028.00    0.55267   0.67725   -1.000
 7029.00    0.57195   0.67839   -1.000
 7030.00    0.59624   0.67758   -1.000
 7031.00    0.62058   0.67249   -1.000
 7032.00    0.62200   0.66695   -1.000
 7033.00    0.62116   0.66864   -1.000
 7034.00    0.55857   0.67923   -1.000
 7035.00    0.49904   0.69208   -1.000
 7036.00    0.48236   0.69990   -1.000
 7037.00    0.47699   0.70042   -1.000
 7038.00    0.57586   0.69611   -1.000
 7039.00    0.64830   0.69207   -1.000
 7040.00    0.54270   0.69235   -1.000
 7041.00    0.46834   0.69662   -1.000
 7042.00    0.55728   0.70110   -1.000
 7043.00    0.62978   0.70223   -1.000
 7044.00    0.63310   0.69819   -1.000
 7045.00    0.62482   0.68833   -1.000
 7046.00    0.57616   0.67359   -1.000
 7047.00    0.55795   0.65765   -1.000
 7048.00    0.62889   0.64576   -1.000
 7049.00    0.67822   0.64142   -1.000
 7050.00    0.67362   0.64365   -2.000
 7051.00    0.64214   0.64722   -2.000
 7052.00    0.55282   0.64678   -2.000
 7053.00    0.52390   0.64150   -2.000
 7054.00    0.60778   0.63555   -2.000
 7055.00    0.63314   0.63330   -2.000
 7056.00    0.56306   0.63534   -2.000
 7057.00    0.51124   0.63944   -2.000
 7058.00    0.48554   0.64258   -2.000
 7059.00    0.51190   0.64194   -2.000
 7060.00    0.60376   0.63676   -2.000
 7061.00    0.65697   0.62977   -2.000
 7062.00    0.66733   0.62594   -2.000
 7063.00    0.72813   0.62889   -2.000
 7064.00    0.83828   0.63735   -2.000
 7065.00    0.83672   0.64626   -2.000
 7066.00    0.73881   0.65182   -2.000
 7067.00    0.65084   0.65396   -2.000
 7068.00    0.57043   0.65419   -2.000
 7069.00    0.49353   0.65367   -2.000
 7070.00    0.41898   0.65336   -2.000
 7071.00    0.39961   0.65398   -2.000
 7072.00    0.41253   0.65557   -2.000
 7073.00    0.56782   0.65762   -2.000
 7074.00    0.79570   0.65901   -2.000
 7075.00    0.81002   0.65744   -2.000
 7076.00    0.73005   0.65059   -2.000
 7077.00    0.73290   0.63909   -2.000
 7078.00    0.76715   0.62750   -2.000
 7079.00    0.65923   0.62042   -2.000
 7080.00    0.50553   0.61726   -2.000
 7081.00    0.62562   0.61392   -2.000
 7082.00    0.81945   0.60893   -2.000
 7083.00    0.85115   0.60456   -2.000
 7084.00    0.84704   0.60296   -2.000
 7085.00    0.82786   0.60397   -2.000
 7086.00    0.80602   0.60564   -2.000
 7087.00    0.78430   0.60646   -2.000
 7088.00    0.76259   0.60650   -2.000
 7089.00    0.55372   0.60666   -2.000
 7090.00    0.32706   0.60776   -2.000
 7091.00    0.56629   0.61053   -2.000
 7092.00    0.83286   0.61489   -2.000
 7093.00    0.58923   0.61920   -2.000
 7094.00    0.33585   0.62107   -2.000
 7095.00    0.46664   0.61974   -2.000
 7096.00    0.59461   0.61729   -2.000
 7097.00    0.65241   0.61688   -2.000
 7098.00    0.70519   0.61937   -2.000
 7099.00    0.69127   0.62219   -2.000
 7100.00    0.67150   0.62275   -2.000
 7101.00    0.59990   0.62157   -2.000
 7102.00    0.54722   0.62035   -2.000
 7103.00    0.61822   0.61860   -2.000
 7104.00    0.65472   0.61535   -2.000
 7105.00    0.51547   0.61236   -2.000
 7106.00    0.41102   0.61253   -2.000
 7107.00    0.44977   0.61595   -2.000
 7108.00    0.46822   0.62010   -2.000
 7109.00    0.41752   0.62324   -2.000
 7110.00    0.42254   0.62525   -2.000
 7111.00    0.58761   0.62629   -2.000
 7112.00    0.69499   0.62638   -2.000
 7113.00    0.66079   0.62564   -2.000
 7114.00    0.68515   0.62413   -2.000
 7115.00    0.83345   0.62221   -2.000
 7116.00    0.83329   0.62087   -2.000
 7117.00    0.56018   0.61996   -2.000
 7118.00    0.38523   0.61692   -2.000
 7119.00    0.36799   0.61020   -2.000
 7120.00    0.53047   0.60278   -2.000
 7121.00    0.94630   0.59849   -2.000
 7122.00    1.10603   0.59656   -2.000
 7123.00    0.94811   0.59342   -2.000
 7124.00    0.80057   0.58888   -2.000
 7125.00    0.66437   0.58687   -2.000
 7126.00    0.51464   0.59005   -2.000
 7127.00    0.35187   0.59665   -2.000
 7128.00    0.39567   0.60306   -2.000
 7129.00    0.61512   0.60720   -2.000
 7130.00    0.64592   0.60908   -2.000
 7131.00    0.53545   0.60893   -2.000
 7132.00    0.42194   0.60699   -2.000
 7133.00    0.30644   0.60512   -2.000
 7134.00    0.34497   0.60578   -2.000
 7135.00    0.47221   0.60858   -2.000
 7136.00    0.52243   0.61094   -2.000
 7137.00    0.53399   0.61158   -2.000
 7138.00    0.51488   0.61100   -2.000
 7139.00    0.48244   0.60913   -2.000
 7140.00    0.40859   0.60481   -2.000
 7141.00    0.31931   0.59826   -2.000
 7142.00    0.35275   0.59325   -2.000
 7143.00    0.42497   0.59373   -2.000
 7144.00    0.45220   0.59943   -2.000
 7145.00    0.46756   0.60724   -2.000
 7146.00    0.38308   0.61453   -2.000
 7147.00    0.27707   0.61920   -2.000
 7148.00    0.30858   0.62034   -2.000
 7149.00    0.36360   0.62017   -2.000
 7150.00    0.41927   0.62148   -2.000
 7151.00    0.47502   0.62322   -2.000
 7152.00    0.48145   0.62213   -2.000
 7153.00    0.48340   0.61825   -2.000
 7154.00    0.35644   0.61513   -2.000
 7155.00    0.22243   0.61444   -2.000
 7156.00    0.46744   0.61319   -2.000
 7157.00    0.71876   0.60789   -2.000
 7158.00    0.82227   0.60058   -2.000
 7159.00    0.90209   0.59782   -2.000
 7160.00    0.44417   0.60295   -2.000
 7161.00    0.01073   0.61222   -2.000
 7162.00   -0.11423   0.61944   -2.000
 7163.00   -0.18507   0.62251   -2.000
 7164.00    0.20580   0.62396   -2.000
 7165.00    0.59982   0.62649   -2.000
 7166.00    1.01382   0.62954   -2.000
 7167.00    1.26152   0.63059   -2.000
 7168.00    0.68349   0.62831   -2.000
 7169.00    0.25177   0.62420   -2.000
 7170.00    0.40893   0.62162   -2.000
 7171.00    0.51325   0.62208   -2.000
 7172.00    0.44103   0.62253   -2.000
 7173.00    0.39056   0.61881   -2.000
 7174.00    0.40148   0.61214   -2.000
 7175.00    0.41036   0.60891   -2.000
 7176.00    0.41433   0.61317   -2.000
 7177.00    0.40646   0.62161   -2.000
 7178.00    0.37394   0.62708   -2.000
 7179.00    0.40170   0.62515   -2.000
 7180.00    0.53857   0.61680   -2.000
 7181.00    0.57404   0.60700   -2.000
 7182.00    0.44900   0.60143   -2.000
 7183.00    0.43487   0.60256   -2.000
 7184.00    0.57485   0.60821   -2.000
 7185.00    0.57367   0.61383   -2.000
 7186.00    0.39986   0.61666   -2.000
 7187.00    0.35125   0.61786   -2.000
 7188.00    0.43758   0.61942   -2.000
 7189.00    0.48301   0.62056   -2.000
 7190.00    0.48956   0.61951   -2.000
 7191.00    0.53896   0.61747   -2.000
 7192.00    0.62429   0.61704   -2.000
 7193.00    0.61923   0.61788   -2.000
 7194.00    0.54743   0.61751   -2.000
 7195.00   -0.31849   0.61579   -2.000
 7196.00   -1.69924   0.61581   -2.000
 7197.00   -1.09071   0.61912   -2.000
 7198.00    0.64631   0.62217   -2.000
 7199.00    1.19775   0.61936   -2.000
 7200.00    1.16369   0.60995   -2.000
 7201.00    1.08300   0.60018   -2.000
 7202.00    0.98240   0.59749   -2.000
 7203.00    0.88119   0.60358   -2.000
 7204.00    0.77976   0.61391   -2.000
 7205.00    0.74692   0.62204   -2.000
 7206.00    0.73533   0.62418   -2.000
 7207.00    0.69458   0.62160   -2.000
 7208.00    0.64632   0.61845   -2.000
 7209.00    0.63778   0.61796   -2.000
 7210.00    0.63760   0.62098   -2.000
 7211.00    0.56036   0.62602   -2.000
 7212.00    0.47031   0.63006   -2.000
 7213.00    0.52602   0.63084   -2.000
 7214.00    0.59995   0.62892   -2.000
 7215.00    0.51610   0.62630   -2.000
 7216.00    0.41858   0.62454   -2.000
 7217.00    0.40101   0.62495   -2.000
 7218.00    0.38749   0.62838   -2.000
