###################################################################
## OUTPUT of StarlightChains_v04.for    [Cid@UFSC - 01/Apr/2007] ##
###################################################################

## Some input info
KUG0210-078._28_23.txt                   [arq_obs]
Base.CB07.vall.4m                        [arq_base]
Masks.EmLines.NEW.gm                     [arq_masks]
StCv04.C11.config                        [arq_config]
   66                                    [N_base]
    0                                    [N_YAV_components = # of components with extra extinction!]
    0                                    [i_FitPowerLaw (1/0 = Yes/No)]
-9.99                                    [alpha_PowerLaw]
CCM                                      [red_law_option]
 1.458241                                [q_norm = A(l_norm)/A(V)]

## (Re)Sampling Parameters
 3741.00                                 [l_ini (A)]
 7218.00                                 [l_fin (A)]
    1.00                                 [dl    (A)]     (OBS: dl_cushion =    50.00 A)

## Normalization info
 4020.00                                 [l_norm (A) - for base]
 4010.00                                 [llow_norm (A) - window for f_obs]
 4060.00                                 [lupp_norm (A) - window for f_obs]
1.061759E-17                             [fobs_norm (in input units)]

## S/N
 3691.00                                 [llow_SN (A) - window for S/N]
 7268.00                                 [lupp_SN (A) - window for S/N]
   5.002                                 [S/N in S/N window]
   5.163                                 [S/N in norm. window]
   0.014                                 [S/N_err in S/N window]
   0.014                                 [S/N_err in norm. window]
  1.0000                                 [fscale_chi2]

## etc...
    -2007371                             [idum_orig]
  2418                                   [NOl_eff]
  2134                                   [Nl_eff]
   284    NSIGMA                         [Ntot_cliped & clip_method]
  2941470                                [Nglobal_steps]
   7                                     [N_chains]
  30                                     [NEX0s_base = N_base in EX0s-fits]
 0   0   1      284   2.0   7.959E+03    [Clip-Bug, RC-Crash & Burn-In warning-flags, n_censored_weights, wei_nsig_threshold & wei_limit]
    34     33.882     33.440      0.443  [idt_all, wdt_TotTime, wdt_UsrTime & wdt_SysTime (sec)]

## Synthesis Results - Best model ##

 4.03706E-06                             [chi2/Nl_eff]
     9.48594                             [adev (%)]

   103.76316                             [sum-of-x (%)]
 9.79403E-18                             [Flux_tot (units of input spectrum!)]
 4.33492E-13                             [Mini_tot (???)]
 2.21442E-13                             [Mcor_tot (???)]

  81.71                                  [v0_min  (km/s)]
 220.76                                  [vd_min  (km/s)]
-0.0876                                  [AV_min  (mag)]
 0.0000                                  [YAV_min (mag)]

# j     x_j(%)      Mini_j(%)     Mcor_j(%)     age_j(yr)     Z_j      (L/M)_j    YAV?  Mstars   component_j        a/Fe...       SSP_chi2r SSP_adev(%)   SSP_AV   SSP_x(%)
  1      2.0949     4.1695E-03    8.1621E-03    1.000000E+06  0.00400  1.094E-02    0   1.0000   age020_m42            0.0000     5.2102E-06    11.5207   3.0088    90.5997
  2      0.0000     0.0000E+00    0.0000E+00    3.160000E+06  0.00400  4.007E-02    0   0.9999   age045_m42            0.0000     5.0593E-06    11.1199   2.3541    93.9855
  3      0.0000     0.0000E+00    0.0000E+00    5.010000E+06  0.00400  2.539E-02    0   0.9488   age055_m42            0.0000     5.0591E-06    11.2136   2.6401    93.0449
  4      0.0000     0.0000E+00    0.0000E+00    6.610000E+06  0.00400  2.620E-02    0   0.9220   age061_m42            0.0000     4.9624E-06    10.9667   2.2793    94.3131
  5      0.0000     0.0000E+00    0.0000E+00    1.000000E+07  0.00400  1.322E-02    0   0.8862   age070_m42            0.0000     4.6944E-06    10.4242   1.9778    97.6555
  6      0.0000     0.0000E+00    0.0000E+00    1.445000E+07  0.00400  7.883E-03    0   0.8571   age078_m42            0.0000     4.7770E-06    10.5881   2.2898    95.6948
  7      0.0000     0.0000E+00    0.0000E+00    2.512000E+07  0.00400  5.251E-03    0   0.8174   age090_m42            0.0000     4.6700E-06    10.3521   1.8499    98.2176
  8      0.0000     0.0000E+00    0.0000E+00    4.000000E+07  0.00400  3.649E-03    0   0.7851   age104_m42            0.0000     4.6324E-06    10.3110   1.6348    98.4886
  9      0.0000     0.0000E+00    0.0000E+00    5.500000E+07  0.00400  3.098E-03    0   0.7629   age110_m42            0.0000     4.7438E-06    10.4707   1.8093    97.3832
 10      0.0000     0.0000E+00    0.0000E+00    1.015200E+08  0.00400  2.228E-03    0   0.7207   age116_m42            0.0000     4.8016E-06    10.5477   1.8440    96.8374
 11      9.9973     1.9916E-01    2.5919E-01    2.861200E+08  0.00400  1.093E-03    0   0.6648   age125_m42            0.0000     4.6638E-06    10.2255   1.2816    99.5154
 12      0.0000     0.0000E+00    0.0000E+00    5.088000E+08  0.00400  6.597E-04    0   0.6365   age130_m42            0.0000     4.6678E-06    10.2494   1.2949    99.1943
 13      0.0000     0.0000E+00    0.0000E+00    1.434000E+09  0.00400  2.132E-04    0   0.5798   age139_m42            0.0000     4.3269E-06     9.8510   0.3525   100.0194
 14      0.0000     0.0000E+00    0.0000E+00    4.250000E+09  0.00400  5.895E-05    0   0.5377   age158_m42            0.0000     4.2368E-06     9.9901  -0.0936    96.1904
 15      0.0000     0.0000E+00    0.0000E+00    7.500000E+09  0.00400  3.510E-05    0   0.5212   age171_m42            0.0000     4.2255E-06     9.9966  -0.2754    95.1933
 16      0.0000     0.0000E+00    0.0000E+00    1.300000E+10  0.00400  2.005E-05    0   0.5034   age193_m42            0.0000     4.2381E-06    10.0318  -0.4380    94.4812
 17      0.0000     0.0000E+00    0.0000E+00    1.800000E+10  0.00400  1.525E-05    0   0.4967   age213_m42            0.0000     4.2445E-06    10.0191  -0.4640    94.2049
 18     11.9072     2.0942E-02    4.0996E-02    1.000000E+06  0.00800  1.238E-02    0   1.0000   age020_m52            0.0000     5.2093E-06    11.5196   3.0051    90.7776
 19      0.0000     0.0000E+00    0.0000E+00    3.160000E+06  0.00800  3.074E-02    0   0.9966   age045_m52            0.0000     5.1831E-06    11.4999   2.9334    91.4050
 20      0.0000     0.0000E+00    0.0000E+00    5.010000E+06  0.00800  2.668E-02    0   0.9443   age055_m52            0.0000     5.0436E-06    11.2203   2.7118    92.6532
 21      0.0000     0.0000E+00    0.0000E+00    6.610000E+06  0.00800  2.136E-02    0   0.9177   age061_m52            0.0000     4.4649E-06    10.2599   1.4730    99.0066
 22      0.0000     0.0000E+00    0.0000E+00    1.000000E+07  0.00800  1.215E-02    0   0.8827   age070_m52            0.0000     4.6798E-06    10.3428   2.1404    98.1972
 23      0.0000     0.0000E+00    0.0000E+00    1.445000E+07  0.00800  8.717E-03    0   0.8552   age078_m52            0.0000     4.7376E-06    10.4905   2.2601    96.8601
 24      1.2754     4.9659E-03    7.9345E-03    2.512000E+07  0.00800  5.592E-03    0   0.8162   age090_m52            0.0000     4.6541E-06    10.2476   1.9194    99.1701
 25      0.0000     0.0000E+00    0.0000E+00    4.000000E+07  0.00800  3.896E-03    0   0.7841   age104_m52            0.0000     4.6621E-06    10.2585   1.8485    99.0954
 26      0.0000     0.0000E+00    0.0000E+00    1.015200E+08  0.00800  2.148E-03    0   0.7226   age116_m52            0.0000     4.6904E-06    10.3760   1.8070    97.8940
 27      2.1343     4.6823E-02    6.1257E-02    2.861200E+08  0.00800  9.925E-04    0   0.6683   age125_m52            0.0000     4.6098E-06    10.2015   1.3579   100.2338
 28      0.0000     0.0000E+00    0.0000E+00    9.047900E+08  0.00800  3.141E-04    0   0.6138   age135_m52            0.0000     4.4110E-06     9.9280   0.6131   101.8457
 29      0.0000     0.0000E+00    0.0000E+00    1.434000E+09  0.00800  1.719E-04    0   0.5853   age139_m52            0.0000     4.2053E-06     9.7042   0.0148   100.5639
 30      0.0000     0.0000E+00    0.0000E+00    2.500000E+09  0.00800  7.872E-05    0   0.5600   age150_m52            0.0000     4.2115E-06     9.9128  -0.2440    97.3415
 31      4.8278     2.4243E+00    2.5751E+00    4.250000E+09  0.00800  4.336E-05    0   0.5426   age158_m52            0.0000     4.2194E-06     9.9367  -0.2588    96.3987
 32      0.0000     0.0000E+00    0.0000E+00    6.250000E+09  0.00800  3.159E-05    0   0.5319   age166_m52            0.0000     4.2500E-06    10.0109  -0.4494    95.8150
 33      0.0000     0.0000E+00    0.0000E+00    1.300000E+10  0.00800  1.361E-05    0   0.5073   age193_m52            0.0000     4.3557E-06    10.1573  -0.9055    94.6208
 34      9.6751     2.1309E+01    2.0816E+01    1.800000E+10  0.00800  9.886E-06    0   0.4990   age213_m52            0.0000     4.4891E-06    10.3272  -1.0000    93.5280
 35      3.3397     4.7098E-03    9.2198E-03    1.000000E+06  0.02000  1.544E-02    0   1.0000   age020_m62            0.0000     5.2128E-06    11.5281   2.9992    91.0667
 36      0.0000     0.0000E+00    0.0000E+00    3.160000E+06  0.02000  3.762E-02    0   0.9858   age045_m62            0.0000     5.1884E-06    11.5330   2.9357    91.9445
 37      0.0000     0.0000E+00    0.0000E+00    5.010000E+06  0.02000  3.296E-02    0   0.9342   age055_m62            0.0000     5.0471E-06    11.1867   2.6119    93.6935
 38      0.0000     0.0000E+00    0.0000E+00    8.710000E+06  0.02000  1.154E-02    0   0.8861   age067_m62            0.0000     4.5966E-06    10.0908   1.5284   104.8016
 39      0.0991     2.8156E-04    4.6695E-04    1.445000E+07  0.02000  7.663E-03    0   0.8472   age078_m62            0.0000     4.5584E-06    10.0744   1.7745   101.2399
 40      0.0000     0.0000E+00    0.0000E+00    2.512000E+07  0.02000  4.532E-03    0   0.8099   age090_m62            0.0000     4.5818E-06    10.0660   1.7681   100.9455
 41      0.0000     0.0000E+00    0.0000E+00    5.500000E+07  0.02000  2.733E-03    0   0.7595   age110_m62            0.0000     4.6049E-06    10.1870   1.8211    98.8323
 42      0.0000     0.0000E+00    0.0000E+00    1.609000E+08  0.02000  1.369E-03    0   0.6985   age120_m62            0.0000     4.6641E-06    10.2773   1.6986    99.6433
 43      2.4255     5.8597E-02    7.7016E-02    2.861200E+08  0.02000  9.013E-04    0   0.6714   age125_m62            0.0000     4.6481E-06    10.2226   1.4767   101.2160
 44      0.0000     0.0000E+00    0.0000E+00    5.088000E+08  0.02000  5.028E-04    0   0.6449   age130_m62            0.0000     4.6399E-06    10.2452   1.1396   101.8501
 45      0.0000     0.0000E+00    0.0000E+00    9.047900E+08  0.02000  2.428E-04    0   0.6179   age135_m62            0.0000     4.3507E-06     9.9886   0.5645   100.6850
 46      0.0000     0.0000E+00    0.0000E+00    1.434000E+09  0.02000  1.263E-04    0   0.5908   age139_m62            0.0000     4.2058E-06     9.8792   0.1162    99.3959
 47      0.0000     0.0000E+00    0.0000E+00    2.500000E+09  0.02000  5.985E-05    0   0.5673   age150_m62            0.0000     4.2748E-06    10.0499  -0.2476    97.8083
 48      0.0000     0.0000E+00    0.0000E+00    4.250000E+09  0.02000  3.271E-05    0   0.5468   age158_m62            0.0000     4.4303E-06    10.2832  -0.5391    96.2551
 49      0.0000     0.0000E+00    0.0000E+00    1.000000E+10  0.02000  1.360E-05    0   0.5167   age181_m62            0.0000     4.6806E-06    10.5188  -0.8665    94.8798
 50      0.0000     0.0000E+00    0.0000E+00    1.800000E+10  0.02000  7.124E-06    0   0.5013   age213_m62            0.0000     4.9949E-06    10.5566  -1.0000    91.5541
 51      2.7756     2.3316E-03    4.5635E-03    1.000000E+06  0.05000  2.592E-02    0   0.9998   age020_m72            0.0000     5.2253E-06    11.5395   2.9845    91.3565
 52      0.0000     0.0000E+00    0.0000E+00    3.160000E+06  0.05000  4.845E-02    0   0.9577   age045_m72            0.0000     5.1698E-06    11.4570   2.8411    92.2886
 53      0.0000     0.0000E+00    0.0000E+00    5.010000E+06  0.05000  3.072E-02    0   0.9147   age055_m72            0.0000     4.7478E-06    10.5031   2.3510    97.2728
 54     19.5531     2.9261E-02    5.0848E-02    6.610000E+06  0.05000  1.455E-02    0   0.8877   age061_m72            0.0000     5.2400E-06    11.4992   1.5320   107.4763
 55      0.0000     0.0000E+00    0.0000E+00    1.000000E+07  0.05000  9.074E-03    0   0.8524   age070_m72            0.0000     4.9933E-06    11.1495   2.5173    97.2536
 56      0.0000     0.0000E+00    0.0000E+00    2.512000E+07  0.05000  4.250E-03    0   0.7902   age090_m72            0.0000     4.8352E-06    10.5783   2.2564    97.7899
 57      0.0000     0.0000E+00    0.0000E+00    4.000000E+07  0.05000  3.087E-03    0   0.7618   age104_m72            0.0000     4.8200E-06    10.4510   2.0385    99.1227
 58      0.0000     0.0000E+00    0.0000E+00    1.015200E+08  0.05000  1.700E-03    0   0.7096   age116_m72            0.0000     4.7038E-06    10.2517   1.8299    99.7730
 59      0.0000     0.0000E+00    0.0000E+00    2.861200E+08  0.05000  7.384E-04    0   0.6633   age125_m72            0.0000     4.6207E-06    10.1388   1.3703   101.3819
 60      0.0000     0.0000E+00    0.0000E+00    5.088000E+08  0.05000  3.819E-04    0   0.6372   age130_m72            0.0000     4.4820E-06    10.0813   0.9062   101.6460
 61      0.0000     0.0000E+00    0.0000E+00    9.047900E+08  0.05000  1.676E-04    0   0.6110   age135_m72            0.0000     4.3374E-06    10.1570   0.2185    99.3498
 62      0.0000     0.0000E+00    0.0000E+00    1.434000E+09  0.05000  8.837E-05    0   0.5874   age139_m72            0.0000     4.2603E-06     9.9693  -0.2373    98.7719
 63      0.0000     0.0000E+00    0.0000E+00    2.500000E+09  0.05000  4.233E-05    0   0.5598   age150_m72            0.0000     4.5002E-06    10.3513  -0.5353    96.8741
 64     20.0623     3.0441E+01    3.1280E+01    6.250000E+09  0.05000  1.435E-05    0   0.5249   age166_m72            0.0000     4.7858E-06    10.6285  -0.9613    94.3731
 65     13.5960     4.5454E+01    4.4810E+01    1.300000E+10  0.05000  6.513E-06    0   0.5036   age193_m72            0.0000     5.5300E-06    10.5019  -1.0000    87.5456
 66      0.0000     0.0000E+00    0.0000E+00    1.800000E+10  0.05000  4.527E-06    0   0.4945   age213_m72            0.0000     6.3437E-06    10.8638  -1.0000    82.3366


## Synthesis Results - Average & Chains ##

# j      x_j: min, <> & last-chain-values for 1 ...  7 chains
  1      2.0949      2.2763      2.8434      2.7526      3.0041      2.8240      3.0437      3.0102      2.7887
  2      0.0000      0.5397      0.0932      0.0000      0.6122      0.1079      0.1941      0.0518      0.0249
  3      0.0000      0.5746      0.1251      0.3506      0.2406      0.0033      0.2455      0.1551      0.1396
  4      0.0000      0.8380      0.1015      0.4073      0.0000      0.0633      0.1329      0.0520      0.0000
  5      0.0000      0.5698      0.1721      0.0000      0.5500      0.5465      0.0414      0.0000      0.7762
  6      0.0000      0.4651      0.0507      0.1212      0.0000      0.0000      0.0000      0.3901      0.0000
  7      0.0000      0.7147      0.0000      0.7511      0.0304      0.1603      0.1235      0.0028      0.0000
  8      0.0000      0.6287      0.3121      0.0243      0.4803      0.1655      0.1533      0.0000      0.1300
  9      0.0000      0.5945      0.0000      0.2454      0.5335      0.0068      0.0971      0.1085      0.0743
 10      0.0000      0.6190      0.3586      0.0000      0.1535      0.0503      0.0375      0.4008      0.0000
 11      9.9973      0.6778      0.0856      0.0000      0.5884      0.1681      0.0000      0.0000      0.1224
 12      0.0000      1.1288      0.3505      0.0260      0.3898      0.0000      0.0000      0.1110      0.3912
 13      0.0000      0.5738      0.0000      0.0126      0.0000      0.1062      0.0537      0.0000      0.0000
 14      0.0000      0.6133      0.0577      0.0129      0.0000      0.0652      0.0422      0.2071      0.0824
 15      0.0000      0.6656      0.0972      0.0678      0.2729      0.1112      0.2663      0.0844      0.0000
 16      0.0000      0.4503      0.0000      0.5710      0.0917      0.0120      0.0682      0.4567      0.2189
 17      0.0000      0.6153      0.3142      0.1079      0.0000      0.0746      0.2070      0.2280      0.0000
 18     11.9072      1.6476      2.3411      2.5802      1.7793      2.3359      2.4058      2.3240      2.1606
 19      0.0000      0.5080      0.2316      0.0000      0.1658      0.1265      0.2843      0.3541      0.0000
 20      0.0000      0.6380      0.0000      0.0080      0.1755      0.4504      0.0978      0.2285      0.6263
 21      0.0000      0.7152      0.1111      0.0000      0.0135      0.1131      0.0481      0.0417      0.4496
 22      0.0000      0.7820      0.2857      0.2895      0.0026      0.0225      0.0601      0.0968      0.1561
 23      0.0000      0.6185      0.0734      0.0220      1.0012      0.1672      0.1352      0.1953      0.0887
 24      1.2754      0.6041      0.0497      0.2551      0.2684      0.0109      0.1602      0.0220      0.0000
 25      0.0000      0.5004      0.0238      0.0000      0.0840      0.3253      0.0201      0.0491      0.3885
 26      0.0000      0.6172      0.4306      0.0316      0.0000      0.0000      0.4743      0.0923      0.0000
 27      2.1343      0.6791      0.0010      0.0000      0.3660      0.1399      0.0414      0.0000      0.1988
 28      0.0000      0.8024      0.0511      0.0585      0.3769      0.0226      0.0216      0.0734      0.4081
 29      0.0000      0.6124      0.1821      0.3654      0.0000      0.0000      0.0000      0.0559      0.0000
 30      0.0000      0.6988      0.1164      0.0972      0.0893      0.2147      0.1732      0.3782      0.0000
 31      4.8278      0.6677      0.0464      0.0496      0.2139      0.0000      0.4285      0.0560      0.0627
 32      0.0000      0.7066      0.0000      0.2140      0.0000      0.0000      0.1092      0.2625      0.0000
 33      0.0000      0.7462      0.0194      0.1166      0.4226      0.1879      0.0000      0.3272      0.3415
 34      9.6751      0.7603      0.0252      0.0382      0.7202      0.2245      0.0338      0.0528      0.0000
 35      3.3397      1.5819      1.8795      1.7133      1.6191      1.6543      1.8236      2.2533      1.8586
 36      0.0000      0.6279      0.0673      0.0000      0.0755      0.0000      0.0000      0.0000      0.0000
 37      0.0000      0.8087      0.1342      0.2246      0.0677      0.3047      0.3987      0.5576      0.1648
 38      0.0000      0.8563      0.0000      0.0192      0.1913      0.3282      0.2765      0.0000      0.0000
 39      0.0991      0.5975      0.0011      0.0000      0.3708      0.1791      0.0000      0.0724      0.0269
 40      0.0000      0.6685      0.0000      0.0993      0.1141      0.0522      0.2531      0.2242      0.3352
 41      0.0000      0.5203      0.2135      0.0333      0.0803      0.0000      0.0867      0.3302      0.0000
 42      0.0000      0.4603      0.0781      0.0410      0.0757      0.0000      0.0000      0.2453      0.0000
 43      2.4255      0.7679      0.0000      0.0000      0.1847      0.0799      0.1124      0.1326      0.0000
 44      0.0000      1.5081      1.7027      1.7623      1.6228      1.7138      1.3791      1.5634      1.1543
 45      0.0000      0.4574      0.2296      0.1402      0.0703      0.0493      0.0344      0.4669      0.1434
 46      0.0000      0.4397      0.1221      0.0000      0.1118      0.0000      0.0120      0.0000      0.0207
 47      0.0000      0.5837      0.0584      0.1973      0.0000      0.3830      0.0763      0.0960      0.1782
 48      0.0000      0.6158      0.2967      0.0457      0.1759      0.0000      0.0862      0.0000      0.2783
 49      0.0000      0.6242      0.1489      0.1454      0.0714      0.0000      0.2324      0.0283      0.1790
 50      0.0000      0.6112      0.4554      0.0446      0.1491      0.0878      0.3540      0.0857      0.1359
 51      2.7756     19.0091     27.2034     26.2494     25.2181     26.5818     26.1173     25.9336     26.5551
 52      0.0000      0.6679      0.0000      0.4048      0.0000      0.0429      0.0995      0.0000      0.0000
 53      0.0000      0.8148      0.1230      0.0971      0.0000      0.0398      0.0053      0.3994      0.0000
 54     19.5531      0.7407      0.1227      0.3238      0.2378      0.0427      0.1292      0.0000      0.0000
 55      0.0000      0.7028      0.1285      0.0131      0.0285      0.1962      0.2224      0.1336      0.0000
 56      0.0000      0.6830      0.0000      0.0051      0.1053      0.0000      0.3532      0.0085      0.0000
 57      0.0000      0.6633      0.1942      0.0142      0.0383      0.2571      0.0000      0.0000      0.0583
 58      0.0000      0.5501      0.0000      0.3328      0.1664      0.0000      0.0502      0.0698      0.1592
 59      0.0000      4.6168      6.0274      5.9399      5.4317      6.1365      6.2148      5.3699      5.9553
 60      0.0000      0.7114      0.1086      0.3607      0.1997      0.2283      0.3740      0.0000      0.0873
 61      0.0000      0.5707      0.0984      0.2636      0.1951      0.1662      0.3925      0.0763      0.0467
 62      0.0000      0.7369      0.0000      0.3262      0.0000      0.0006      0.0000      0.0000      0.4159
 63      0.0000      0.5432      0.2049      0.0000      0.0357      0.0476      0.0000      0.0000      0.0230
 64     20.0623      0.6125      0.0000      0.1665      0.3823      0.0528      0.0000      0.3232      0.0608
 65     13.5960     22.1299     30.9940     30.5729     29.9865     31.5437     30.7022     30.8753     31.2961
 66      0.0000     26.0502     36.5080     37.1618     36.3053     37.2578     37.2329     37.0711     37.2742

# j      m_j: min, <> & last-chain-values for 1 ...  7 chains
  1  8.1621E-03  4.3025E-03  4.0242E-03  3.8792E-03  4.2976E-03  3.9366E-03  4.2725E-03  4.2251E-03  3.8916E-03
  2  0.0000E+00  2.7849E-04  3.5999E-05  0.0000E+00  2.3910E-04  4.1058E-05  7.4397E-05  1.9842E-05  9.4846E-06
  3  0.0000E+00  4.4397E-04  7.2354E-05  2.0198E-04  1.4072E-04  1.8612E-06  1.4086E-04  8.8983E-05  7.9668E-05
  4  0.0000E+00  6.0981E-04  5.5287E-05  2.2097E-04  0.0000E+00  3.3965E-05  7.1807E-05  2.8103E-05  0.0000E+00
  5  0.0000E+00  7.8977E-04  1.7866E-04  0.0000E+00  5.7698E-04  5.5868E-04  4.2651E-05  0.0000E+00  7.9435E-04
  6  0.0000E+00  1.0457E-03  8.5269E-05  2.0318E-04  0.0000E+00  0.0000E+00  0.0000E+00  6.5128E-04  0.0000E+00
  7  0.0000E+00  2.3006E-03  0.0000E+00  1.8026E-03  7.4065E-05  3.8050E-04  2.9525E-04  6.5775E-06  0.0000E+00
  8  0.0000E+00  2.7969E-03  1.0397E-03  8.0531E-05  1.6175E-03  5.4306E-04  5.0639E-04  0.0000E+00  4.2712E-04
  9  0.0000E+00  3.0270E-03  0.0000E+00  9.3156E-04  2.0562E-03  2.5652E-05  3.6710E-04  4.1030E-04  2.7930E-04
 10  0.0000E+00  4.1402E-03  1.7963E-03  0.0000E+00  7.7695E-04  2.4823E-04  1.8652E-04  1.9910E-03  0.0000E+00
 11  2.5919E-01  8.5248E-03  8.0576E-04  0.0000E+00  5.6007E-03  1.5594E-03  0.0000E+00  0.0000E+00  1.1367E-03
 12  0.0000E+00  2.2521E-02  5.2356E-03  3.8709E-04  5.8867E-03  0.0000E+00  0.0000E+00  1.6443E-03  5.7620E-03
 13  0.0000E+00  3.2268E-02  0.0000E+00  5.2767E-04  0.0000E+00  4.4042E-03  2.2430E-03  0.0000E+00  0.0000E+00
 14  0.0000E+00  1.1567E-01  8.1466E-03  1.8170E-03  0.0000E+00  9.0751E-03  5.9135E-03  2.9006E-02  1.1471E-02
 15  0.0000E+00  2.0436E-01  2.2346E-02  1.5516E-02  6.3417E-02  2.5187E-02  6.0723E-02  1.9251E-02  0.0000E+00
 16  0.0000E+00  2.3376E-01  0.0000E+00  2.2103E-01  3.6017E-02  4.6002E-03  2.6294E-02  1.7606E-01  8.3916E-02
 17  0.0000E+00  4.1438E-01  1.5847E-01  5.4176E-02  0.0000E+00  3.7061E-02  1.0353E-01  1.1405E-01  0.0000E+00
 18  4.0996E-02  2.7520E-03  2.9279E-03  3.2134E-03  2.2493E-03  2.8775E-03  2.9842E-03  2.8825E-03  2.6644E-03
 19  0.0000E+00  3.4055E-04  1.1624E-04  0.0000E+00  8.4138E-05  6.2557E-05  1.4156E-04  1.7630E-04  0.0000E+00
 20  0.0000E+00  4.6692E-04  0.0000E+00  4.3667E-06  9.7187E-05  2.4308E-04  5.3145E-05  1.2416E-04  3.3844E-04
 21  0.0000E+00  6.3540E-04  7.3875E-05  0.0000E+00  9.0587E-06  7.4125E-05  3.1723E-05  2.7528E-05  2.9489E-04
 22  0.0000E+00  1.1748E-03  3.2136E-04  3.2429E-04  2.9036E-06  2.4918E-05  6.7060E-05  1.0799E-04  1.7315E-04
 23  0.0000E+00  1.2547E-03  1.1148E-04  3.3352E-05  1.5372E-03  2.5016E-04  2.0373E-04  2.9427E-04  1.3283E-04
 24  7.9345E-03  1.8233E-03  1.1228E-04  5.7398E-04  6.1302E-04  2.4201E-05  3.5902E-04  4.9270E-05  0.0000E+00
 25  0.0000E+00  2.0826E-03  7.4022E-05  0.0000E+00  2.6468E-04  9.9836E-04  6.2210E-05  1.5163E-04  1.1936E-03
 26  0.0000E+00  4.2934E-03  2.2428E-03  1.6382E-04  0.0000E+00  0.0000E+00  2.4500E-03  4.7656E-04  0.0000E+00
 27  6.1257E-02  9.4555E-03  1.0002E-05  0.0000E+00  3.8569E-03  1.4369E-03  4.2838E-04  0.0000E+00  2.0436E-03
 28  0.0000E+00  3.2424E-02  1.5450E-03  1.7614E-03  1.1528E-02  6.7434E-04  6.4794E-04  2.2036E-03  1.2174E-02
 29  0.0000E+00  4.3115E-02  9.6022E-03  1.9181E-02  0.0000E+00  0.0000E+00  0.0000E+00  2.9252E-03  0.0000E+00
 30  0.0000E+00  1.0280E-01  1.2825E-02  1.0662E-02  9.9440E-03  2.3290E-02  1.8919E-02  4.1315E-02  0.0000E+00
 31  2.5751E+00  1.7278E-01  8.9863E-03  9.5600E-03  4.1887E-02  0.0000E+00  8.2341E-02  1.0751E-02  1.1972E-02
 32  0.0000E+00  2.4600E-01  0.0000E+00  5.5554E-02  0.0000E+00  0.0000E+00  2.8235E-02  6.7876E-02  0.0000E+00
 33  0.0000E+00  5.7515E-01  1.1225E-02  6.6991E-02  2.4652E-01  1.0679E-01  0.0000E+00  1.8729E-01  1.9432E-01
 34  2.0816E+01  7.9355E-01  1.9692E-02  2.9738E-02  5.6894E-01  1.7279E-01  2.6225E-02  4.0911E-02  0.0000E+00
 35  9.2198E-03  2.1185E-03  1.8847E-03  1.7108E-03  1.6412E-03  1.6340E-03  1.8137E-03  2.2409E-03  1.8377E-03
 36  0.0000E+00  3.4020E-04  2.7310E-05  0.0000E+00  3.0974E-05  0.0000E+00  0.0000E+00  0.0000E+00  0.0000E+00
 37  0.0000E+00  4.7399E-04  5.8892E-05  9.8168E-05  3.0047E-05  1.3172E-04  1.7355E-04  2.4266E-04  7.1314E-05
 38  0.0000E+00  1.3596E-03  0.0000E+00  2.2788E-05  2.2989E-04  3.8428E-04  3.2601E-04  0.0000E+00  0.0000E+00
 39  4.6695E-04  1.3659E-03  1.9205E-06  0.0000E+00  6.4154E-04  3.0203E-04  0.0000E+00  1.2283E-04  4.5406E-05
 40  0.0000E+00  2.4703E-03  0.0000E+00  2.7366E-04  3.1910E-04  1.4236E-04  6.9456E-04  6.1522E-04  9.1463E-04
 41  0.0000E+00  2.9899E-03  9.1866E-04  1.4281E-04  3.4929E-04  0.0000E+00  3.6989E-04  1.4092E-03  0.0000E+00
 42  0.0000E+00  4.8561E-03  6.1669E-04  3.2227E-04  6.0481E-04  0.0000E+00  0.0000E+00  1.9215E-03  0.0000E+00
 43  7.7016E-02  1.1828E-02  0.0000E+00  0.0000E+00  2.1536E-03  9.0791E-04  1.2856E-03  1.5169E-03  0.0000E+00
 44  0.0000E+00  3.9997E-02  3.3814E-02  3.4850E-02  3.2576E-02  3.3521E-02  2.7163E-02  3.0791E-02  2.2603E-02
 45  0.0000E+00  2.4071E-02  9.0456E-03  5.5010E-03  2.8017E-03  1.9135E-03  1.3435E-03  1.8245E-02  5.5725E-03
 46  0.0000E+00  4.2527E-02  8.8459E-03  0.0000E+00  8.1863E-03  0.0000E+00  8.6417E-04  0.0000E+00  1.4775E-03
 47  0.0000E+00  1.1440E-01  8.5664E-03  2.8832E-02  0.0000E+00  5.5365E-02  1.1100E-02  1.3974E-02  2.5793E-02
 48  0.0000E+00  2.1286E-01  7.6803E-02  1.1771E-02  4.6014E-02  0.0000E+00  2.2136E-02  0.0000E+00  7.1015E-02
 49  0.0000E+00  4.9037E-01  8.7564E-02  8.5192E-02  4.2470E-02  0.0000E+00  1.3557E-01  1.6525E-02  1.0380E-01
 50  0.0000E+00  8.8938E-01  4.9619E-01  4.8339E-02  1.6416E-01  9.4192E-02  3.8253E-01  9.2573E-02  1.4597E-01
 51  4.5635E-03  1.5161E-02  1.6247E-02  1.5611E-02  1.5224E-02  1.5636E-02  1.5470E-02  1.5360E-02  1.5638E-02
 52  0.0000E+00  2.7297E-04  0.0000E+00  1.2338E-04  0.0000E+00  1.2932E-05  3.0194E-05  0.0000E+00  0.0000E+00
 53  0.0000E+00  5.0168E-04  5.6725E-05  4.4569E-05  0.0000E+00  1.8055E-05  2.4173E-06  1.8262E-04  0.0000E+00
 54  5.0848E-02  9.3442E-04  1.1594E-04  3.0454E-04  2.2708E-04  3.9727E-05  1.2105E-04  0.0000E+00  0.0000E+00
 55  0.0000E+00  1.3651E-03  1.8686E-04  1.8980E-05  4.1841E-05  2.8104E-04  3.2086E-04  1.9270E-04  0.0000E+00
 56  0.0000E+00  2.6259E-03  0.0000E+00  1.4735E-05  3.0650E-04  0.0000E+00  1.0084E-03  2.4208E-05  0.0000E+00
 57  0.0000E+00  3.3844E-03  7.4209E-04  5.4200E-05  1.4788E-04  9.6740E-04  0.0000E+00  0.0000E+00  2.1980E-04
 58  0.0000E+00  4.7480E-03  0.0000E+00  2.1416E-03  1.0870E-03  0.0000E+00  3.2156E-04  4.4751E-04  1.0147E-03
 59  0.0000E+00  8.5756E-02  8.3832E-02  8.2266E-02  7.6363E-02  8.4063E-02  8.5732E-02  7.4071E-02  8.1672E-02
 60  0.0000E+00  2.4544E-02  2.8054E-03  9.2794E-03  5.2147E-03  5.8093E-03  9.5840E-03  0.0000E+00  2.2231E-03
 61  0.0000E+00  4.3022E-02  5.5530E-03  1.4814E-02  1.1129E-02  9.2408E-03  2.1975E-02  4.2694E-03  2.6008E-03
 62  0.0000E+00  1.0129E-01  0.0000E+00  3.3431E-02  0.0000E+00  6.0189E-05  0.0000E+00  0.0000E+00  4.2201E-02
 63  0.0000E+00  1.4853E-01  4.1947E-02  0.0000E+00  7.3901E-03  9.5903E-03  0.0000E+00  0.0000E+00  4.6467E-03
 64  3.1280E+01  4.6326E-01  0.0000E+00  9.3914E-02  2.1887E-01  2.9448E-02  0.0000E+00  1.8156E-01  3.3954E-02
 65  4.4810E+01  3.5382E+01  3.7106E+01  3.6447E+01  3.6288E+01  3.7195E+01  3.6456E+01  3.6659E+01  3.6944E+01
 66  0.0000E+00  5.8840E+01  6.1746E+01  6.2585E+01  6.2066E+01  6.2064E+01  6.2456E+01  6.2180E+01  6.2160E+01

# AV, chi2 & Mass for <> & i_chain = 1 ...  7 solutions
AV      -0.0876     -0.9445     -0.9143     -0.9278     -0.9091     -0.9377     -0.9279     -0.9316     -0.9383
chi2 4.0371E-06  6.9221E-06  4.9337E-06  4.9678E-06  4.9213E-06  4.9714E-06  4.9617E-06  4.9662E-06  4.9632E-06
Mass 2.2144E-13  1.4440E-13  2.0085E-13  1.9808E-13  2.0008E-13  1.9761E-13  1.9882E-13  1.9786E-13  1.9723E-13
  81.71                                  [v0_min (km/s) before EX0s...]
 220.76                                  [vd_min (km/s) before EX0s...]


## Synthetic spectrum (Best Model) ##l_obs f_obs f_syn wei
 3478    [Nl_obs]
 3741.00    0.80631   0.74041    0.000
 3742.00    1.04068   0.75213    0.000
 3743.00    1.40275   0.75229    0.000
 3744.00    0.87121   0.74193    0.000
 3745.00   -0.18097   0.72391    0.000
 3746.00    0.28575   0.70142   -1.000
 3747.00    1.52379   0.67816   -1.000
 3748.00    1.67421   0.65785   -1.000
 3749.00    1.34637   0.64377   -1.000
 3750.00    0.57663   0.63970   -1.000
 3751.00   -0.35994   0.64837    0.000
 3752.00   -0.00047   0.66862    0.000
 3753.00    0.77437   0.69586   -1.000
 3754.00    0.97045   0.72465   -1.000
 3755.00    1.01143   0.75030   -1.000
 3756.00    0.54540   0.76888   -1.000
 3757.00   -0.03191   0.77853    0.000
 3758.00   -0.17885   0.78060    0.000
 3759.00   -0.25066   0.77914    0.000
 3760.00    0.18817   0.77787   -1.000
 3761.00    0.69484   0.77778   -1.000
 3762.00    0.25500   0.77776   -1.000
 3763.00   -0.27379   0.77614    0.000
 3764.00   -0.32252   0.77180    0.000
 3765.00   -0.34357   0.76461    0.000
 3766.00    0.19130   0.75466   -1.000
 3767.00    0.73421   0.74231   -1.000
 3768.00    0.65260   0.72994   -1.000
 3769.00    0.56525   0.72052   -1.000
 3770.00    0.33861   0.71563   -1.000
 3771.00    0.16609   0.71655   -1.000
 3772.00    0.70273   0.72493   -1.000
 3773.00    1.13743   0.74033   -1.000
 3774.00    0.67729   0.76005   -1.000
 3775.00    0.25930   0.78149   -1.000
 3776.00    0.11458   0.80321   -1.000
 3777.00    0.12130   0.82434   -1.000
 3778.00    0.89450   0.84413   -1.000
 3779.00    1.47306   0.86215   -1.000
 3780.00    1.25495   0.87822   -1.000
 3781.00    1.20373   0.89134   -1.000
 3782.00    1.71854   0.90005   -1.000
 3783.00    1.83757   0.90356   -1.000
 3784.00    0.82466   0.90149   -1.000
 3785.00    0.21443   0.89336   -1.000
 3786.00    0.58806   0.87929   -1.000
 3787.00    1.01390   0.86124   -1.000
 3788.00    1.54979   0.84212   -1.000
 3789.00    1.60887   0.82359   -1.000
 3790.00    0.79461   0.80609   -1.000
 3791.00    0.35428   0.78934   -1.000
 3792.00    0.51255   0.77202   -1.000
 3793.00    0.91069   0.75219   -1.000
 3794.00    1.64578   0.72908   -1.000
 3795.00    1.70975   0.70403   -1.000
 3796.00    0.94421   0.67992   -1.000
 3797.00    0.53625   0.66005   -1.000
 3798.00    0.51786   0.64774   -1.000
 3799.00    0.87440   0.64656   -1.000
 3800.00    1.59124   0.65838   -1.000
 3801.00    1.72152   0.68128   -1.000
 3802.00    1.35475   0.71060   -1.000
 3803.00    0.84057   0.74159   -1.000
 3804.00    0.21639   0.77047   -1.000
 3805.00   -0.02650   0.79439    0.000
 3806.00   -0.01944   0.81229    0.000
 3807.00    0.04341   0.82533   -1.000
 3808.00    0.13829   0.83579   -1.000
 3809.00    0.30255   0.84491   -1.000
 3810.00    0.50149   0.85184   -1.000
 3811.00    0.48073   0.85498   -1.000
 3812.00    0.36497   0.85310   -1.000
 3813.00    0.33588   0.84589   -1.000
 3814.00    0.33892   0.83437   -1.000
 3815.00    0.28579   0.82041   -1.000
 3816.00    0.21498   0.80571   -1.000
 3817.00    0.02858   0.79162   -1.000
 3818.00   -0.18816   0.77861    0.000
 3819.00    0.28833   0.76615   -1.000
 3820.00    0.91334   0.75485   -1.000
 3821.00    0.76629   0.74693   -1.000
 3822.00    0.48821   0.74308   -1.000
 3823.00   -0.00507   0.74102    0.000
 3824.00   -0.52598   0.73783    0.000
 3825.00    0.02157   0.73219   -1.000
 3826.00    0.66501   0.72451   -1.000
 3827.00    0.87559   0.71519   -1.000
 3828.00    1.06289   0.70404   -1.000
 3829.00    0.94995   0.69060   -1.000
 3830.00    0.82779   0.67452   -1.000
 3831.00    0.43572   0.65549   -1.000
 3832.00    0.07208   0.63367   -1.000
 3833.00    0.34022   0.61077   -1.000
 3834.00    0.61712   0.58998   -1.000
 3835.00    1.00296   0.57456   -1.000
 3836.00    1.28922   0.56720   -1.000
 3837.00    0.73376   0.56910   -1.000
 3838.00    0.23307   0.57956   -1.000
 3839.00    0.07692   0.59743   -1.000
 3840.00    0.02362   0.62135   -1.000
 3841.00    0.47777   0.64945   -1.000
 3842.00    0.80434   0.67977   -1.000
 3843.00    0.62023   0.70996   -1.000
 3844.00    0.49415   0.73730   -1.000
 3845.00    0.56099   0.76001   -1.000
 3846.00    0.62266   0.77749   -1.000
 3847.00    0.66978   0.79008    0.000
 3848.00    0.58802   0.79841    0.000
 3849.00    0.19667   0.80302    0.000
 3850.00   -0.01930   0.80483    0.000
 3851.00    0.12847   0.80554    0.000
 3852.00    0.31070   0.80611    0.000
 3853.00    0.55508   0.80572    0.000
 3854.00    0.70302   0.80342    0.000
 3855.00    0.69887   0.79930    0.000
 3856.00    0.59845   0.79393    0.000
 3857.00    0.36477   0.78822    0.000
 3858.00    0.23241   0.78319    0.000
 3859.00    0.22350   0.77944    0.000
 3860.00    0.29606   0.77797    0.000
 3861.00    0.45612   0.78014    0.000
 3862.00    0.61987   0.78592    0.000
 3863.00    0.78713   0.79328    0.000
 3864.00    1.05167   0.79962    0.000
 3865.00    1.39748   0.80348    0.000
 3866.00    1.41469   0.80458    0.000
 3867.00    1.19022   0.80311    0.000
 3868.00    0.92495   0.79947    0.000
 3869.00    0.63332   0.79445    0.000
 3870.00    0.52136   0.78872    0.000
 3871.00    0.51093   0.78306    0.000
 3872.00    0.60916   0.77877    0.000
 3873.00    0.76084   0.77715    0.000
 3874.00    0.73514   0.77816    0.000
 3875.00    0.63402   0.77990    0.000
 3876.00    0.75052   0.77981    0.000
 3877.00    0.94629   0.77643    0.000
 3878.00    1.10878   0.76996    0.000
 3879.00    1.26100   0.76172    0.000
 3880.00    1.12389   0.75284    0.000
 3881.00    0.91251   0.74289   -1.000
 3882.00    0.84612   0.73099   -1.000
 3883.00    0.81005   0.71764   -1.000
 3884.00    0.78039   0.70318   -1.000
 3885.00    0.75179   0.68626   -1.000
 3886.00    0.46342   0.66657   -1.000
 3887.00    0.14287   0.64749   -1.000
 3888.00    0.58596   0.63347   -1.000
 3889.00    1.09440   0.62770   -1.000
 3890.00    0.91191   0.63267   -1.000
 3891.00    0.69499   0.64883   -1.000
 3892.00    0.87498   0.67307   -1.000
 3893.00    1.05588   0.70069   -1.000
 3894.00    0.87581   0.72781   -1.000
 3895.00    0.71274   0.75207   -1.000
 3896.00    0.89734   0.77275   -1.000
 3897.00    1.05867   0.79018   -1.000
 3898.00    0.94497   0.80410   -1.000
 3899.00    0.81196   0.81430   -1.000
 3900.00    0.52162   0.82216   -1.000
 3901.00    0.28282   0.82908   -1.000
 3902.00    0.35881   0.83479   -1.000
 3903.00    0.44201   0.83860   -1.000
 3904.00    0.55988   0.84145   -1.000
 3905.00    0.69298   0.84454   -1.000
 3906.00    0.88573   0.84862   -1.000
 3907.00    1.00914   0.85527   -1.000
 3908.00    0.90655   0.86513   -1.000
 3909.00    0.86575   0.87666   -1.000
 3910.00    0.99535   0.88785   -1.000
 3911.00    1.04533   0.89749   -1.000
 3912.00    0.90727   0.90491   -1.000
 3913.00    0.76815   0.90928   -1.000
 3914.00    0.62682   0.90992   -1.000
 3915.00    0.55122   0.90677   -1.000
 3916.00    0.59233   0.89986   -1.000
 3917.00    0.57674   0.88949   -1.000
 3918.00    0.47304   0.87654   -1.000
 3919.00    0.50331   0.86182   -1.000
 3920.00    0.71640   0.84653   -1.000
 3921.00    0.87457   0.83259   -1.000
 3922.00    0.96680   0.82148   -1.000
 3923.00    1.02516   0.81284   -1.000
 3924.00    1.04765   0.80510   -1.000
 3925.00    0.92211   0.79659   -1.000
 3926.00    0.65829   0.78567   -1.000
 3927.00    0.79289   0.77173   -1.000
 3928.00    1.25561   0.75527   -1.000
 3929.00    1.51579   0.73705   -1.000
 3930.00    1.62916   0.71826   -1.000
 3931.00    1.38139   0.70035   -1.000
 3932.00    0.90378   0.68473   -1.000
 3933.00    0.45037   0.67294   -1.000
 3934.00    0.01042   0.66659   -1.000
 3935.00    0.08852   0.66692   -1.000
 3936.00    0.41741   0.67411   -1.000
 3937.00    0.87525   0.68719   -1.000
 3938.00    1.38700   0.70430   -1.000
 3939.00    1.31080   0.72326   -1.000
 3940.00    1.02429   0.74197   -1.000
 3941.00    0.79233   0.75874   -1.000
 3942.00    0.57686   0.77283   -1.000
 3943.00    0.77434   0.78449   -1.000
 3944.00    1.07552   0.79479   -1.000
 3945.00    1.39011   0.80555   -1.000
 3946.00    1.70743   0.81790   -1.000
 3947.00    1.56637   0.83064   -1.000
 3948.00    1.35191   0.84225   -1.000
 3949.00    1.24384   0.85290   -1.000
 3950.00    1.14847   0.86285   -1.000
 3951.00    0.96039   0.87090   -1.000
 3952.00    0.76477   0.87557   -1.000
 3953.00    0.83438   0.87702   -1.000
 3954.00    0.91619   0.87654   -1.000
 3955.00    0.99348   0.87393   -1.000
 3956.00    1.06435   0.86765   -1.000
 3957.00    0.80300   0.85763   -1.000
 3958.00    0.56899   0.84468   -1.000
 3959.00    0.85284   0.82830   -1.000
 3960.00    1.10339   0.80679    0.000
 3961.00    0.97858   0.77915    0.000
 3962.00    0.83552   0.74683    0.000
 3963.00    0.54889   0.71240    0.000
 3964.00    0.30194   0.67678    0.000
 3965.00    0.29049   0.64000    0.000
 3966.00    0.25702   0.60316    0.000
 3967.00    0.12013   0.56835    0.000
 3968.00    0.03647   0.53832    0.000
 3969.00    0.15678   0.51632    0.000
 3970.00    0.31237   0.50560    0.000
 3971.00    0.58073   0.50869    0.000
 3972.00    0.81824   0.52596    0.000
 3973.00    0.97222   0.55515    0.000
 3974.00    1.02843   0.59307    0.000
 3975.00    0.85762   0.63639    0.000
 3976.00    0.89118   0.68141    0.000
 3977.00    1.33521   0.72490    0.000
 3978.00    1.55698   0.76492    0.000
 3979.00    1.39001   0.80015    0.000
 3980.00    1.13526   0.82969    0.000
 3981.00    0.74612   0.85310   -1.000
 3982.00    0.45239   0.87075   -1.000
 3983.00    0.28695   0.88429   -1.000
 3984.00    0.49879   0.89587   -1.000
 3985.00    1.15741   0.90676   -1.000
 3986.00    1.35750   0.91714   -1.000
 3987.00    1.07879   0.92700   -1.000
 3988.00    1.07112   0.93657   -1.000
 3989.00    1.31308   0.94510   -1.000
 3990.00    1.36420   0.95158   -1.000
 3991.00    1.26037   0.95656   -1.000
 3992.00    1.15847   0.96057   -1.000
 3993.00    1.05794   0.96309   -1.000
 3994.00    1.25412   0.96362   -1.000
 3995.00    1.63633   0.96264   -1.000
 3996.00    1.58527   0.96142   -1.000
 3997.00    1.29677   0.96114   -1.000
 3998.00    1.27868   0.96279   -1.000
 3999.00    1.38938   0.96715   -1.000
 4000.00    1.39927   0.97334   -1.000
 4001.00    1.36772   0.97875   -1.000
 4002.00    1.08931   0.98187   -1.000
 4003.00    0.72420   0.98228   -1.000
 4004.00    0.77310   0.97901   -1.000
 4005.00    0.94467   0.97219   -1.000
 4006.00    0.94293   0.96516   -1.000
 4007.00    0.89862   0.96178   -1.000
 4008.00    1.24894   0.96265   -1.000
 4009.00    1.67773   0.96643   -1.000
 4010.00    1.74563   0.97241   -1.000
 4011.00    1.75747   0.98021   -1.000
 4012.00    1.49282   0.98887   -1.000
 4013.00    1.19639   0.99728   -1.000
 4014.00    1.30263   1.00456   -1.000
 4015.00    1.44000   1.01038   -1.000
 4016.00    1.32240   1.01460   -1.000
 4017.00    1.19406   1.01668   -1.000
 4018.00    1.18581   1.01708   -1.000
 4019.00    1.17285   1.01683   -1.000
 4020.00    0.90542   1.01522   -1.000
 4021.00    0.67588   1.01107   -1.000
 4022.00    1.11436   1.00500   -1.000
 4023.00    1.50814   0.99803   -1.000
 4024.00    1.42094   0.99031   -1.000
 4025.00    1.35953   0.98254   -1.000
 4026.00    1.49392   0.97638   -1.000
 4027.00    1.56347   0.97273   -1.000
 4028.00    1.25910   0.97059   -1.000
 4029.00    0.97571   0.96712   -1.000
 4030.00    0.78845   0.96012   -1.000
 4031.00    0.60754   0.95094   -1.000
 4032.00    0.45044   0.94334   -1.000
 4033.00    0.45370   0.93954   -1.000
 4034.00    0.95969   0.94058   -1.000
 4035.00    1.40634   0.94742   -1.000
 4036.00    1.69514   0.95994   -1.000
 4037.00    1.86317   0.97600   -1.000
 4038.00    1.75543   0.99151   -1.000
 4039.00    1.52073   1.00225   -1.000
 4040.00    1.03503   1.00609   -1.000
 4041.00    0.68612   1.00338   -1.000
 4042.00    0.57287   0.99567   -1.000
 4043.00    0.59556   0.98366   -1.000
 4044.00    0.82334   0.96765   -1.000
 4045.00    1.00000   0.95074   -1.000
 4046.00    1.10891   0.93895   -1.000
 4047.00    1.07037   0.93700   -1.000
 4048.00    0.85970   0.94415   -1.000
 4049.00    0.67139   0.95580   -1.000
 4050.00    0.50610   0.96846   -1.000
 4051.00    0.50541   0.97984   -1.000
 4052.00    0.65419   0.98750   -1.000
 4053.00    0.68632   0.99001   -1.000
 4054.00    0.62508   0.98751   -1.000
 4055.00    0.62388   0.98141   -1.000
 4056.00    0.66494   0.97400   -1.000
 4057.00    0.79302   0.96634   -1.000
 4058.00    0.97483   0.95872   -1.000
 4059.00    0.77829   0.95250   -1.000
 4060.00    0.37758   0.94820   -1.000
 4061.00    0.69537   0.94395   -1.000
 4062.00    1.34989   0.93757   -1.000
 4063.00    1.32569   0.92927   -1.000
 4064.00    1.02728   0.92271   -1.000
 4065.00    0.95820   0.92138   -1.000
 4066.00    0.96820   0.92383   -1.000
 4067.00    0.96244   0.92696   -1.000
 4068.00    0.95210   0.93089   -1.000
 4069.00    1.01243   0.93600   -1.000
 4070.00    1.08974   0.93964   -1.000
 4071.00    0.88926   0.93911   -1.000
 4072.00    0.63496   0.93583   -1.000
 4073.00    1.04201   0.93366   -1.000
 4074.00    1.54872   0.93282   -1.000
 4075.00    1.21604   0.93051   -1.000
 4076.00    0.79051   0.92644   -1.000
 4077.00    0.47130   0.92346   -1.000
 4078.00    0.15988   0.92477   -1.000
 4079.00    0.40693   0.93134   -1.000
 4080.00    0.67537   0.94150   -1.000
 4081.00    0.73813   0.95290   -1.000
 4082.00    0.80625   0.96332   -1.000
 4083.00    1.11957   0.97130   -1.000
 4084.00    1.40795   0.97726   -1.000
 4085.00    1.28535   0.98229   -1.000
 4086.00    1.17460   0.98716   -1.000
 4087.00    1.18567   0.99231   -1.000
 4088.00    1.18577   0.99706   -1.000
 4089.00    1.10542   0.99978   -1.000
 4090.00    1.00562   0.99923   -1.000
 4091.00    0.79677   0.99478   -1.000
 4092.00    0.70068   0.98584    0.000
 4093.00    1.10919   0.97268    0.000
 4094.00    1.36105   0.95547    0.000
 4095.00    1.03756   0.93293    0.000
 4096.00    0.77110   0.90526    0.000
 4097.00    0.68003   0.87543    0.000
 4098.00    0.68442   0.84590    0.000
 4099.00    0.93833   0.81759    0.000
 4100.00    1.07188   0.79108    0.000
 4101.00    0.93512   0.76857    0.000
 4102.00    0.89508   0.75520    0.000
 4103.00    1.04325   0.75497    0.000
 4104.00    1.16859   0.76646    0.000
 4105.00    1.25517   0.78590    0.000
 4106.00    1.25000   0.81023    0.000
 4107.00    1.10841   0.83613    0.000
 4108.00    0.90095   0.86059    0.000
 4109.00    0.60740   0.88152    0.000
 4110.00    0.67995   0.89807    0.000
 4111.00    1.17391   0.91122    0.000
 4112.00    1.40680   0.92259    0.000
 4113.00    1.37469   0.93294    0.021
 4114.00    1.27002   0.94209    0.021
 4115.00    1.10037   0.94936    0.021
 4116.00    0.88553   0.95449    0.021
 4117.00    0.63502   0.95732    0.021
 4118.00    0.68552   0.95706    0.022
 4119.00    0.94490   0.95443    0.022
 4120.00    0.96099   0.95205    0.022
 4121.00    0.82905   0.95127    0.021
 4122.00    0.85844   0.95185    0.021
 4123.00    0.97355   0.95359    0.022
 4124.00    1.26252   0.95657    0.022
 4125.00    1.63165   0.96010    0.022
 4126.00    1.67235   0.96188    0.022
 4127.00    1.58263   0.95997    0.022
 4128.00    1.26671   0.95495    0.022
 4129.00    0.87424   0.94841    0.021
 4130.00    1.01023   0.94120    0.021
 4131.00    1.29658   0.93358    0.021
 4132.00    1.39256   0.92652    0.021
 4133.00    1.44383   0.92272    0.021
 4134.00    1.31145   0.92410    0.021
 4135.00    1.14441   0.93047    0.021
 4136.00    1.16510   0.93985    0.021
 4137.00    1.21322   0.94870    0.021
 4138.00    1.04559   0.95477    0.021
 4139.00    0.85503   0.95772    0.021
 4140.00    0.86694   0.95653    0.021
 4141.00    0.89285   0.95032    0.021
 4142.00    0.72132   0.93891    0.021
 4143.00    0.54297   0.92435    0.021
 4144.00    0.71188   0.91251    0.021
 4145.00    0.88022   0.90787    0.021
 4146.00    1.00691   0.90921    0.021
 4147.00    1.11615   0.91304    0.021
 4148.00    0.95566   0.91742    0.021
 4149.00    0.81070   0.92147    0.021
 4150.00    0.81883   0.92471    0.021
 4151.00    0.80895   0.92663    0.021
 4152.00    0.67117   0.92649    0.021
 4153.00    0.59694   0.92483    0.021
 4154.00    0.86963   0.92321    0.021
 4155.00    1.10175   0.92304    0.021
 4156.00    1.15655   0.92502    0.021
 4157.00    1.17477   0.92946    0.021
 4158.00    1.06148   0.93657    0.021
 4159.00    0.96102   0.94559    0.020
 4160.00    0.89931   0.95467    0.021
 4161.00    0.83063   0.96250    0.021
 4162.00    0.74408   0.96880    0.021
 4163.00    0.73393   0.97304    0.020
 4164.00    0.89259   0.97393    0.021
 4165.00    1.07263   0.97142    0.021
 4166.00    1.29364   0.96660    0.021
 4167.00    1.33191   0.95988    0.021
 4168.00    1.06476   0.95233    0.020
 4169.00    0.87863   0.94533    0.020
 4170.00    0.81121   0.93862    0.021
 4171.00    0.70528   0.93075    0.021
 4172.00    0.54975   0.92111    0.020
 4173.00    0.45466   0.91192    0.020
 4174.00    0.42816   0.90613    0.021
 4175.00    0.40167   0.90368    0.021
 4176.00    0.37518   0.90288    0.020
 4177.00    0.50614   0.90304    0.020
 4178.00    0.77606   0.90494    0.020
 4179.00    0.89691   0.90950    0.020
 4180.00    0.90181   0.91553    0.020
 4181.00    0.87431   0.92051    0.020
 4182.00    0.82466   0.92371    0.020
 4183.00    0.86730   0.92671    0.020
 4184.00    0.96528   0.93045    0.020
 4185.00    0.92774   0.93394    0.020
 4186.00    0.81932   0.93504    0.020
 4187.00    0.87538   0.93351    0.020
 4188.00    1.00604   0.93278    0.020
 4189.00    1.06663   0.93500    0.020
 4190.00    1.09988   0.93801    0.020
 4191.00    1.08102   0.93951    0.020
 4192.00    1.04485   0.94019    0.020
 4193.00    1.29762   0.94113    0.020
 4194.00    1.63093   0.94000    0.020
 4195.00    1.37335   0.93390    0.020
 4196.00    0.98022   0.92380    0.020
 4197.00    0.77126   0.91268    0.020
 4198.00    0.59614   0.90222    0.020
 4199.00    0.68779   0.89346    0.020
 4200.00    0.81715   0.88799    0.020
 4201.00    1.08796   0.88638    0.020
 4202.00    1.37320   0.88873    0.019
 4203.00    1.34519   0.89583    0.019
 4204.00    1.29677   0.90684    0.019
 4205.00    1.14568   0.91945    0.019
 4206.00    0.99145   0.93224    0.019
 4207.00    0.83689   0.94450    0.019
 4208.00    0.68889   0.95527    0.019
 4209.00    0.73384   0.96265    0.020
 4210.00    0.77943   0.96553    0.020
 4211.00    0.83439   0.96563    0.020
 4212.00    0.88310   0.96465    0.020
 4213.00    0.87273   0.96227    0.019
 4214.00    0.86976   0.95815    0.019
 4215.00    0.91770   0.95365    0.019
 4216.00    0.96278   0.95235    0.019
 4217.00    0.99269   0.95654    0.019
 4218.00    1.03201   0.96341    0.019
 4219.00    1.11156   0.96868    0.019
 4220.00    1.13800   0.97053    0.019
 4221.00    0.97734   0.96790    0.019
 4222.00    0.89169   0.95866    0.019
 4223.00    1.02821   0.94195    0.019
 4224.00    1.05367   0.92014    0.019
 4225.00    0.79886   0.89666    0.019
 4226.00    0.70390   0.87506    0.019
 4227.00    0.95630   0.86041    0.019
 4228.00    1.07229   0.85770    0.019
 4229.00    0.93105   0.86622    0.019
 4230.00    0.82094   0.88066    0.018
 4231.00    0.76209   0.89675    0.018
 4232.00    0.77459   0.91161    0.018
 4233.00    0.89008   0.92296    0.018
 4234.00    0.87253   0.93035    0.018
 4235.00    0.68607   0.93379    0.018
 4236.00    0.69560   0.93389    0.018
 4237.00    0.92442   0.93364    0.018
 4238.00    0.93507   0.93575    0.018
 4239.00    0.73042   0.94075    0.018
 4240.00    0.68865   0.94844    0.018
 4241.00    0.78863   0.95843    0.018
 4242.00    0.83852   0.96913    0.018
 4243.00    0.85001   0.97851    0.018
 4244.00    0.87383   0.98618    0.018
 4245.00    0.90597   0.99062    0.019
 4246.00    1.01664   0.98899    0.019
 4247.00    1.17367   0.98129    0.019
 4248.00    1.25557   0.97046    0.019
 4249.00    1.29878   0.95839    0.019
 4250.00    1.23798   0.94496    0.020
 4251.00    1.13077   0.93294    0.020
 4252.00    1.14434   0.92609    0.019
 4253.00    1.20423   0.92285    0.019
 4254.00    1.08351   0.91985    0.019
 4255.00    0.90393   0.91818    0.019
 4256.00    0.81386   0.92081    0.019
 4257.00    0.74821   0.92618    0.019
 4258.00    1.12952   0.92938    0.019
 4259.00    1.61098   0.92960    0.019
 4260.00    1.45463   0.93051    0.019
 4261.00    1.18421   0.93523    0.019
 4262.00    0.98667   0.94418    0.019
 4263.00    0.79911   0.95481    0.019
 4264.00    1.04460   0.96435    0.019
 4265.00    1.33240   0.97161    0.019
 4266.00    1.22978   0.97506    0.019
 4267.00    1.10329   0.97200    0.019
 4268.00    0.98057   0.96180    0.019
 4269.00    0.85824   0.94644    0.018
 4270.00    0.79510   0.92708    0.018
 4271.00    0.73952   0.90539    0.018
 4272.00    0.88404   0.88676    0.018
 4273.00    1.01094   0.87667    0.018
 4274.00    0.89570   0.87424    0.019
 4275.00    0.78558   0.87681    0.019
 4276.00    0.72205   0.88568    0.019
 4277.00    0.68823   0.90101    0.019
 4278.00    0.85240   0.91827    0.019
 4279.00    0.99300   0.93165    0.019
 4280.00    1.01155   0.93948    0.019
 4281.00    1.05504   0.94402    0.019
 4282.00    1.20264   0.94616   -2.000
 4283.00    1.23471   0.94524   -2.000
 4284.00    0.86793   0.94083   -2.000
 4285.00    0.55309   0.93284   -2.000
 4286.00    0.38919   0.92371   -2.000
 4287.00    0.32057   0.91571   -2.000
 4288.00    0.48829   0.90797   -2.000
 4289.00    0.62854   0.89867   -2.000
 4290.00    0.71007   0.88934   -2.000
 4291.00    0.76451   0.88486   -2.000
 4292.00    0.76864   0.88610   -2.000
 4293.00    0.78233   0.88850   -2.000
 4294.00    0.81153   0.88776   -2.000
 4295.00    0.81473   0.88470   -2.000
 4296.00    0.78095   0.88082   -2.000
 4297.00    0.70622   0.87371   -2.000
 4298.00    0.58025   0.86095    0.019
 4299.00    0.56220   0.84351    0.019
 4300.00    0.66320   0.82651    0.019
 4301.00    0.66808   0.81344    0.019
 4302.00    0.57946   0.80277    0.019
 4303.00    0.49668   0.79315    0.019
 4304.00    0.41892   0.78569    0.019
 4305.00    0.43426   0.78120    0.019
 4306.00    0.51996   0.77842    0.019
 4307.00    0.65664   0.77568    0.019
 4308.00    0.82718   0.77421    0.019
 4309.00    0.82140   0.77748    0.019
 4310.00    0.71308   0.78690    0.018
 4311.00    0.71892   0.80267    0.018
 4312.00    0.78261   0.82475    0.018
 4313.00    0.83148   0.85214    0.018
 4314.00    0.87384   0.88326    0.018
 4315.00    0.97868   0.91668    0.018
 4316.00    1.10705   0.95084    0.018
 4317.00    1.10938   0.98109    0.018
 4318.00    1.07142   1.00259    0.018
 4319.00    1.03217   1.01391    0.018
 4320.00    0.99257   1.01579    0.018
 4321.00    1.06895   1.00858    0.018
 4322.00    1.17070   0.99309    0.018
 4323.00    1.01057   0.97207    0.018
 4324.00    0.80489   0.94929    0.018
 4325.00    0.84222   0.92878    0.018
 4326.00    0.91170   0.91566    0.018
 4327.00    1.01886   0.91455    0.018
 4328.00    1.12953   0.92361    0.018
 4329.00    1.02189   0.93694    0.018
 4330.00    0.90177   0.95068    0.000
 4331.00    1.10444   0.96447    0.000
 4332.00    1.31101   0.97651    0.000
 4333.00    1.10207   0.98088    0.000
 4334.00    0.91192   0.97489    0.000
 4335.00    1.17315   0.96032    0.000
 4336.00    1.40354   0.93778    0.000
 4337.00    1.23267   0.90740    0.000
 4338.00    1.06206   0.87387    0.000
 4339.00    0.89364   0.84318    0.000
 4340.00    0.75754   0.81827    0.000
 4341.00    0.83021   0.80329    0.000
 4342.00    0.92299   0.80247    0.000
 4343.00    1.11724   0.81417    0.000
 4344.00    1.25332   0.83372    0.000
 4345.00    1.15193   0.85933    0.000
 4346.00    1.08876   0.88803    0.000
 4347.00    1.15487   0.91311    0.000
 4348.00    1.18611   0.93198    0.000
 4349.00    1.11785   0.94693    0.000
 4350.00    1.08386   0.95623    0.000
 4351.00    1.13338   0.95643    0.018
 4352.00    1.11500   0.95301    0.018
 4353.00    0.95378   0.95451    0.019
 4354.00    0.84525   0.95990    0.019
 4355.00    0.83303   0.96452    0.018
 4356.00    0.83370   0.97080    0.018
 4357.00    0.85497   0.98228    0.018
 4358.00    0.91239   0.99506    0.018
 4359.00    1.02049   1.00446    0.018
 4360.00    1.02798   1.01340    0.018
 4361.00    0.91134   1.02495    0.018
 4362.00    0.93199   1.03537    0.018
 4363.00    1.10197   1.04131    0.018
 4364.00    1.17322   1.04578    0.018
 4365.00    1.14976   1.05087    0.018
 4366.00    1.03097   1.05217    0.018
 4367.00    0.83154   1.04686    0.018
 4368.00    0.73826   1.03869    0.018
 4369.00    0.72404   1.03118    0.018
 4370.00    0.73070   1.02257    0.018
 4371.00    0.75103   1.01173    0.018
 4372.00    0.84018   1.00158    0.018
 4373.00    0.96876   0.99366    0.018
 4374.00    1.04458   0.98631    0.018
 4375.00    1.09406   0.97950    0.018
 4376.00    1.12007   0.97613    0.018
 4377.00    1.13593   0.97648    0.019
 4378.00    0.99640   0.97577    0.018
 4379.00    0.79936   0.96983    0.018
 4380.00    0.89639   0.95980    0.018
 4381.00    1.08563   0.94802    0.018
 4382.00    1.05088   0.93260    0.018
 4383.00    0.95752   0.91147    0.018
 4384.00    0.85315   0.89081    0.018
 4385.00    0.74643   0.87967    0.018
 4386.00    0.62632   0.87849    0.017
 4387.00    0.50395   0.88164    0.017
 4388.00    0.71332   0.88804    0.017
 4389.00    0.96507   0.90028    0.018
 4390.00    0.91951   0.91590    0.018
 4391.00    0.84741   0.93044    0.018
 4392.00    0.78461   0.94383    0.018
 4393.00    0.72229   0.95716    0.018
 4394.00    0.94731   0.96874    0.018
 4395.00    1.17607   0.97789    0.018
 4396.00    1.25108   0.98702    0.018
 4397.00    1.31050   0.99654    0.018
 4398.00    1.02697   1.00290    0.018
 4399.00    0.77545   1.00285    0.018
 4400.00    0.91928   0.99670    0.018
 4401.00    1.03814   0.98853    0.018
 4402.00    0.94696   0.98102    0.018
 4403.00    0.86160   0.97033    0.018
 4404.00    0.81276   0.95404    0.018
 4405.00    0.77211   0.94014    0.018
 4406.00    0.77178   0.93678    0.018
 4407.00    0.79242   0.93990    0.018
 4408.00    0.89681   0.94376    0.018
 4409.00    0.94284   0.95203    0.018
 4410.00    0.79536   0.96707    0.018
 4411.00    0.70764   0.98253    0.018
 4412.00    0.78738   0.99394    0.018
 4413.00    0.88324   1.00181    0.018
 4414.00    1.01772   1.00518    0.018
 4415.00    1.09023   1.00403    0.018
 4416.00    1.03446   1.00327    0.018
 4417.00    0.92859   1.00527    0.018
 4418.00    0.73251   1.00774    0.018
 4419.00    0.71875   1.01093    0.018
 4420.00    0.99198   1.01646    0.018
 4421.00    1.11134   1.02156    0.018
 4422.00    1.01808   1.02281    0.018
 4423.00    0.96934   1.02215    0.018
 4424.00    0.97475   1.02243    0.018
 4425.00    0.98612   1.02177    0.018
 4426.00    1.00387   1.01837    0.018
 4427.00    0.94954   1.01540    0.018
 4428.00    0.82702   1.01562    0.018
 4429.00    0.81694   1.01565    0.018
 4430.00    0.90062   1.01159    0.018
 4431.00    0.90872   1.00642    0.018
 4432.00    0.86133   1.00395    0.018
 4433.00    0.90614   1.00175    0.018
 4434.00    1.01038   0.99732    0.018
 4435.00    1.00234   0.99404    0.018
 4436.00    0.93096   0.99591    0.019
 4437.00    1.01123   1.00167    0.019
 4438.00    1.16594   1.00800    0.018
 4439.00    1.14015   1.01405    0.018
 4440.00    1.03776   1.01967    0.018
 4441.00    1.01721   1.02384    0.018
 4442.00    1.02642   1.02584    0.018
 4443.00    0.74519   1.02666    0.018
 4444.00    0.37466   1.02915    0.018
 4445.00    0.49663   1.03447    0.018
 4446.00    0.74469   1.04021    0.018
 4447.00    0.82520   1.04475    0.018
 4448.00    0.87078   1.04995    0.018
 4449.00    0.80489   1.05476    0.018
 4450.00    0.72068   1.05407    0.018
 4451.00    0.73604   1.04760    0.018
 4452.00    0.76369   1.03932    0.018
 4453.00    1.00934   1.02900    0.018
 4454.00    1.27354   1.01412    0.018
 4455.00    1.14479   0.99729    0.018
 4456.00    0.99664   0.98375    0.017
 4457.00    0.83670   0.97331    0.017
 4458.00    0.67962   0.96351    0.017
 4459.00    0.71359   0.95653    0.017
 4460.00    0.74915   0.95516    0.018
 4461.00    0.81661   0.95681    0.000
 4462.00    0.87438   0.95967    0.000
 4463.00    0.81840   0.96658    0.000
 4464.00    0.76472   0.97645    0.000
 4465.00    0.72981   0.98414    0.000
 4466.00    0.69339   0.98974    0.000
 4467.00    0.64771   0.99618    0.000
 4468.00    0.63707   1.00215    0.000
 4469.00    0.79451   1.00567    0.000
 4470.00    0.92186   1.00925    0.000
 4471.00    0.93168   1.01530    0.000
 4472.00    0.95450   1.02415    0.000
 4473.00    1.01965   1.03596    0.000
 4474.00    1.05686   1.04909    0.000
 4475.00    1.01723   1.06034    0.000
 4476.00    1.00223   1.06906    0.000
 4477.00    1.04528   1.07599    0.000
 4478.00    1.04798   1.07888    0.000
 4479.00    0.96851   1.07563    0.000
 4480.00    0.92355   1.06857    0.000
 4481.00    0.93976   1.06189    0.000
 4482.00    0.94463   1.05787    0.017
 4483.00    0.93190   1.05726    0.018
 4484.00    0.92170   1.05943    0.018
 4485.00    0.91493   1.06321    0.017
 4486.00    0.88032   1.06798    0.017
 4487.00    0.81232   1.07230    0.017
 4488.00    0.79224   1.07341    0.017
 4489.00    0.82282   1.07024    0.017
 4490.00    0.82728   1.06471    0.017
 4491.00    0.80738   1.05938    0.017
 4492.00    0.80758   1.05481    0.017
 4493.00    0.82429   1.05012    0.017
 4494.00    0.89159   1.04562    0.017
 4495.00    0.99550   1.04397    0.017
 4496.00    1.03394   1.04623    0.017
 4497.00    1.03080   1.05050    0.017
 4498.00    0.97018   1.05651    0.017
 4499.00    0.87764   1.06601    0.017
 4500.00    0.96013   1.07798    0.017
 4501.00    1.12717   1.08932    0.017
 4502.00    1.13895   1.10086    0.017
 4503.00    1.08594   1.11427    0.017
 4504.00    1.15604   1.12634    0.017
 4505.00    1.27007   1.13402    0.017
 4506.00    1.38769   1.13914    0.017
 4507.00    1.50639   1.14304    0.017
 4508.00    1.52086   1.14385    0.017
 4509.00    1.50923   1.14112    0.017
 4510.00    1.30719   1.13658    0.017
 4511.00    1.06644   1.13081    0.017
 4512.00    1.13388   1.12356    0.017
 4513.00    1.25048   1.11557    0.017
 4514.00    1.37163   1.10786    0.017
 4515.00    1.49331   1.10150    0.017
 4516.00    1.40137   1.09732    0.017
 4517.00    1.29215   1.09450    0.017
 4518.00    1.30273   1.09218    0.017
 4519.00    1.31875   1.09155    0.017
 4520.00    1.38102   1.09260    0.017
 4521.00    1.43777   1.09211    0.017
 4522.00    1.18344   1.08690    0.017
 4523.00    0.94021   1.07796    0.017
 4524.00    0.90536   1.06754    0.017
 4525.00    0.87969   1.05449    0.017
 4526.00    0.95682   1.03762    0.017
 4527.00    1.03743   1.02007    0.017
 4528.00    1.14525   1.00570    0.017
 4529.00    1.20538   0.99478    0.017
 4530.00    0.98362   0.98688    0.017
 4531.00    0.81090   0.98264    0.017
 4532.00    0.86777   0.98341    0.017
 4533.00    0.91020   0.98831    0.017
 4534.00    0.89744   0.99464    0.017
 4535.00    0.91211   1.00163    0.017
 4536.00    1.01424   1.01163    0.017
 4537.00    1.07527   1.02440    0.017
 4538.00    1.02520   1.03564    0.017
 4539.00    1.02320   1.04375    0.017
 4540.00    1.13258   1.05038    0.017
 4541.00    1.20059   1.05569    0.017
 4542.00    1.18566   1.05875    0.017
 4543.00    1.15801   1.05997    0.017
 4544.00    1.10815   1.05862    0.017
 4545.00    1.08944   1.05512    0.017
 4546.00    1.11835   1.05288    0.017
 4547.00    1.14703   1.05231    0.016
 4548.00    1.17539   1.04971    0.017
 4549.00    1.12153   1.04465    0.017
 4550.00    0.97048   1.04181    0.000
 4551.00    1.00668   1.04201    0.000
 4552.00    1.23808   1.04136    0.000
 4553.00    1.38345   1.04040    0.000
 4554.00    1.44973   1.04304    0.000
 4555.00    1.40514   1.04888    0.000
 4556.00    1.27070   1.05600    0.000
 4557.00    1.16298   1.06543    0.000
 4558.00    1.07432   1.07628    0.000
 4559.00    1.07411   1.08577    0.000
 4560.00    1.12925   1.09282    0.000
 4561.00    1.15292   1.09787    0.000
 4562.00    1.15939   1.10036    0.000
 4563.00    1.06420   1.09919    0.000
 4564.00    0.92069   1.09535    0.000
 4565.00    0.95623   1.09203    0.000
 4566.00    1.06521   1.09118    0.000
 4567.00    1.14883   1.09157    0.000
 4568.00    1.22357   1.09190    0.000
 4569.00    1.14344   1.09376    0.000
 4570.00    1.01754   1.09730    0.000
 4571.00    1.09095   1.09885    0.000
 4572.00    1.21319   1.09878    0.000
 4573.00    1.10533   1.10113    0.000
 4574.00    0.95187   1.10296    0.000
 4575.00    0.88910   1.10023    0.000
 4576.00    0.84036   1.09690    0.000
 4577.00    0.93014   1.09502    0.000
 4578.00    1.03576   1.09013    0.000
 4579.00    1.02642   1.08133    0.000
 4580.00    1.00825   1.07241    0.000
 4581.00    0.97919   1.06546    0.000
 4582.00    0.94967   1.06042    0.000
 4583.00    0.96348   1.05656    0.000
 4584.00    0.97537   1.05470    0.000
 4585.00    0.88837   1.05625    0.000
 4586.00    0.81016   1.06017    0.000
 4587.00    0.88563   1.06474    0.000
 4588.00    0.95512   1.06950    0.000
 4589.00    0.96056   1.07382    0.000
 4590.00    0.97186   1.07589    0.000
 4591.00    1.02746   1.07523    0.000
 4592.00    1.08206   1.07266    0.000
 4593.00    1.13083   1.06907    0.000
 4594.00    1.17107   1.06415    0.000
 4595.00    1.17234   1.05847    0.000
 4596.00    1.17777   1.05424    0.000
 4597.00    1.19873   1.05194    0.000
 4598.00    1.24765   1.05087    0.000
 4599.00    1.38404   1.05117    0.000
 4600.00    1.45531   1.05185    0.000
 4601.00    1.35372   1.05272    0.000
 4602.00    1.29238   1.05542    0.000
 4603.00    1.32275   1.05958    0.000
 4604.00    1.30882   1.06368    0.000
 4605.00    1.20751   1.06915    0.000
 4606.00    1.13081   1.07717    0.000
 4607.00    1.09645   1.08633    0.000
 4608.00    1.13190   1.09625    0.000
 4609.00    1.27249   1.10570    0.000
 4610.00    1.28444   1.11301    0.000
 4611.00    1.12615   1.11847    0.000
 4612.00    1.07511   1.12275    0.000
 4613.00    1.14905   1.12454    0.000
 4614.00    1.32793   1.12476    0.000
 4615.00    1.61465   1.12516    0.000
 4616.00    1.66740   1.12489    0.000
 4617.00    1.50807   1.12512    0.000
 4618.00    1.34096   1.12670    0.000
 4619.00    1.16762   1.12692    0.000
 4620.00    1.04316   1.12652    0.000
 4621.00    0.95304   1.12850    0.000
 4622.00    1.03697   1.12900    0.000
 4623.00    1.22822   1.12700    0.000
 4624.00    1.28371   1.12705    0.000
 4625.00    1.26608   1.12719    0.000
 4626.00    1.29632   1.12397    0.000
 4627.00    1.34894   1.12162    0.000
 4628.00    1.34959   1.12113    0.000
 4629.00    1.32931   1.11782    0.000
 4630.00    1.33218   1.11333    0.000
 4631.00    1.34303   1.11178    0.000
 4632.00    1.36797   1.10945    0.000
 4633.00    1.39700   1.10281    0.000
 4634.00    1.32746   1.09605    0.000
 4635.00    1.23431   1.09122    0.000
 4636.00    1.17840   1.08443    0.000
 4637.00    1.12968   1.07522    0.000
 4638.00    1.21365   1.06799    0.000
 4639.00    1.31753   1.06272    0.000
 4640.00    1.16667   1.05701    0.000
 4641.00    0.98777   1.05234    0.000
 4642.00    1.06080   1.04915    0.000
 4643.00    1.15216   1.04438    0.000
 4644.00    1.09319   1.03838    0.000
 4645.00    1.02854   1.03373    0.000
 4646.00    1.07051   1.02816    0.000
 4647.00    1.10824   1.02179    0.000
 4648.00    0.96899   1.01897    0.000
 4649.00    0.84097   1.02006    0.000
 4650.00    0.89634   1.02265    0.000
 4651.00    0.94809   1.02734    0.000
 4652.00    0.96278   1.03495    0.000
 4653.00    0.99804   1.04360    0.000
 4654.00    1.18363   1.05082    0.000
 4655.00    1.32262   1.05738    0.000
 4656.00    1.20105   1.06492    0.000
 4657.00    1.08807   1.07271    0.000
 4658.00    1.01344   1.07951    0.000
 4659.00    0.97785   1.08572    0.000
 4660.00    1.08520   1.09007    0.000
 4661.00    1.13371   1.09071    0.000
 4662.00    1.00172   1.08731    0.000
 4663.00    0.91624   1.07876    0.000
 4664.00    0.95208   1.06616    0.000
 4665.00    1.02966   1.05222    0.000
 4666.00    1.20076   1.03736    0.000
 4667.00    1.30340   1.02289    0.000
 4668.00    1.27308   1.01377    0.000
 4669.00    1.23142   1.01135    0.000
 4670.00    1.17052   1.01232    0.000
 4671.00    1.12528   1.01642    0.000
 4672.00    1.10328   1.02477    0.000
 4673.00    1.12881   1.03497    0.000
 4674.00    1.21634   1.04371    0.000
 4675.00    1.21519   1.05047    0.000
 4676.00    1.11215   1.05562    0.000
 4677.00    1.10496   1.05783    0.000
 4678.00    1.19489   1.05650    0.000
 4679.00    1.19114   1.05389    0.000
 4680.00    1.10368   1.05174    0.000
 4681.00    1.09209   1.04829    0.000
 4682.00    1.14026   1.04440    0.000
 4683.00    1.22522   1.04331    0.000
 4684.00    1.33568   1.04360    0.000
 4685.00    1.28286   1.04341    0.000
 4686.00    1.13087   1.04466    0.000
 4687.00    1.12483   1.04694    0.000
 4688.00    1.19618   1.04798    0.000
 4689.00    1.23052   1.04926    0.000
 4690.00    1.24782   1.05146    0.000
 4691.00    1.13759   1.05275    0.000
 4692.00    0.97683   1.05469    0.000
 4693.00    1.02921   1.05820    0.000
 4694.00    1.15355   1.06035    0.000
 4695.00    1.17311   1.06071    0.000
 4696.00    1.16292   1.06115    0.000
 4697.00    1.14738   1.05984    0.000
 4698.00    1.13058   1.05449    0.000
 4699.00    1.05791   1.04768    0.000
 4700.00    0.97474   1.04187    0.000
 4701.00    1.06099   1.03579    0.000
 4702.00    1.17189   1.02881    0.000
 4703.00    1.03881   1.02351    0.000
 4704.00    0.87994   1.02182    0.000
 4705.00    0.89474   1.02165    0.000
 4706.00    0.92147   1.02098    0.000
 4707.00    0.99022   1.02110    0.000
 4708.00    1.06041   1.02377    0.000
 4709.00    1.10363   1.02658    0.000
 4710.00    1.14214   1.02865    0.000
 4711.00    1.02890   1.03227    0.000
 4712.00    0.92389   1.03701    0.000
 4713.00    0.94532   1.04150    0.000
 4714.00    0.96401   1.04656    0.000
 4715.00    0.95577   1.05367    0.000
 4716.00    0.96782   1.06261    0.000
 4717.00    1.12339   1.07204    0.000
 4718.00    1.26426   1.08119    0.000
 4719.00    1.32518   1.09104    0.000
 4720.00    1.34478   1.10100    0.000
 4721.00    1.18427   1.10822    0.000
 4722.00    1.05725   1.11175    0.000
 4723.00    1.05040   1.11256    0.000
 4724.00    1.07125   1.11022    0.000
 4725.00    1.17551   1.10444    0.000
 4726.00    1.25627   1.09556    0.000
 4727.00    1.27685   1.08381    0.000
 4728.00    1.26881   1.07165    0.000
 4729.00    1.19768   1.06161    0.000
 4730.00    1.13962   1.05309    0.000
 4731.00    1.10657   1.04649    0.000
 4732.00    1.07696   1.04479    0.000
 4733.00    1.05309   1.04641    0.000
 4734.00    1.09592   1.04933    0.000
 4735.00    1.23628   1.05538    0.000
 4736.00    1.29809   1.06162    0.000
 4737.00    1.25892   1.06555    0.000
 4738.00    1.25025   1.07107    0.000
 4739.00    1.27613   1.07774    0.000
 4740.00    1.20242   1.08104    0.000
 4741.00    1.02919   1.08342    0.000
 4742.00    0.97608   1.08824    0.000
 4743.00    1.02881   1.09320    0.000
 4744.00    1.06799   1.09621    0.000
 4745.00    1.09665   1.09861    0.000
 4746.00    1.21314   1.10263    0.000
 4747.00    1.38958   1.10681    0.000
 4748.00    1.28443   1.10808    0.000
 4749.00    1.01082   1.10774    0.000
 4750.00    0.96772   1.10796    0.000
 4751.00    1.04493   1.10612    0.000
 4752.00    1.14276   1.10130    0.000
 4753.00    1.24992   1.09643    0.000
 4754.00    1.18075   1.09177    0.000
 4755.00    1.04292   1.08647    0.000
 4756.00    1.10748   1.08165    0.000
 4757.00    1.23911   1.07817    0.000
 4758.00    1.22022   1.07446    0.000
 4759.00    1.15948   1.07037    0.000
 4760.00    1.05525   1.06678    0.000
 4761.00    0.94107   1.06170    0.016
 4762.00    1.04902   1.05411    0.016
 4763.00    1.19765   1.04708    0.016
 4764.00    1.03363   1.04146    0.016
 4765.00    0.82559   1.03530    0.016
 4766.00    1.04038   1.03111    0.016
 4767.00    1.29807   1.03178    0.016
 4768.00    1.22605   1.03467    0.016
 4769.00    1.13272   1.03908    0.016
 4770.00    1.13431   1.04675    0.016
 4771.00    1.13875   1.05553    0.016
 4772.00    1.13110   1.06318    0.016
 4773.00    1.12792   1.07112    0.016
 4774.00    1.25405   1.07997    0.016
 4775.00    1.36096   1.08665    0.016
 4776.00    1.19014   1.09054    0.016
 4777.00    1.04134   1.09458    0.016
 4778.00    1.09968   1.09776    0.016
 4779.00    1.14579   1.09650    0.016
 4780.00    1.10811   1.09247    0.015
 4781.00    1.08777   1.08928    0.015
 4782.00    1.15925   1.08428    0.015
 4783.00    1.20903   1.07551    0.015
 4784.00    1.16636   1.06886    0.015
 4785.00    1.12840   1.06517    0.015
 4786.00    1.10704   1.05930    0.015
 4787.00    1.09067   1.05504    0.015
 4788.00    1.08906   1.05633    0.015
 4789.00    1.06004   1.05818    0.015
 4790.00    0.96199   1.06058    0.015
 4791.00    0.93383   1.06771    0.015
 4792.00    1.05719   1.07630    0.015
 4793.00    1.08782   1.08368    0.015
 4794.00    0.94392   1.09219    0.015
 4795.00    0.89273   1.09973    0.015
 4796.00    0.99390   1.10340    0.015
 4797.00    1.04939   1.10512    0.015
 4798.00    1.03907   1.10548    0.015
 4799.00    1.06821   1.10337    0.015
 4800.00    1.14734   1.10024    0.015
 4801.00    1.20234   1.09777    0.015
 4802.00    1.23037   1.09565    0.015
 4803.00    1.22059   1.09367    0.016
 4804.00    1.17358   1.09127    0.016
 4805.00    1.18262   1.08816    0.016
 4806.00    1.24037   1.08578    0.015
 4807.00    1.28163   1.08312    0.015
 4808.00    1.31027   1.07940    0.015
 4809.00    1.30208   1.07737    0.015
 4810.00    1.26910   1.07773    0.015
 4811.00    1.22246   1.07841    0.015
 4812.00    1.16777   1.08004    0.015
 4813.00    1.19336   1.08407    0.015
 4814.00    1.26021   1.08889    0.015
 4815.00    1.31541   1.09345    0.015
 4816.00    1.36544   1.09847    0.015
 4817.00    1.26827   1.10314    0.015
 4818.00    1.11478   1.10656    0.015
 4819.00    1.10797   1.10859    0.015
 4820.00    1.14884   1.10777    0.015
 4821.00    1.24598   1.10517    0.015
 4822.00    1.35845   1.10200    0.015
 4823.00    1.27489   1.09624    0.015
 4824.00    1.14754   1.08952    0.015
 4825.00    1.06093   1.08497    0.015
 4826.00    0.98160   1.08106    0.015
 4827.00    1.06996   1.07702    0.015
 4828.00    1.18118   1.07409    0.015
 4829.00    1.23832   1.07208    0.015
 4830.00    1.29020   1.07108    0.015
 4831.00    1.21963   1.07015    0.015
 4832.00    1.14162   1.06828    0.015
 4833.00    1.07299   1.06797    0.015
 4834.00    1.00477   1.06947    0.015
 4835.00    0.96841   1.06924    0.015
 4836.00    0.93781   1.06772    0.015
 4837.00    1.05747   1.06767    0.015
 4838.00    1.17711   1.06715    0.015
 4839.00    1.29641   1.06383    0.015
 4840.00    1.38456   1.05988    0.015
 4841.00    1.19105   1.05808    0.015
 4842.00    1.03735   1.05676    0.015
 4843.00    1.14776   1.05422    0.015
 4844.00    1.22384   1.05345    0.015
 4845.00    1.12278   1.05450    0.015
 4846.00    1.01876   1.05449    0.015
 4847.00    0.90246   1.05391    0.015
 4848.00    0.83234   1.05235    0.000
 4849.00    0.92124   1.04909    0.000
 4850.00    1.01402   1.04544    0.000
 4851.00    1.11807   1.03907    0.000
 4852.00    1.18153   1.02867    0.000
 4853.00    1.14451   1.01832    0.000
 4854.00    1.13535   1.00631    0.000
 4855.00    1.18562   0.98829    0.000
 4856.00    1.12575   0.96904    0.000
 4857.00    0.86178   0.95033    0.000
 4858.00    0.71144   0.92775    0.000
 4859.00    0.74506   0.90580    0.000
 4860.00    0.77751   0.88860    0.000
 4861.00    0.80833   0.87284    0.000
 4862.00    0.86454   0.86315    0.000
 4863.00    0.95247   0.86360    0.000
 4864.00    0.95252   0.86826    0.000
 4865.00    0.85581   0.87729    0.000
 4866.00    0.82496   0.89381    0.000
 4867.00    0.85806   0.91034    0.000
 4868.00    0.90886   0.92226    0.000
 4869.00    0.97481   0.93500    0.000
 4870.00    0.99906   0.94680    0.000
 4871.00    0.99185   0.95207    0.000
 4872.00    0.94683   0.95648    0.000
 4873.00    0.87675   0.96504    0.000
 4874.00    0.84748   0.97278    0.000
 4875.00    0.84190   0.97931    0.015
 4876.00    0.94046   0.99107    0.015
 4877.00    1.09169   1.00427    0.015
 4878.00    0.92568   1.01266    0.015
 4879.00    0.62074   1.02164    0.015
 4880.00    0.61259   1.03115    0.015
 4881.00    0.71599   1.03380    0.015
 4882.00    0.82179   1.03269    0.015
 4883.00    0.92837   1.03232    0.015
 4884.00    1.01587   1.02822    0.015
 4885.00    1.09828   1.02024    0.015
 4886.00    1.16291   1.01401    0.015
 4887.00    1.22365   1.00860    0.015
 4888.00    1.09565   1.00205    0.015
 4889.00    0.93494   0.99962    0.015
 4890.00    0.90802   1.00159    0.016
 4891.00    0.89871   1.00486    0.016
 4892.00    0.92632   1.01391    0.015
 4893.00    0.95736   1.02810    0.015
 4894.00    1.04025   1.04249    0.015
 4895.00    1.12608   1.05884    0.015
 4896.00    1.09392   1.07526    0.016
 4897.00    1.05907   1.08715    0.016
 4898.00    1.02339   1.09639    0.016
 4899.00    0.99554   1.10193    0.016
 4900.00    1.15344   1.10156    0.015
 4901.00    1.29259   1.10004    0.015
 4902.00    1.18917   1.09842    0.015
 4903.00    1.11003   1.09402    0.015
 4904.00    1.24194   1.08989    0.015
 4905.00    1.32920   1.08819    0.015
 4906.00    1.12925   1.08562    0.015
 4907.00    0.98031   1.08132    0.015
 4908.00    1.08791   1.07795    0.016
 4909.00    1.16280   1.07495    0.016
 4910.00    1.10460   1.07020    0.016
 4911.00    1.03206   1.06594    0.015
 4912.00    0.91111   1.06394    0.015
 4913.00    0.86513   1.06158    0.015
 4914.00    1.03261   1.05808    0.016
 4915.00    1.17040   1.05421    0.016
 4916.00    1.23594   1.04806    0.016
 4917.00    1.29004   1.03815    0.016
 4918.00    1.32011   1.02586    0.016
 4919.00    1.27088   1.01340    0.016
 4920.00    1.07695   1.00135    0.016
 4921.00    0.95910   0.99126    0.015
 4922.00    0.96259   0.98721    0.015
 4923.00    0.97672   0.99000    0.015
 4924.00    1.00577   0.99652    0.015
 4925.00    1.07849   1.00795    0.015
 4926.00    1.20500   1.02513    0.015
 4927.00    1.20144   1.04154    0.015
 4928.00    1.05667   1.05610    0.015
 4929.00    1.01925   1.07127    0.015
 4930.00    1.08465   1.08099    0.015
 4931.00    1.16914   1.08476    0.015
 4932.00    1.26975   1.08722    0.015
 4933.00    1.25711   1.08400    0.015
 4934.00    1.16027   1.07558    0.015
 4935.00    1.10408   1.06814    0.015
 4936.00    1.07446   1.05968    0.015
 4937.00    1.07826   1.05072    0.015
 4938.00    1.10116   1.04571    0.015
 4939.00    1.05497   1.04335    0.015
 4940.00    0.97439   1.04457    0.000
 4941.00    0.95534   1.05080    0.000
 4942.00    0.96278   1.05823    0.000
 4943.00    1.08498   1.06767    0.000
 4944.00    1.24956   1.08025    0.000
 4945.00    1.23481   1.09068    0.000
 4946.00    1.16395   1.09860    0.000
 4947.00    1.15648   1.10726    0.000
 4948.00    1.16555   1.11386    0.000
 4949.00    1.16831   1.11635    0.000
 4950.00    1.16973   1.11722    0.000
 4951.00    1.18004   1.11621    0.000
 4952.00    1.19184   1.11133    0.000
 4953.00    1.02356   1.10299    0.000
 4954.00    0.83238   1.09120    0.000
 4955.00    0.99088   1.07821    0.000
 4956.00    1.18040   1.06618    0.000
 4957.00    1.19334   1.05288    0.000
 4958.00    1.19696   1.04214    0.000
 4959.00    1.22762   1.03835    0.000
 4960.00    1.25779   1.03706    0.000
 4961.00    1.20875   1.03707    0.000
 4962.00    1.16324   1.04055    0.000
 4963.00    1.19466   1.04524    0.000
 4964.00    1.21815   1.04771    0.000
 4965.00    1.14447   1.04759    0.000
 4966.00    1.07638   1.04753    0.000
 4967.00    1.05522   1.04732    0.000
 4968.00    1.03378   1.04583    0.000
 4969.00    1.01060   1.04614    0.000
 4970.00    1.00358   1.04876    0.000
 4971.00    1.07582   1.05225    0.000
 4972.00    1.16942   1.05675    0.000
 4973.00    1.34806   1.06112    0.000
 4974.00    1.45625   1.06460    0.000
 4975.00    1.33137   1.06558    0.000
 4976.00    1.20986   1.06288    0.000
 4977.00    1.09776   1.05796    0.000
 4978.00    1.00025   1.04935    0.000
 4979.00    0.93763   1.03667    0.000
 4980.00    0.86386   1.02392    0.000
 4981.00    0.76702   1.01148    0.000
 4982.00    0.78914   0.99818    0.000
 4983.00    1.02500   0.98826    0.000
 4984.00    1.16190   0.98407    0.000
 4985.00    1.14330   0.98227    0.000
 4986.00    1.09073   0.98398    0.000
 4987.00    0.99131   0.99110    0.000
 4988.00    0.91874   0.99911    0.000
 4989.00    0.87878   1.00729    0.000
 4990.00    0.93897   1.01613    0.000
 4991.00    1.10637   1.02238    0.000
 4992.00    1.18780   1.02789    0.000
 4993.00    1.18806   1.03201    0.000
 4994.00    1.16601   1.03235    0.000
 4995.00    1.12538   1.03302    0.000
 4996.00    1.12005   1.03211    0.000
 4997.00    1.14059   1.02717    0.000
 4998.00    1.12766   1.02239    0.000
 4999.00    1.09321   1.01581    0.000
 5000.00    1.10744   1.00631    0.000
 5001.00    1.14907   0.99778    0.000
 5002.00    1.09979   0.98891    0.000
 5003.00    1.00596   0.97948    0.000
 5004.00    0.95401   0.97284    0.000
 5005.00    0.91979   0.96809    0.000
 5006.00    1.10117   0.96367    0.000
 5007.00    1.36075   0.96189    0.000
 5008.00    1.25673   0.96241    0.000
 5009.00    1.04118   0.96160    0.000
 5010.00    1.02853   0.96041    0.000
 5011.00    1.06767   0.95961    0.000
 5012.00    1.06210   0.95626    0.000
 5013.00    1.04722   0.95183    0.000
 5014.00    1.05138   0.94780    0.000
 5015.00    1.05865   0.94355    0.000
 5016.00    0.97633   0.94144    0.000
 5017.00    0.88301   0.94132    0.000
 5018.00    0.87155   0.94229    0.000
 5019.00    0.86700   0.94572    0.000
 5020.00    0.95090   0.95097    0.000
 5021.00    1.03912   0.95620    0.000
 5022.00    0.90452   0.96134    0.000
 5023.00    0.77045   0.96790    0.000
 5024.00    0.87848   0.97418    0.000
 5025.00    0.98526   0.97899    0.000
 5026.00    1.06723   0.98573    0.000
 5027.00    1.13510   0.99240    0.000
 5028.00    1.03837   0.99773    0.000
 5029.00    0.95551   1.00538    0.014
 5030.00    0.98466   1.01240    0.014
 5031.00    1.00383   1.01752    0.015
 5032.00    0.96245   1.02254    0.014
 5033.00    0.94973   1.02458    0.014
 5034.00    1.07409   1.02353    0.014
 5035.00    1.16836   1.01890    0.014
 5036.00    1.14540   1.01008    0.014
 5037.00    1.12080   1.00043    0.014
 5038.00    1.09088   0.98858    0.014
 5039.00    1.02242   0.97637    0.014
 5040.00    0.84818   0.96886    0.014
 5041.00    0.76708   0.96336    0.014
 5042.00    0.90499   0.96220    0.014
 5043.00    1.01100   0.96812    0.014
 5044.00    1.05218   0.97526    0.014
 5045.00    1.08815   0.98409    0.014
 5046.00    1.11491   0.99524    0.014
 5047.00    1.13878   1.00313    0.014
 5048.00    1.15819   1.00742    0.014
 5049.00    1.14998   1.01037    0.014
 5050.00    1.10424   1.01166    0.014
 5051.00    1.04681   1.01143    0.014
 5052.00    0.97536   1.01197    0.014
 5053.00    0.91307   1.01508    0.014
 5054.00    0.86045   1.02001    0.014
 5055.00    0.91170   1.02644    0.014
 5056.00    1.05965   1.03422    0.014
 5057.00    1.11608   1.04230    0.014
 5058.00    1.09741   1.04985    0.014
 5059.00    1.08031   1.05523    0.014
 5060.00    1.06435   1.05839    0.014
 5061.00    1.01328   1.05922    0.014
 5062.00    0.93997   1.05627    0.014
 5063.00    0.97728   1.05139    0.014
 5064.00    1.07592   1.04447    0.014
 5065.00    1.04554   1.03495    0.014
 5066.00    0.95295   1.02693    0.014
 5067.00    0.94699   1.01999    0.014
 5068.00    0.97708   1.01254    0.014
 5069.00    1.04404   1.00798    0.014
 5070.00    1.12414   1.00647    0.014
 5071.00    1.18679   1.00483    0.014
 5072.00    1.24420   1.00292    0.014
 5073.00    1.15944   1.00261    0.014
 5074.00    1.03916   1.00215    0.014
 5075.00    0.97197   0.99875    0.014
 5076.00    0.91554   0.99401    0.014
 5077.00    0.99281   0.98958    0.014
 5078.00    1.09133   0.98369    0.014
 5079.00    1.12828   0.97573    0.014
 5080.00    1.15794   0.96928    0.014
 5081.00    1.13475   0.96592    0.014
 5082.00    1.10731   0.96340    0.014
 5083.00    0.91945   0.96323    0.014
 5084.00    0.72438   0.96773    0.014
 5085.00    0.79695   0.97460    0.014
 5086.00    0.87265   0.98226    0.014
 5087.00    0.94726   0.99141    0.014
 5088.00    1.02137   1.00108    0.014
 5089.00    1.08640   1.00987    0.014
 5090.00    1.13838   1.01736    0.014
 5091.00    1.04487   1.02316    0.014
 5092.00    0.96719   1.02718    0.014
 5093.00    1.01293   1.02889    0.014
 5094.00    1.05242   1.02771    0.014
 5095.00    1.05510   1.02409    0.014
 5096.00    1.07040   1.01841    0.014
 5097.00    1.14455   1.01157    0.015
 5098.00    1.21330   1.00423    0.015
 5099.00    1.26149   0.99692    0.014
 5100.00    1.25268   0.99185    0.014
 5101.00    1.06259   0.98865    0.014
 5102.00    0.92309   0.98607    0.014
 5103.00    0.91995   0.98547    0.014
 5104.00    0.91041   0.98522    0.014
 5105.00    0.88609   0.98425    0.014
 5106.00    0.89462   0.98368    0.014
 5107.00    0.96886   0.98167    0.014
 5108.00    1.00824   0.98013    0.014
 5109.00    0.98685   0.98079    0.014
 5110.00    0.94926   0.98049    0.014
 5111.00    0.88694   0.98295    0.014
 5112.00    0.88679   0.98919    0.014
 5113.00    0.96993   0.99417    0.014
 5114.00    1.06224   1.00135    0.014
 5115.00    1.16535   1.01018    0.015
 5116.00    1.15094   1.01576    0.015
 5117.00    1.01425   1.02063    0.015
 5118.00    0.93450   1.02351    0.014
 5119.00    0.90701   1.02192    0.014
 5120.00    1.00850   1.01762    0.014
 5121.00    1.21433   1.01018    0.014
 5122.00    1.24405   1.00046    0.014
 5123.00    1.14840   0.98941    0.014
 5124.00    1.05963   0.97770    0.014
 5125.00    0.97514   0.96822    0.014
 5126.00    0.96914   0.96038    0.014
 5127.00    1.00599   0.95428    0.014
 5128.00    0.97762   0.95247    0.014
 5129.00    0.91831   0.95331    0.014
 5130.00    0.87493   0.95541    0.014
 5131.00    0.83805   0.96015    0.014
 5132.00    0.83880   0.96639    0.014
 5133.00    0.85269   0.97138    0.014
 5134.00    0.86126   0.97576    0.014
 5135.00    0.86826   0.98040    0.014
 5136.00    0.85362   0.98123    0.014
 5137.00    0.83370   0.97965    0.014
 5138.00    0.80434   0.97927    0.014
 5139.00    0.77311   0.97454    0.014
 5140.00    0.83816   0.96886    0.014
 5141.00    0.91806   0.96692    0.014
 5142.00    0.93246   0.96106    0.014
 5143.00    0.93939   0.95605    0.014
 5144.00    0.99149   0.95593    0.014
 5145.00    1.04702   0.95197    0.014
 5146.00    0.85160   0.94893    0.014
 5147.00    0.64586   0.94988    0.014
 5148.00    0.68657   0.94783    0.014
 5149.00    0.73164   0.94673    0.014
 5150.00    0.87422   0.94805    0.014
 5151.00    1.00064   0.94804    0.014
 5152.00    0.84716   0.95013    0.014
 5153.00    0.71097   0.95398    0.014
 5154.00    0.75884   0.95795    0.014
 5155.00    0.80222   0.96466    0.014
 5156.00    0.81184   0.97193    0.014
 5157.00    0.84178   0.97866    0.014
 5158.00    0.98809   0.98573    0.014
 5159.00    1.09360   0.98921    0.014
 5160.00    1.01327   0.98931    0.014
 5161.00    0.95665   0.98607    0.014
 5162.00    0.98848   0.97523    0.014
 5163.00    0.98457   0.95988    0.014
 5164.00    0.86915   0.94106    0.014
 5165.00    0.80079   0.91611    0.014
 5166.00    0.85707   0.89019    0.014
 5167.00    0.89813   0.86552    0.014
 5168.00    0.90457   0.84143    0.014
 5169.00    0.89041   0.82168    0.014
 5170.00    0.83572   0.80817    0.014
 5171.00    0.79191   0.80037    0.014
 5172.00    0.76676   0.79838    0.014
 5173.00    0.75826   0.80315    0.014
 5174.00    0.77476   0.81375    0.014
 5175.00    0.79142   0.82671    0.014
 5176.00    0.80830   0.84121    0.014
 5177.00    0.84765   0.85662    0.014
 5178.00    0.91314   0.86861    0.014
 5179.00    0.94580   0.87511    0.014
 5180.00    0.94478   0.87745    0.014
 5181.00    0.94696   0.87604    0.014
 5182.00    0.95203   0.87127    0.014
 5183.00    0.84314   0.86480    0.014
 5184.00    0.64337   0.86144    0.014
 5185.00    0.64469   0.86301    0.014
 5186.00    0.78711   0.86664    0.014
 5187.00    0.83501   0.87531    0.014
 5188.00    0.82472   0.88815    0.014
 5189.00    0.90924   0.89940    0.014
 5190.00    1.04470   0.91108    0.000
 5191.00    1.03287   0.92072    0.000
 5192.00    0.95229   0.92589    0.000
 5193.00    0.95687   0.93205    0.000
 5194.00    0.99570   0.93647    0.000
 5195.00    0.94873   0.93795    0.000
 5196.00    0.87231   0.94368    0.000
 5197.00    0.91017   0.95057    0.000
 5198.00    0.98104   0.95409    0.000
 5199.00    0.98089   0.95893    0.000
 5200.00    0.96378   0.96335    0.000
 5201.00    0.96590   0.96256    0.000
 5202.00    0.97172   0.95842    0.000
 5203.00    0.92658   0.95237    0.000
 5204.00    0.87381   0.94298    0.000
 5205.00    0.95377   0.93071    0.000
 5206.00    1.04826   0.92043    0.000
 5207.00    0.96481   0.91288    0.000
 5208.00    0.86851   0.90592    0.000
 5209.00    0.74488   0.90530    0.000
 5210.00    0.62023   0.91105    0.000
 5211.00    0.71801   0.91764    0.014
 5212.00    0.81587   0.92847    0.014
 5213.00    0.87917   0.94247    0.014
 5214.00    0.94559   0.95480    0.014
 5215.00    1.06273   0.96643    0.014
 5216.00    1.15726   0.97728    0.014
 5217.00    1.02164   0.98586    0.014
 5218.00    0.90964   0.99213    0.014
 5219.00    0.96955   0.99652    0.014
 5220.00    1.01491   0.99857    0.014
 5221.00    0.97922   0.99793    0.014
 5222.00    0.96105   0.99449    0.014
 5223.00    1.02082   0.98806    0.014
 5224.00    1.05409   0.97951    0.014
 5225.00    0.99055   0.97075    0.014
 5226.00    0.92522   0.96238    0.014
 5227.00    0.85443   0.95486    0.014
 5228.00    0.84746   0.95265    0.014
 5229.00    1.00658   0.95389    0.014
 5230.00    1.03931   0.95563    0.014
 5231.00    0.78939   0.96372    0.014
 5232.00    0.72899   0.97293    0.014
 5233.00    1.03593   0.97941    0.014
 5234.00    1.12172   0.98986    0.014
 5235.00    0.83372   0.99929    0.014
 5236.00    0.68787   1.00634    0.014
 5237.00    0.75256   1.01586    0.014
 5238.00    0.80138   1.02398    0.014
 5239.00    0.82953   1.03066    0.014
 5240.00    0.91044   1.03713    0.014
 5241.00    1.05183   1.04133    0.014
 5242.00    1.09881   1.04327    0.014
 5243.00    1.05029   1.04279    0.014
 5244.00    0.99349   1.04018    0.014
 5245.00    0.92929   1.03579    0.014
 5246.00    0.98809   1.02860    0.014
 5247.00    1.14359   1.01993    0.014
 5248.00    1.13532   1.01298    0.014
 5249.00    1.01381   1.00550    0.014
 5250.00    0.96575   0.99690    0.014
 5251.00    0.96220   0.99373    0.014
 5252.00    0.97507   0.99335    0.014
 5253.00    0.99664   0.99237    0.014
 5254.00    1.03029   0.99567    0.014
 5255.00    1.06951   1.00076    0.014
 5256.00    1.05611   1.00568    0.014
 5257.00    1.02190   1.01031    0.013
 5258.00    0.99431   1.01138    0.014
 5259.00    0.96896   1.01043    0.014
 5260.00    0.91120   1.00550    0.014
 5261.00    0.84427   0.99438    0.014
 5262.00    0.90718   0.97992    0.014
 5263.00    1.00040   0.96198    0.014
 5264.00    1.00192   0.94223    0.014
 5265.00    0.98625   0.92326    0.014
 5266.00    0.78548   0.90496    0.014
 5267.00    0.55789   0.89135    0.014
 5268.00    0.57171   0.88325    0.014
 5269.00    0.61092   0.87695    0.014
 5270.00    0.70280   0.87776    0.014
 5271.00    0.79827   0.88661    0.014
 5272.00    0.79964   0.89492    0.014
 5273.00    0.79785   0.90637    0.014
 5274.00    0.87174   0.92572    0.014
 5275.00    0.94074   0.94324    0.014
 5276.00    0.85058   0.95820    0.014
 5277.00    0.76953   0.97594    0.014
 5278.00    0.82716   0.98950    0.014
 5279.00    0.89520   0.99922    0.014
 5280.00    1.06472   1.00912    0.014
 5281.00    1.21125   1.01520    0.014
 5282.00    1.19585   1.01944    0.014
 5283.00    1.18382   1.02399    0.014
 5284.00    1.19014   1.02813    0.014
 5285.00    1.18994   1.03473    0.014
 5286.00    1.16145   1.04263    0.014
 5287.00    1.12679   1.05016    0.014
 5288.00    1.07008   1.05932    0.014
 5289.00    1.04201   1.06794    0.014
 5290.00    1.09990   1.07328    0.014
 5291.00    1.12698   1.07571    0.014
 5292.00    1.07527   1.07513    0.015
 5293.00    1.01129   1.07101    0.015
 5294.00    0.92031   1.06404    0.014
 5295.00    0.89060   1.05440    0.014
 5296.00    0.97778   1.04310    0.014
 5297.00    1.04113   1.03260    0.014
 5298.00    1.06481   1.02357    0.015
 5299.00    1.04951   1.01768    0.015
 5300.00    0.97733   1.01507    0.015
 5301.00    0.94612   1.01548    0.014
 5302.00    0.96749   1.02186    0.014
 5303.00    1.01587   1.03145    0.014
 5304.00    1.09481   1.04080    0.014
 5305.00    1.13065   1.05184    0.014
 5306.00    1.12352   1.06347    0.014
 5307.00    1.14066   1.07303    0.014
 5308.00    1.17913   1.08095    0.013
 5309.00    1.12346   1.08719    0.013
 5310.00    0.99483   1.09034    0.014
 5311.00    0.95023   1.09177    0.014
 5312.00    0.96288   1.09231    0.014
 5313.00    1.02920   1.09036    0.014
 5314.00    1.12757   1.08695    0.014
 5315.00    1.16502   1.08331    0.014
 5316.00    1.17074   1.07804    0.013
 5317.00    1.12182   1.07259    0.013
 5318.00    1.04822   1.06760    0.013
 5319.00    1.07067   1.06056    0.013
 5320.00    1.13044   1.05317    0.013
 5321.00    1.09660   1.04584    0.013
 5322.00    1.03180   1.03613    0.013
 5323.00    1.02226   1.02510    0.013
 5324.00    1.02804   1.01292    0.013
 5325.00    0.98685   1.00044    0.013
 5326.00    0.93494   0.98889    0.013
 5327.00    0.82869   0.97729    0.013
 5328.00    0.71253   0.96847    0.013
 5329.00    0.74428   0.96628    0.013
 5330.00    0.79677   0.96722    0.013
 5331.00    0.82574   0.97009    0.014
 5332.00    0.85234   0.97920    0.014
 5333.00    0.91786   0.99164    0.014
 5334.00    0.98588   1.00382    0.014
 5335.00    1.02347   1.01443    0.014
 5336.00    1.06009   1.02259    0.014
 5337.00    1.07236   1.02895    0.014
 5338.00    1.08014   1.03236    0.014
 5339.00    0.95961   1.03266    0.014
 5340.00    0.84926   1.03024    0.013
 5341.00    0.88502   1.02819    0.014
 5342.00    0.92031   1.02743    0.014
 5343.00    0.95114   1.02448    0.014
 5344.00    0.96892   1.02365    0.014
 5345.00    0.89778   1.02569    0.014
 5346.00    0.85111   1.02652    0.013
 5347.00    0.93365   1.02953    0.014
 5348.00    0.98299   1.03296    0.014
 5349.00    0.89140   1.03644    0.014
 5350.00    0.84768   1.04367    0.014
 5351.00    0.97176   1.05140    0.014
 5352.00    1.05364   1.05941    0.014
 5353.00    1.01116   1.06934    0.014
 5354.00    1.02821   1.08007    0.014
 5355.00    1.19485   1.09021    0.014
 5356.00    1.26867   1.09773    0.014
 5357.00    1.14162   1.10398    0.014
 5358.00    1.10374   1.10840    0.013
 5359.00    1.23336   1.10863    0.013
 5360.00    1.27051   1.10641    0.013
 5361.00    1.15599   1.10166    0.013
 5362.00    1.09856   1.09387    0.013
 5363.00    1.12324   1.08530    0.014
 5364.00    1.10313   1.07509    0.014
 5365.00    1.02635   1.06306    0.013
 5366.00    0.97903   1.05254    0.013
 5367.00    0.96454   1.04192    0.013
 5368.00    0.97385   1.03138   -2.000
 5369.00    1.00656   1.02357   -2.000
 5370.00    1.03927   1.01742   -2.000
 5371.00    1.07198   1.01404   -2.000
 5372.00    1.02056   1.01478   -2.000
 5373.00    0.90487   1.01882   -2.000
 5374.00    0.92210   1.02461   -2.000
 5375.00    1.02858   1.03352   -2.000
 5376.00    1.15400   1.04423   -2.000
 5377.00    1.29056   1.05275   -2.000
 5378.00    1.18158   1.06067   -2.000
 5379.00    0.94669   1.06686   -2.000
 5380.00    0.93676   1.06962   -2.000
 5381.00    1.02678   1.07135   -2.000
 5382.00    1.10982   1.07185   -2.000
 5383.00    1.19019   1.06980    0.013
 5384.00    1.15252   1.06752    0.013
 5385.00    1.07657   1.06533    0.014
 5386.00    1.10876   1.06119    0.014
 5387.00    1.17033   1.05701    0.013
 5388.00    1.13884   1.05273    0.013
 5389.00    1.08662   1.04634    0.013
 5390.00    1.01196   1.03963    0.013
 5391.00    0.93331   1.03265    0.013
 5392.00    0.87646   1.02443    0.013
 5393.00    0.82256   1.01707    0.013
 5394.00    0.88044   1.01006    0.013
 5395.00    0.94912   1.00372    0.013
 5396.00    0.95162   0.99900    0.014
 5397.00    0.95015   0.99424    0.014
 5398.00    0.96636   0.99232    0.014
 5399.00    0.98278   0.99155    0.014
 5400.00    0.95662   0.98847    0.013
 5401.00    0.93392   0.98735    0.013
 5402.00    1.00049   0.98692    0.013
 5403.00    1.05919   0.98314    0.014
 5404.00    1.01109   0.97839    0.013
 5405.00    0.98105   0.97425    0.013
 5406.00    1.11343   0.97026    0.013
 5407.00    1.20469   0.96760    0.013
 5408.00    1.02420   0.96684    0.013
 5409.00    0.89300   0.96830    0.013
 5410.00    1.01536   0.97338    0.013
 5411.00    1.09413   0.98197    0.013
 5412.00    0.99200   0.99141    0.013
 5413.00    0.94421   1.00151    0.013
 5414.00    1.08308   1.01345    0.013
 5415.00    1.15803   1.02479    0.013
 5416.00    1.04806   1.03490    0.013
 5417.00    0.96939   1.04347    0.013
 5418.00    0.96803   1.04906    0.013
 5419.00    0.98569   1.05330    0.013
 5420.00    1.04386   1.05592    0.013
 5421.00    1.07353   1.05580    0.013
 5422.00    1.05050   1.05533    0.013
 5423.00    0.99541   1.05347    0.012
 5424.00    0.88851   1.04942    0.012
 5425.00    0.88637   1.04733    0.012
 5426.00    1.03271   1.04437    0.012
 5427.00    1.10454   1.03861    0.012
 5428.00    1.08341   1.03415    0.013
 5429.00    0.99615   1.02790    0.012
 5430.00    0.83619   1.02156    0.012
 5431.00    0.81918   1.01755    0.012
 5432.00    0.94078   1.01067    0.012
 5433.00    1.01162   1.00658    0.013
 5434.00    1.03907   1.00732    0.013
 5435.00    0.98859   1.00842    0.013
 5436.00    0.87944   1.01282    0.013
 5437.00    0.87799   1.01981    0.013
 5438.00    0.94781   1.02869    0.013
 5439.00    1.01002   1.03903    0.013
 5440.00    1.06782   1.04818    0.013
 5441.00    1.04616   1.05548    0.013
 5442.00    0.98439   1.05998    0.013
 5443.00    0.95943   1.06164    0.013
 5444.00    0.95055   1.05933    0.013
 5445.00    0.98932   1.05411    0.013
 5446.00    1.04596   1.04744    0.013
 5447.00    1.06558   1.03956    0.013
 5448.00    1.07341   1.03346    0.013
 5449.00    1.03498   1.02746    0.013
 5450.00    0.98427   1.02181    0.013
 5451.00    1.01423   1.01942    0.013
 5452.00    1.06175   1.01735    0.013
 5453.00    0.99158   1.01504    0.013
 5454.00    0.90108   1.01332    0.013
 5455.00    0.95133   1.01094    0.013
 5456.00    1.02004   1.01014    0.013
 5457.00    1.04376   1.01091    0.013
 5458.00    1.06331   1.01043    0.013
 5459.00    0.94194   1.01164    0.013
 5460.00    0.81265   1.01397    0.013
 5461.00    0.85742   1.01540    0.013
 5462.00    0.90565   1.01728    0.013
 5463.00    0.90995   1.01781    0.013
 5464.00    0.91658   1.01878    0.012
 5465.00    0.97794   1.02042    0.012
 5466.00    1.03613   1.02028    0.012
 5467.00    1.05336   1.02101    0.013
 5468.00    1.06310   1.02151    0.013
 5469.00    1.00798   1.02033    0.012
 5470.00    0.95937   1.01852    0.012
 5471.00    0.95253   1.01518    0.012
 5472.00    0.93589   1.01118    0.012
 5473.00    0.87013   1.00590    0.012
 5474.00    0.83402   1.00004    0.012
 5475.00    0.91827   0.99525    0.012
 5476.00    0.97340   0.98914    0.012
 5477.00    0.93050   0.98488    0.012
 5478.00    0.89876   0.98412   -2.000
 5479.00    0.89872   0.98326   -2.000
 5480.00    0.92044   0.98425   -2.000
 5481.00    0.99496   0.98715   -2.000
 5482.00    1.14072   0.99142   -2.000
 5483.00    1.43571   0.99693   -2.000
 5484.00    1.50849   1.00157   -2.000
 5485.00    1.17661   1.00650   -2.000
 5486.00    0.76364   1.01166   -2.000
 5487.00    0.22159   1.01565   -2.000
 5488.00   -0.08802   1.01879   -2.000
 5489.00   -0.07290   1.02157   -2.000
 5490.00    0.11375   1.02292   -2.000
 5491.00    0.51127   1.02403   -2.000
 5492.00    0.88283   1.02548   -2.000
 5493.00    1.22624   1.02558   -2.000
 5494.00    1.26142   1.02602   -2.000
 5495.00    1.00195   1.02639   -2.000
 5496.00    0.91652   1.02544   -2.000
 5497.00    0.97778   1.02446   -2.000
 5498.00    1.01141   1.02391   -2.000
 5499.00    1.02454   1.02317   -2.000
 5500.00    1.00835   1.02110   -2.000
 5501.00    0.97306   1.01805   -2.000
 5502.00    0.89996   1.01602    0.013
 5503.00    0.80530   1.01407    0.013
 5504.00    0.78337   1.01074    0.013
 5505.00    0.79758   1.00795    0.013
 5506.00    0.88834   1.00509    0.013
 5507.00    1.01199   1.00277    0.013
 5508.00    1.01520   1.00187    0.020
 5509.00    0.97404   0.99913    0.105
 5510.00    0.94569   0.99717   -1.000
 5511.00    0.92134   0.99685   -1.000
 5512.00    0.94111   0.99537   -1.000
 5513.00    0.97237   0.99581   -1.000
 5514.00    0.95836   0.99720   -1.000
 5515.00    0.93473   0.99901   -1.000
 5516.00    0.96185   1.00379    0.027
 5517.00    0.99748   1.00906    0.013
 5518.00    1.03938   1.01545    0.012
 5519.00    1.08207   1.02236    0.012
 5520.00    0.99525   1.02757    0.012
 5521.00    0.89701   1.03256    0.012
 5522.00    0.90440   1.03570    0.012
 5523.00    0.91731   1.03619    0.012
 5524.00    0.97477   1.03548    0.012
 5525.00    1.03172   1.03285    0.012
 5526.00    0.98679   1.02910    0.012
 5527.00    0.94650   1.02518    0.012
 5528.00    1.00616   1.02080    0.012
 5529.00    1.05614   1.01801    0.012
 5530.00    0.98786   1.01654    0.012
 5531.00    0.93500   1.01551    0.012
 5532.00    1.01062   1.01616    0.012
 5533.00    1.08564   1.01764    0.012
 5534.00    1.15688   1.01990    0.012
 5535.00    1.20281   1.02212    0.012
 5536.00    1.12506   1.02461    0.012
 5537.00    1.07203   1.02771    0.012
 5538.00    1.11714   1.03005    0.013
 5539.00    1.14669   1.03336    0.013
 5540.00    1.12484   1.03645    0.013
 5541.00    1.10268   1.03861    0.012
 5542.00    1.07965   1.04125    0.012
 5543.00    1.06997   1.04313    0.012
 5544.00    1.09211   1.04510    0.013
 5545.00    1.08003   1.04732    0.013
 5546.00    0.99742   1.04855    0.012
 5547.00    0.94327   1.05044    0.012
 5548.00    0.94016   1.05293    0.012
 5549.00    0.97488   1.05445    0.012
 5550.00    1.06893   1.05593    0.012
 5551.00    1.08367   1.05702    0.012
 5552.00    0.98922   1.05682    0.012
 5553.00    0.97889   1.05609    0.012
 5554.00    1.07053   1.05439    0.012
 5555.00    1.07538   1.05196    0.012
 5556.00    0.98749   1.04955    0.012
 5557.00    0.95920   1.04633    0.012
 5558.00    0.98706   1.04296    0.012
 5559.00    1.00172   1.04035    0.012
 5560.00    1.00539   1.03696    0.012
 5561.00    0.98892   1.03341    0.012
 5562.00    0.95771   1.03013    0.012
 5563.00    0.95802   1.02632    0.012
 5564.00    0.97859   1.02311    0.012
 5565.00    1.00087   1.01968    0.012
 5566.00    1.02411   1.01641    0.012
 5567.00    1.06797   1.01402    0.012
 5568.00    1.12191   1.01198    0.012
 5569.00    1.16768   1.01097    0.012
 5570.00    1.21000   1.01032    0.012
 5571.00    1.12028   1.01090    0.012
 5572.00    0.98280   1.01195    0.012
 5573.00    0.92136   1.01290    0.012
 5574.00    0.88319   1.01586    0.012
 5575.00    0.88485   1.01848    0.012
 5576.00    0.89665   1.02026    0.012
 5577.00    0.92420   1.02320    0.012
 5578.00    0.95500   1.02511    0.012
 5579.00    0.85425   1.02585    0.012
 5580.00    0.73205   1.02622    0.012
 5581.00    0.82283   1.02401    0.012
 5582.00    0.93963   1.02014    0.012
 5583.00    1.01654   1.01565    0.012
 5584.00    1.09011   1.00852    0.012
 5585.00    1.01908   1.00040    0.012
 5586.00    0.94105   0.99218    0.012
 5587.00    0.99078   0.98323    0.012
 5588.00    1.04049   0.97628    0.013
 5589.00    0.97498   0.97071    0.012
 5590.00    0.91455   0.96694    0.012
 5591.00    0.95478   0.96654    0.012
 5592.00    0.99126   0.96709    0.012
 5593.00    0.98408   0.96969    0.012
 5594.00    0.97889   0.97375    0.012
 5595.00    0.98972   0.97753    0.012
 5596.00    0.98390   0.98171    0.012
 5597.00    0.87751   0.98423    0.012
 5598.00    0.79325   0.98534    0.012
 5599.00    0.81451   0.98717    0.012
 5600.00    0.83860   0.98820    0.012
 5601.00    0.87364   0.98882    0.012
 5602.00    0.91044   0.99103    0.012
 5603.00    0.95294   0.99410    0.012
 5604.00    0.97106   0.99962    0.012
 5605.00    0.92247   1.00653    0.012
 5606.00    0.89623   1.01350    0.012
 5607.00    0.92247   1.02149    0.012
 5608.00    0.96597   1.02846    0.012
 5609.00    1.04449   1.03398    0.012
 5610.00    1.07688   1.03705    0.011
 5611.00    1.02782   1.03773    0.011
 5612.00    0.99505   1.03628    0.011
 5613.00    0.98744   1.03180    0.012
 5614.00    0.94922   1.02576    0.012
 5615.00    0.86944   1.01836    0.012
 5616.00    0.80680   1.01171    0.012
 5617.00    0.76465   1.00645    0.012
 5618.00    0.76832   1.00079    0.011
 5619.00    0.82026   0.99680    0.011
 5620.00    0.85223   0.99464    0.011
 5621.00    0.86563   0.99399    0.011
 5622.00    0.90565   0.99421    0.012
 5623.00    0.96747   0.99413    0.012
 5624.00    0.94051   0.99450    0.012
 5625.00    0.84953   0.99588    0.012
 5626.00    0.82592   0.99846    0.012
 5627.00    0.84494   1.00111    0.012
 5628.00    0.90661   1.00408    0.012
 5629.00    0.99188   1.00810    0.012
 5630.00    0.99643   1.01212    0.012
 5631.00    0.96215   1.01582    0.012
 5632.00    0.95243   1.01852    0.012
 5633.00    0.95291   1.01970    0.012
 5634.00    0.98728   1.01973    0.012
 5635.00    1.03368   1.01837    0.012
 5636.00    1.03570   1.01561    0.012
 5637.00    1.02440   1.01236    0.012
 5638.00    1.04583   1.00904    0.012
 5639.00    1.07541   1.00581    0.011
 5640.00    1.05759   1.00331    0.011
 5641.00    1.03019   1.00123    0.011
 5642.00    0.96630   1.00052    0.011
 5643.00    0.89664   1.00112    0.011
 5644.00    0.86885   1.00189    0.011
 5645.00    0.84599   1.00390    0.011
 5646.00    0.85194   1.00612    0.011
 5647.00    0.86018   1.00860    0.011
 5648.00    0.94750   1.01138    0.011
 5649.00    1.03833   1.01324    0.011
 5650.00    1.04269   1.01485    0.011
 5651.00    1.04528   1.01599    0.011
 5652.00    1.00948   1.01571    0.011
 5653.00    0.97566   1.01403    0.011
 5654.00    0.97836   1.01138    0.011
 5655.00    0.97995   1.00766    0.011
 5656.00    0.96931   1.00331    0.011
 5657.00    0.96876   0.99832    0.011
 5658.00    1.04657   0.99260    0.012
 5659.00    1.10544   0.98838    0.012
 5660.00    1.05311   0.98579    0.012
 5661.00    0.99757   0.98371    0.012
 5662.00    0.92713   0.98313    0.012
 5663.00    0.88768   0.98407    0.011
 5664.00    0.96603   0.98682    0.012
 5665.00    1.02255   0.99064    0.012
 5666.00    1.00983   0.99443    0.012
 5667.00    0.98731   0.99824    0.012
 5668.00    0.93841   1.00265    0.012
 5669.00    0.92514   1.00753    0.011
 5670.00    0.99411   1.01207    0.012
 5671.00    1.05340   1.01673    0.012
 5672.00    1.09337   1.02135    0.012
 5673.00    1.08583   1.02595    0.012
 5674.00    0.99567   1.03025    0.012
 5675.00    0.92827   1.03356    0.012
 5676.00    0.89552   1.03619    0.012
 5677.00    0.91884   1.03763    0.012
 5678.00    1.01715   1.03756    0.012
 5679.00    1.04151   1.03627    0.012
 5680.00    0.97876   1.03363    0.012
 5681.00    0.95414   1.03036    0.012
 5682.00    0.96911   1.02634    0.011
 5683.00    0.99959   1.02224    0.011
 5684.00    1.04429   1.01873    0.011
 5685.00    1.03613   1.01566    0.011
 5686.00    0.98528   1.01340    0.011
 5687.00    0.96515   1.01202    0.011
 5688.00    0.96684   1.01223    0.011
 5689.00    0.94086   1.01377    0.011
 5690.00    0.89763   1.01646    0.011
 5691.00    0.89824   1.01916    0.011
 5692.00    0.92275   1.02220    0.011
 5693.00    0.95659   1.02508    0.011
 5694.00    0.99484   1.02706    0.012
 5695.00    1.04475   1.02833    0.012
 5696.00    1.09942   1.02754    0.012
 5697.00    1.14922   1.02578    0.012
 5698.00    1.19733   1.02234    0.012
 5699.00    1.13686   1.01776    0.012
 5700.00    1.04447   1.01303    0.012
 5701.00    1.05096   1.00710    0.012
 5702.00    1.08154   1.00168    0.012
 5703.00    1.07604   0.99625    0.012
 5704.00    1.06344   0.99066    0.012
 5705.00    1.02485   0.98593    0.012
 5706.00    0.98228   0.98074    0.012
 5707.00    0.97428   0.97623    0.012
 5708.00    0.97021   0.97341    0.012
 5709.00    1.10025   0.97087    0.012
 5710.00    1.24046   0.97037    0.012
 5711.00    1.21711   0.97169    0.012
 5712.00    1.18711   0.97426    0.012
 5713.00    1.07877   0.98020    0.011
 5714.00    0.97232   0.98716    0.011
 5715.00    0.96879   0.99519    0.011
 5716.00    0.96571   1.00453    0.011
 5717.00    0.97024   1.01323    0.011
 5718.00    0.97719   1.02216    0.011
 5719.00    1.00979   1.03048    0.011
 5720.00    1.04477   1.03717    0.011
 5721.00    1.09761   1.04290    0.011
 5722.00    1.14255   1.04725    0.011
 5723.00    1.14239   1.05022    0.011
 5724.00    1.14021   1.05194    0.011
 5725.00    1.12891   1.05226    0.011
 5726.00    1.10477   1.05166    0.011
 5727.00    1.03284   1.05027    0.011
 5728.00    0.97479   1.04892    0.011
 5729.00    0.95994   1.04733    0.011
 5730.00    0.97229   1.04577    0.011
 5731.00    1.05650   1.04458    0.011
 5732.00    1.11133   1.04381    0.011
 5733.00    1.09948   1.04442    0.011
 5734.00    1.09738   1.04525    0.011
 5735.00    1.11444   1.04592    0.012
 5736.00    1.12857   1.04645    0.012
 5737.00    1.13764   1.04687    0.012
 5738.00    1.14508   1.04788    0.011
 5739.00    1.15006   1.04848    0.011
 5740.00    1.14494   1.04850    0.000
 5741.00    1.12650   1.04822    0.000
 5742.00    1.11280   1.04792    0.000
 5743.00    1.10462   1.04770    0.000
 5744.00    1.08356   1.04768    0.000
 5745.00    1.04930   1.04731    0.000
 5746.00    1.05525   1.04631    0.000
 5747.00    1.09751   1.04511    0.000
 5748.00    1.07078   1.04325    0.000
 5749.00    0.98913   1.04184    0.000
 5750.00    0.98218   1.04025    0.000
 5751.00    1.02755   1.03798    0.000
 5752.00    1.06541   1.03537    0.000
 5753.00    1.09866   1.03291    0.000
 5754.00    1.05479   1.03165    0.000
 5755.00    0.96955   1.03132    0.000
 5756.00    0.89693   1.03127    0.000
 5757.00    0.83019   1.03075    0.000
 5758.00    0.83864   1.03040    0.000
 5759.00    0.87728   1.03025    0.000
 5760.00    0.90861   1.03035    0.000
 5761.00    0.93744   1.03065    0.000
 5762.00    0.95628   1.03095    0.000
 5763.00    0.97226   1.03151    0.000
 5764.00    0.94953   1.03316    0.000
 5765.00    0.91759   1.03523    0.000
 5766.00    0.94933   1.03772    0.000
 5767.00    0.99330   1.04064    0.000
 5768.00    1.01551   1.04339    0.000
 5769.00    1.03448   1.04629    0.000
 5770.00    1.04177   1.04803    0.000
 5771.00    1.04779   1.04872    0.000
 5772.00    1.12416   1.04811    0.000
 5773.00    1.20559   1.04682    0.000
 5774.00    1.22981   1.04460    0.000
 5775.00    1.25192   1.04130    0.000
 5776.00    1.20777   1.03757    0.000
 5777.00    1.16530   1.03252    0.000
 5778.00    1.19301   1.02665    0.000
 5779.00    1.21339   1.01983    0.000
 5780.00    1.11565   1.01235    0.000
 5781.00    1.02146   1.00495    0.000
 5782.00    0.96321   0.99830    0.000
 5783.00    0.91297   0.99237    0.000
 5784.00    0.92077   0.98800    0.000
 5785.00    0.93655   0.98530    0.000
 5786.00    0.99660   0.98463    0.000
 5787.00    1.02918   0.98722    0.000
 5788.00    0.93991   0.99121    0.000
 5789.00    0.88392   0.99637    0.000
 5790.00    0.94925   1.00203    0.000
 5791.00    1.00781   1.00800   -2.000
 5792.00    1.04566   1.01535   -2.000
 5793.00    1.05864   1.02172   -2.000
 5794.00    1.00707   1.02742   -2.000
 5795.00    0.96110   1.03255   -2.000
 5796.00    0.92766   1.03633   -2.000
 5797.00    0.90032   1.04049   -2.000
 5798.00    0.88478   1.04408   -2.000
 5799.00    0.88703   1.04735   -2.000
 5800.00    0.91933   1.05046   -2.000
 5801.00    0.95889   1.05231   -2.000
 5802.00    1.00921   1.05334   -2.000
 5803.00    1.03616   1.05381   -2.000
 5804.00    1.03274   1.05414   -2.000
 5805.00    1.02908   1.05430   -2.000
 5806.00    1.02516   1.05365   -2.000
 5807.00    1.03627   1.05274   -2.000
 5808.00    1.06255   1.05186   -2.000
 5809.00    1.05592   1.05053   -2.000
 5810.00    1.01998   1.04981   -2.000
 5811.00    1.00340   1.04953    0.000
 5812.00    1.00202   1.04901    0.000
 5813.00    1.03426   1.04860    0.000
 5814.00    1.08972   1.04794    0.000
 5815.00    1.15259   1.04762    0.000
 5816.00    1.21994   1.04784    0.000
 5817.00    1.16690   1.04836    0.000
 5818.00    1.05027   1.04986    0.000
 5819.00    0.98086   1.05153    0.000
 5820.00    0.93309   1.05341    0.000
 5821.00    0.90464   1.05556    0.000
 5822.00    0.88381   1.05797    0.000
 5823.00    0.89099   1.06071    0.000
 5824.00    0.90759   1.06272    0.000
 5825.00    0.98650   1.06443    0.000
 5826.00    1.08302   1.06565    0.000
 5827.00    1.03847   1.06647    0.000
 5828.00    0.96108   1.06697    0.000
 5829.00    0.92758   1.06720    0.000
 5830.00    0.90228   1.06734    0.000
 5831.00    0.96065   1.06677    0.000
 5832.00    1.03109   1.06594    0.000
 5833.00    1.05669   1.06492    0.000
 5834.00    1.07759   1.06392    0.000
 5835.00    1.04101   1.06288    0.000
 5836.00    1.00054   1.06193    0.000
 5837.00    0.98766   1.06134    0.000
 5838.00    0.97569   1.06100    0.000
 5839.00    1.00747   1.06093    0.000
 5840.00    1.03953   1.06116    0.000
 5841.00    1.07951   1.06171    0.000
 5842.00    1.11466   1.06186    0.000
 5843.00    1.07676   1.06122    0.000
 5844.00    1.04244   1.05992    0.000
 5845.00    1.04287   1.05799    0.000
 5846.00    1.03958   1.05507    0.000
 5847.00    1.01025   1.05121    0.000
 5848.00    0.97873   1.04677    0.000
 5849.00    0.93532   1.04164    0.000
 5850.00    0.90064   1.03591    0.000
 5851.00    0.90370   1.02977    0.000
 5852.00    0.90767   1.02367    0.000
 5853.00    0.91486   1.01771    0.000
 5854.00    0.92402   1.01235    0.000
 5855.00    0.93912   1.00725    0.000
 5856.00    0.96004   1.00268    0.000
 5857.00    0.99580   0.99895    0.000
 5858.00    1.01656   0.99614    0.000
 5859.00    1.00439   0.99544    0.000
 5860.00    0.96959   0.99553    0.000
 5861.00    0.89170   0.99675    0.000
 5862.00    0.86681   0.99821    0.000
 5863.00    0.93001   1.00051    0.000
 5864.00    0.96599   1.00383    0.000
 5865.00    0.96231   1.00693    0.000
 5866.00    0.96294   1.01022    0.000
 5867.00    0.96908   1.01291    0.000
 5868.00    0.98059   1.01580    0.000
 5869.00    0.99818   1.01841    0.000
 5870.00    0.99461   1.02047    0.000
 5871.00    0.96998   1.02175    0.000
 5872.00    0.95875   1.02223    0.000
 5873.00    0.95930   1.02238    0.000
 5874.00    0.98073   1.02166    0.000
 5875.00    1.01831   1.02019    0.000
 5876.00    1.00001   1.01783    0.000
 5877.00    0.94371   1.01455    0.000
 5878.00    0.94971   1.01084    0.000
 5879.00    0.99285   1.00650    0.000
 5880.00    1.02433   1.00173    0.000
 5881.00    1.04976   0.99584    0.000
 5882.00    1.04289   0.98874    0.000
 5883.00    1.02146   0.98015    0.000
 5884.00    0.95657   0.96956    0.000
 5885.00    0.87483   0.95699    0.000
 5886.00    0.88888   0.94197    0.000
 5887.00    0.93451   0.92456    0.000
 5888.00    0.92371   0.90497    0.000
 5889.00    0.89731   0.88531    0.000
 5890.00    0.88184   0.86697    0.000
 5891.00    0.86886   0.85178    0.000
 5892.00    0.88468   0.83998    0.000
 5893.00    0.90574   0.83045    0.000
 5894.00    0.91408   0.82507    0.000
 5895.00    0.92063   0.82440    0.000
 5896.00    0.92341   0.82938    0.000
 5897.00    0.92580   0.83983    0.000
 5898.00    0.87213   0.85293    0.000
 5899.00    0.81489   0.86816    0.000
 5900.00    0.82641   0.88416    0.000
 5901.00    0.84010   0.90061    0.011
 5902.00    0.90828   0.91820    0.011
 5903.00    0.97384   0.93477    0.011
 5904.00    0.96561   0.94932    0.011
 5905.00    0.95687   0.96171    0.011
 5906.00    0.94088   0.97175    0.011
 5907.00    0.92731   0.97947    0.011
 5908.00    0.93628   0.98526    0.011
 5909.00    0.95327   0.98944    0.011
 5910.00    1.02478   0.99197    0.011
 5911.00    1.08349   0.99322    0.011
 5912.00    1.07480   0.99339    0.011
 5913.00    1.05224   0.99310    0.011
 5914.00    0.97101   0.99198    0.011
 5915.00    0.90314   0.99126    0.011
 5916.00    0.88200   0.99070    0.011
 5917.00    0.87978   0.99051    0.011
 5918.00    0.93321   0.99102    0.011
 5919.00    0.97282   0.99150    0.011
 5920.00    0.97778   0.99298    0.011
 5921.00    0.99003   0.99449    0.011
 5922.00    1.01805   0.99629    0.011
 5923.00    1.03872   0.99806    0.011
 5924.00    1.04559   0.99957    0.011
 5925.00    1.05602   1.00065    0.011
 5926.00    1.07226   1.00118    0.010
 5927.00    1.07903   1.00118    0.010
 5928.00    1.07219   1.00066    0.010
 5929.00    1.07587   1.00046    0.010
 5930.00    1.09283   0.99983    0.010
 5931.00    1.06722   0.99969    0.010
 5932.00    0.99422   0.99941    0.010
 5933.00    0.95994   0.99906    0.010
 5934.00    0.96368   0.99927    0.010
 5935.00    0.98383   0.99935    0.010
 5936.00    1.01819   1.00043    0.010
 5937.00    1.06596   1.00149    0.010
 5938.00    1.12394   1.00236    0.011
 5939.00    1.11064   1.00304    0.011
 5940.00    1.04957   1.00353    0.011
 5941.00    1.01352   1.00403    0.011
 5942.00    0.99217   1.00453    0.011
 5943.00    0.96931   1.00505    0.011
 5944.00    0.94569   1.00542    0.011
 5945.00    0.96350   1.00539    0.011
 5946.00    0.99968   1.00479    0.011
 5947.00    1.01486   1.00403    0.011
 5948.00    1.02206   1.00304    0.011
 5949.00    1.02616   1.00189    0.011
 5950.00    1.02926   1.00058    0.011
 5951.00    1.06344   0.99910    0.011
 5952.00    1.10604   0.99763    0.011
 5953.00    1.11576   0.99614    0.011
 5954.00    1.11818   0.99513    0.011
 5955.00    1.09092   0.99479    0.011
 5956.00    1.05841   0.99490    0.010
 5957.00    1.00322   0.99569    0.010
 5958.00    0.94497   0.99720    0.010
 5959.00    0.91617   0.99947    0.010
 5960.00    0.89020   1.00219    0.010
 5961.00    0.92273   1.00507    0.010
 5962.00    0.95875   1.00818    0.010
 5963.00    0.96957   1.01108    0.010
 5964.00    0.98006   1.01374    0.010
 5965.00    1.03853   1.01653    0.010
 5966.00    1.09531   1.01865    0.010
 5967.00    1.10901   1.02080    0.010
 5968.00    1.11814   1.02233    0.010
 5969.00    1.06577   1.02349    0.010
 5970.00    1.02200   1.02418    0.010
 5971.00    1.05530   1.02420    0.010
 5972.00    1.07627   1.02385    0.011
 5973.00    1.01607   1.02253    0.011
 5974.00    0.96759   1.02058    0.011
 5975.00    0.97926   1.01801    0.011
 5976.00    0.98838   1.01493    0.011
 5977.00    0.98692   1.01172    0.011
 5978.00    0.99480   1.00873    0.011
 5979.00    1.03469   1.00576    0.011
 5980.00    1.07376   1.00316    0.011
 5981.00    1.11047   1.00069    0.011
 5982.00    1.12099   0.99841    0.011
 5983.00    1.06695   0.99682    0.010
 5984.00    1.01746   0.99577    0.010
 5985.00    0.97767   0.99549    0.010
 5986.00    0.95712   0.99600    0.010
 5987.00    0.97208   0.99686    0.010
 5988.00    0.99056   0.99839    0.010
 5989.00    1.01469   1.00011    0.010
 5990.00    1.02259   1.00232    0.010
 5991.00    1.00751   1.00487    0.010
 5992.00    0.99150   1.00714    0.010
 5993.00    0.97433   1.00948    0.010
 5994.00    0.95870   1.01085    0.010
 5995.00    0.94475   1.01148    0.010
 5996.00    0.91221   1.01136    0.010
 5997.00    0.86167   1.01065    0.010
 5998.00    0.82592   1.00950    0.010
 5999.00    0.80280   1.00798    0.010
 6000.00    0.82268   1.00622    0.010
 6001.00    0.87487   1.00408    0.010
 6002.00    0.91812   1.00202    0.010
 6003.00    0.95545   0.99967    0.010
 6004.00    1.03047   0.99765    0.011
 6005.00    1.12728   0.99569    0.011
 6006.00    1.09382   0.99357    0.011
 6007.00    0.99472   0.99210    0.011
 6008.00    0.91561   0.99069    0.011
 6009.00    0.84522   0.98989    0.011
 6010.00    0.82448   0.98933    0.011
 6011.00    0.82230   0.98874    0.010
 6012.00    0.84704   0.98854    0.010
 6013.00    0.88032   0.98810    0.011
 6014.00    0.92244   0.98783    0.011
 6015.00    0.96691   0.98763    0.010
 6016.00    0.95409   0.98736    0.010
 6017.00    0.92885   0.98711    0.010
 6018.00    0.88603   0.98662    0.010
 6019.00    0.84020   0.98640    0.010
 6020.00    0.88862   0.98634    0.010
 6021.00    0.94936   0.98718    0.010
 6022.00    0.95848   0.98841    0.010
 6023.00    0.96285   0.99058    0.010
 6024.00    0.94377   0.99308    0.010
 6025.00    0.92338   0.99627    0.010
 6026.00    0.96874   1.00029    0.010
 6027.00    1.01505   1.00409    0.010
 6028.00    1.01250   1.00864    0.010
 6029.00    1.01047   1.01287    0.010
 6030.00    1.02040   1.01717    0.010
 6031.00    1.02921   1.02099    0.010
 6032.00    1.02364   1.02444    0.010
 6033.00    1.01256   1.02759    0.011
 6034.00    0.95399   1.02993    0.010
 6035.00    0.90738   1.03193    0.010
 6036.00    0.93718   1.03348    0.011
 6037.00    0.95942   1.03450    0.011
 6038.00    0.94384   1.03510    0.011
 6039.00    0.93244   1.03570    0.011
 6040.00    0.93795   1.03604    0.011
 6041.00    0.93990   1.03670    0.011
 6042.00    0.92990   1.03735    0.011
 6043.00    0.92518   1.03829    0.010
 6044.00    0.93542   1.03947    0.010
 6045.00    0.95935   1.04059    0.010
 6046.00    1.01644   1.04185    0.010
 6047.00    1.05728   1.04263    0.010
 6048.00    1.06414   1.04350    0.010
 6049.00    1.06826   1.04366    0.010
 6050.00    1.06737   1.04341    0.010
 6051.00    1.07569   1.04254    0.010
 6052.00    1.09863   1.04094    0.010
 6053.00    1.09321   1.03898    0.010
 6054.00    1.04824   1.03650    0.010
 6055.00    0.99964   1.03415    0.010
 6056.00    0.94659   1.03152    0.010
 6057.00    0.91816   1.02939    0.010
 6058.00    0.91637   1.02745    0.010
 6059.00    0.92516   1.02561    0.010
 6060.00    0.94404   1.02406    0.010
 6061.00    0.95167   1.02252    0.010
 6062.00    0.94982   1.02158    0.011
 6063.00    0.96843   1.02043    0.011
 6064.00    1.00219   1.02026    0.010
 6065.00    1.00390   1.02090    0.010
 6066.00    0.98475   1.02223    0.011
 6067.00    0.96532   1.02470    0.011
 6068.00    0.94573   1.02742    0.010
 6069.00    0.97798   1.03086    0.010
 6070.00    1.03594   1.03433    0.010
 6071.00    1.08237   1.03780    0.011
 6072.00    1.12385   1.04068    0.011
 6073.00    1.13746   1.04267    0.011
 6074.00    1.14084   1.04383    0.011
 6075.00    1.10800   1.04343    0.010
 6076.00    1.06390   1.04148    0.010
 6077.00    1.02209   1.03848    0.010
 6078.00    0.98087   1.03484    0.010
 6079.00    0.98764   1.03051    0.010
 6080.00    1.00456   1.02612    0.010
 6081.00    1.02182   1.02181    0.010
 6082.00    1.03914   1.01803    0.010
 6083.00    1.01625   1.01461    0.010
 6084.00    0.98830   1.01208    0.010
 6085.00    1.00834   1.01004    0.010
 6086.00    1.03260   1.00870    0.010
 6087.00    1.05217   1.00797    0.010
 6088.00    1.07150   1.00731    0.010
 6089.00    1.06300   1.00700    0.010
 6090.00    1.05396   1.00692    0.010
 6091.00    1.04205   1.00731    0.010
 6092.00    1.03009   1.00774    0.010
 6093.00    1.01698   1.00859    0.011
 6094.00    1.00466   1.00938    0.011
 6095.00    1.00188   1.01026    0.011
 6096.00    1.00285   1.01082    0.011
 6097.00    1.03494   1.01095    0.010
 6098.00    1.06256   1.01075    0.010
 6099.00    1.06251   1.00994    0.010
 6100.00    1.05458   1.00815    0.010
 6101.00    1.00824   1.00576    0.010
 6102.00    0.96506   1.00410    0.010
 6103.00    0.93439   1.00212    0.010
 6104.00    0.91088   1.00135    0.010
 6105.00    0.91094   1.00106    0.010
 6106.00    0.91323   1.00171    0.010
 6107.00    0.92169   1.00346    0.010
 6108.00    0.92095   1.00576    0.010
 6109.00    0.89829   1.00849    0.010
 6110.00    0.89250   1.01131    0.010
 6111.00    0.92143   1.01461    0.010
 6112.00    0.95414   1.01730    0.010
 6113.00    0.99366   1.01924    0.010
 6114.00    1.03557   1.02002    0.010
 6115.00    1.08121   1.01984    0.010
 6116.00    1.10186   1.01876    0.010
 6117.00    1.08814   1.01663    0.010
 6118.00    1.06771   1.01344    0.010
 6119.00    1.03917   1.00973    0.010
 6120.00    1.01129   1.00538    0.010
 6121.00    0.98411   1.00171    0.010
 6122.00    0.95185   0.99853    0.010
 6123.00    0.91480   0.99593    0.010
 6124.00    0.89487   0.99455    0.010
 6125.00    0.88914   0.99388    0.011
 6126.00    0.91750   0.99413    0.010
 6127.00    0.97074   0.99485    0.010
 6128.00    0.98988   0.99623    0.010
 6129.00    0.98717   0.99736    0.010
 6130.00    0.97738   0.99814    0.010
 6131.00    0.96363   0.99834    0.010
 6132.00    0.94874   0.99702    0.010
 6133.00    0.93329   0.99444    0.010
 6134.00    0.93201   0.99071    0.010
 6135.00    0.93669   0.98592    0.010
 6136.00    0.96640   0.98179    0.010
 6137.00    1.00513   0.97834    0.010
 6138.00    0.99040   0.97617    0.010
 6139.00    0.95935   0.97520    0.010
 6140.00    0.93249   0.97566    0.010
 6141.00    0.90670   0.97805    0.010
 6142.00    0.96662   0.98149    0.010
 6143.00    1.04423   0.98611    0.010
 6144.00    1.06118   0.99079    0.010
 6145.00    1.06828   0.99546    0.010
 6146.00    1.05617   0.99939    0.010
 6147.00    1.04172   1.00217    0.010
 6148.00    1.00320   1.00362    0.010
 6149.00    0.96267   1.00394    0.010
 6150.00    0.93302   1.00325    0.010
 6151.00    0.90389   1.00187    0.011
 6152.00    0.89607   0.99939    0.010
 6153.00    0.88910   0.99616    0.010
 6154.00    0.91255   0.99228    0.010
 6155.00    0.93764   0.98727    0.010
 6156.00    0.99505   0.98159    0.010
 6157.00    1.04874   0.97468    0.010
 6158.00    1.05945   0.96688    0.010
 6159.00    1.06131   0.95778    0.010
 6160.00    0.99246   0.94829    0.010
 6161.00    0.92305   0.93902    0.011
 6162.00    0.85034   0.93042    0.010
 6163.00    0.79677   0.92349    0.010
 6164.00    0.83420   0.91773    0.010
 6165.00    0.86734   0.91428    0.010
 6166.00    0.88381   0.91240    0.010
 6167.00    0.89259   0.91196    0.010
 6168.00    0.87656   0.91311    0.010
 6169.00    0.85933   0.91571    0.010
 6170.00    0.83879   0.91950    0.010
 6171.00    0.83208   0.92368    0.010
 6172.00    0.85771   0.92866    0.010
 6173.00    0.86887   0.93351    0.010
 6174.00    0.85073   0.93853    0.010
 6175.00    0.83710   0.94334    0.010
 6176.00    0.83142   0.94810    0.010
 6177.00    0.84255   0.95273    0.010
 6178.00    0.87959   0.95674    0.010
 6179.00    0.92038   0.96058    0.010
 6180.00    0.96623   0.96364    0.010
 6181.00    0.97739   0.96596    0.010
 6182.00    0.94717   0.96715    0.010
 6183.00    0.90640   0.96735    0.010
 6184.00    0.85451   0.96627    0.010
 6185.00    0.82928   0.96416    0.010
 6186.00    0.82878   0.96107    0.010
 6187.00    0.87225   0.95722    0.010
 6188.00    0.95168   0.95313    0.010
 6189.00    1.00272   0.94843    0.010
 6190.00    1.03334   0.94453    0.010
 6191.00    0.99878   0.94176    0.010
 6192.00    0.92307   0.93989    0.010
 6193.00    0.83763   0.93949    0.010
 6194.00    0.74682   0.94013    0.010
 6195.00    0.78472   0.94200    0.010
 6196.00    0.88443   0.94444   -2.000
 6197.00    0.94814   0.94733   -2.000
 6198.00    0.99693   0.95032   -2.000
 6199.00    0.91778   0.95348   -2.000
 6200.00    0.79329   0.95661   -2.000
 6201.00    0.71102   0.95943   -2.000
 6202.00    0.64139   0.96225   -2.000
 6203.00    0.72186   0.96453   -2.000
 6204.00    0.83962   0.96648   -2.000
 6205.00    0.88523   0.96791   -2.000
 6206.00    0.91631   0.96876   -2.000
 6207.00    0.94939   0.96874   -2.000
 6208.00    0.98277   0.96765    0.011
 6209.00    1.00089   0.96532    0.011
 6210.00    1.01722   0.96206    0.011
 6211.00    0.95082   0.95734    0.010
 6212.00    0.87786   0.95173    0.010
 6213.00    0.83213   0.94551    0.010
 6214.00    0.78759   0.93916    0.010
 6215.00    0.78984   0.93328    0.010
 6216.00    0.79329   0.92801    0.010
 6217.00    0.82927   0.92335    0.010
 6218.00    0.86456   0.91985    0.010
 6219.00    0.88716   0.91748    0.010
 6220.00    0.90458   0.91619    0.010
 6221.00    0.86501   0.91593    0.010
 6222.00    0.82773   0.91596    0.010
 6223.00    0.80819   0.91656    0.010
 6224.00    0.79725   0.91717    0.010
 6225.00    0.83665   0.91764    0.010
 6226.00    0.86910   0.91774    0.010
 6227.00    0.86936   0.91726    0.010
 6228.00    0.86774   0.91611    0.010
 6229.00    0.85897   0.91464    0.010
 6230.00    0.85830   0.91384    0.010
 6231.00    0.88327   0.91282    0.010
 6232.00    0.90570   0.91293    0.010
 6233.00    0.92130   0.91319    0.010
 6234.00    0.92160   0.91405    0.010
 6235.00    0.88665   0.91513    0.010
 6236.00    0.88168   0.91598    0.010
 6237.00    0.93643   0.91679    0.010
 6238.00    0.96876   0.91653    0.010
 6239.00    0.96215   0.91615    0.010
 6240.00    0.96110   0.91488    0.010
 6241.00    0.96848   0.91297    0.010
 6242.00    0.97151   0.91108    0.010
 6243.00    0.96875   0.90911    0.010
 6244.00    0.95134   0.90752    0.010
 6245.00    0.91671   0.90650    0.010
 6246.00    0.90737   0.90622    0.010
 6247.00    0.92426   0.90629    0.010
 6248.00    0.91547   0.90656    0.010
 6249.00    0.88319   0.90683    0.010
 6250.00    0.85765   0.90629    0.009
 6251.00    0.83753   0.90557    0.009
 6252.00    0.83325   0.90384    0.010
 6253.00    0.84021   0.90179    0.010
 6254.00    0.84372   0.89916    0.010
 6255.00    0.84510   0.89633    0.010
 6256.00    0.83532   0.89393    0.010
 6257.00    0.81948   0.89214    0.010
 6258.00    0.83564   0.89211    0.011
 6259.00    0.86691   0.89268    0.011
 6260.00    0.88999   0.89522    0.012
 6261.00    0.90973   0.89864    0.012
 6262.00    0.88369   0.90321    0.013
 6263.00    0.84171   0.90799    0.013
 6264.00    0.88012   0.91326    0.013
 6265.00    0.94210   0.91855    0.013
 6266.00    0.96185   0.92323    0.012
 6267.00    0.97136   0.92740    0.012
 6268.00    0.96143   0.93090    0.011
 6269.00    0.94768   0.93399    0.010
 6270.00    0.93266   0.93647    0.010
 6271.00    0.91745   0.93861    0.010
 6272.00    0.95252   0.94022    0.010
 6273.00    0.99325   0.94154    0.010
 6274.00    1.00830   0.94254    0.009
 6275.00    1.02141   0.94323    0.009
 6276.00    1.04845   0.94361    0.010
 6277.00    1.07605   0.94377    0.010
 6278.00    1.05683   0.94348    0.010
 6279.00    1.03711   0.94334    0.010
 6280.00    1.01044   0.94339    0.000
 6281.00    0.98552   0.94365    0.000
 6282.00    0.99053   0.94460    0.000
 6283.00    0.99726   0.94565    0.000
 6284.00    1.02211   0.94747    0.000
 6285.00    1.04170   0.94964    0.000
 6286.00    1.02209   0.95206    0.000
 6287.00    1.00409   0.95453    0.000
 6288.00    0.99534   0.95650    0.000
 6289.00    0.98491   0.95794    0.000
 6290.00    0.96688   0.95868    0.000
 6291.00    0.96506   0.95852    0.000
 6292.00    1.02341   0.95764    0.000
 6293.00    1.06098   0.95595    0.000
 6294.00    1.03405   0.95334    0.000
 6295.00    0.98320   0.95026    0.000
 6296.00    0.86926   0.94703    0.000
 6297.00    0.79948   0.94398    0.000
 6298.00    0.82971   0.94108    0.000
 6299.00    0.86928   0.93853    0.000
 6300.00    0.92718   0.93657    0.000
 6301.00    0.96387   0.93575    0.000
 6302.00    0.96430   0.93573    0.000
 6303.00    0.95717   0.93661    0.000
 6304.00    0.93872   0.93812    0.000
 6305.00    0.90966   0.94060    0.000
 6306.00    0.86661   0.94322    0.000
 6307.00    0.84910   0.94592    0.000
 6308.00    0.86118   0.94812    0.000
 6309.00    0.88109   0.94985    0.000
 6310.00    0.90900   0.95079    0.000
 6311.00    0.93853   0.95094    0.000
 6312.00    0.96953   0.95010    0.000
 6313.00    0.98448   0.94817    0.000
 6314.00    0.98669   0.94611    0.000
 6315.00    0.97394   0.94372    0.000
 6316.00    0.95072   0.94103    0.000
 6317.00    0.94434   0.93902    0.000
 6318.00    0.94827   0.93787    0.000
 6319.00    0.93860   0.93755    0.000
 6320.00    0.92165   0.93811    0.000
 6321.00    0.91818   0.93965    0.010
 6322.00    0.92098   0.94239    0.010
 6323.00    0.90879   0.94551    0.010
 6324.00    0.89060   0.94934    0.010
 6325.00    0.88210   0.95305    0.010
 6326.00    0.87691   0.95675    0.009
 6327.00    0.89960   0.96026    0.009
 6328.00    0.93029   0.96281    0.009
 6329.00    0.96174   0.96489    0.009
 6330.00    0.99336   0.96605    0.010
 6331.00    1.01693   0.96652    0.010
 6332.00    1.03896   0.96602    0.010
 6333.00    1.01673   0.96451    0.010
 6334.00    0.98794   0.96265    0.010
 6335.00    0.96943   0.96059    0.010
 6336.00    0.95203   0.95874    0.010
 6337.00    0.95353   0.95665    0.010
 6338.00    0.95638   0.95522    0.010
 6339.00    0.95595   0.95417    0.010
 6340.00    0.95540   0.95346    0.010
 6341.00    1.00054   0.95328    0.010
 6342.00    1.04365   0.95320    0.010
 6343.00    1.00947   0.95401    0.010
 6344.00    0.97439   0.95482    0.010
 6345.00    0.92488   0.95606    0.010
 6346.00    0.87986   0.95728    0.010
 6347.00    0.88010   0.95875    0.010
 6348.00    0.88320   0.96005    0.010
 6349.00    0.90689   0.96118    0.010
 6350.00    0.93144   0.96188    0.009
 6351.00    0.96072   0.96188    0.009
 6352.00    0.98379   0.96103    0.009
 6353.00    0.97943   0.95911    0.010
 6354.00    0.97911   0.95651    0.010
 6355.00    0.99350   0.95289    0.010
 6356.00    0.99761   0.94839    0.010
 6357.00    0.97041   0.94340    0.010
 6358.00    0.94782   0.93841    0.010
 6359.00    0.93716   0.93361    0.010
 6360.00    0.93611   0.92931    0.010
 6361.00    0.95644   0.92613    0.010
 6362.00    0.96849   0.92423    0.010
 6363.00    0.96454   0.92389    0.010
 6364.00    0.96866   0.92503    0.010
 6365.00    0.98634   0.92769    0.011
 6366.00    0.99607   0.93177    0.011
 6367.00    0.99406   0.93681    0.010
 6368.00    0.98139   0.94254    0.010
 6369.00    0.95488   0.94866    0.010
 6370.00    0.94879   0.95487    0.010
 6371.00    0.96603   0.96078    0.010
 6372.00    0.99769   0.96597    0.010
 6373.00    1.04386   0.97042    0.010
 6374.00    1.06488   0.97393    0.010
 6375.00    1.06353   0.97654    0.010
 6376.00    1.05867   0.97807    0.010
 6377.00    1.05107   0.97878    0.010
 6378.00    1.02913   0.97893    0.009
 6379.00    0.99730   0.97843    0.009
 6380.00    0.98309   0.97785    0.009
 6381.00    0.97950   0.97699    0.009
 6382.00    0.98120   0.97625    0.010
 6383.00    0.98568   0.97554    0.010
 6384.00    0.99417   0.97517    0.010
 6385.00    1.00450   0.97486    0.010
 6386.00    1.02029   0.97459    0.010
 6387.00    1.03823   0.97421    0.010
 6388.00    1.02595   0.97367    0.010
 6389.00    1.00354   0.97277    0.010
 6390.00    1.01059   0.97152    0.010
 6391.00    1.02595   0.96977    0.010
 6392.00    1.04850   0.96801    0.010
 6393.00    1.07272   0.96637    0.010
 6394.00    1.07617   0.96471    0.010
 6395.00    1.07576   0.96330    0.010
 6396.00    1.06676   0.96201    0.010
 6397.00    1.05652   0.96128    0.010
 6398.00    1.01136   0.96060    0.010
 6399.00    0.96257   0.96101    0.010
 6400.00    0.94639   0.96177    0.010
 6401.00    0.93239   0.96289    0.010
 6402.00    0.96360   0.96424    0.010
 6403.00    0.99628   0.96567    0.010
 6404.00    0.96799   0.96712    0.010
 6405.00    0.94179   0.96832    0.010
 6406.00    0.98066   0.96919    0.010
 6407.00    1.01823   0.96979    0.010
 6408.00    1.03629   0.97002    0.010
 6409.00    1.04956   0.96963    0.010
 6410.00    1.01651   0.96904    0.010
 6411.00    0.98743   0.96836    0.010
 6412.00    0.98609   0.96761    0.010
 6413.00    0.98829   0.96688    0.010
 6414.00    1.00955   0.96632    0.010
 6415.00    1.02181   0.96582    0.010
 6416.00    0.99520   0.96538    0.010
 6417.00    0.97061   0.96505    0.010
 6418.00    0.95321   0.96477    0.010
 6419.00    0.93448   0.96483    0.010
 6420.00    0.91176   0.96513    0.010
 6421.00    0.90213   0.96600    0.010
 6422.00    0.92585   0.96691    0.010
 6423.00    0.95118   0.96833    0.010
 6424.00    0.98008   0.96979    0.010
 6425.00    1.00849   0.97152    0.010
 6426.00    1.03597   0.97290    0.010
 6427.00    1.05400   0.97395    0.010
 6428.00    1.05638   0.97452    0.010
 6429.00    1.05483   0.97448    0.010
 6430.00    1.04758   0.97438    0.010
 6431.00    1.03301   0.97376    0.010
 6432.00    1.00908   0.97326    0.010
 6433.00    1.00017   0.97258    0.010
 6434.00    1.00819   0.97230    0.010
 6435.00    1.01242   0.97215    0.010
 6436.00    1.01287   0.97255    0.010
 6437.00    1.00221   0.97320    0.010
 6438.00    0.98180   0.97458    0.010
 6439.00    0.98042   0.97625    0.010
 6440.00    0.99372   0.97816    0.010
 6441.00    0.99860   0.98016    0.010
 6442.00    0.99776   0.98204    0.010
 6443.00    1.00860   0.98366    0.010
 6444.00    1.02640   0.98460    0.010
 6445.00    1.05619   0.98475    0.010
 6446.00    1.09221   0.98375    0.010
 6447.00    1.08904   0.98197    0.010
 6448.00    1.06824   0.97917    0.010
 6449.00    1.03284   0.97642    0.010
 6450.00    0.99178   0.97330    0.010
 6451.00    0.99146   0.97069    0.010
 6452.00    1.00454   0.96851    0.010
 6453.00    1.03497   0.96734    0.009
 6454.00    1.07019   0.96704    0.009
 6455.00    1.01696   0.96783    0.010
 6456.00    0.94367   0.96921    0.010
 6457.00    0.88940   0.97102    0.010
 6458.00    0.83857   0.97274    0.010
 6459.00    0.88203   0.97434    0.010
 6460.00    0.93860   0.97554    0.010
 6461.00    0.97711   0.97636    0.010
 6462.00    1.01383   0.97712    0.010
 6463.00    1.00747   0.97746    0.010
 6464.00    0.99839   0.97798    0.010
 6465.00    0.95991   0.97825    0.010
 6466.00    0.92068   0.97902    0.010
 6467.00    0.90994   0.97957    0.010
 6468.00    0.90007   0.98053    0.010
 6469.00    0.91422   0.98131    0.010
 6470.00    0.93127   0.98210    0.010
 6471.00    0.98920   0.98269    0.010
 6472.00    1.04287   0.98295    0.010
 6473.00    1.05708   0.98302    0.010
 6474.00    1.06430   0.98262    0.010
 6475.00    1.02427   0.98217    0.010
 6476.00    0.99075   0.98117    0.010
 6477.00    0.99135   0.98002    0.010
 6478.00    0.99283   0.97838    0.010
 6479.00    0.99806   0.97660    0.009
 6480.00    1.00379   0.97452    0.009
 6481.00    1.01129   0.97241    0.010
 6482.00    1.01586   0.97029    0.010
 6483.00    1.01182   0.96816    0.010
 6484.00    1.00676   0.96611    0.010
 6485.00    0.99916   0.96396    0.010
 6486.00    1.00692   0.96167    0.010
 6487.00    1.04778   0.95892    0.010
 6488.00    1.07226   0.95548    0.010
 6489.00    1.06608   0.95110    0.010
 6490.00    1.06532   0.94547    0.010
 6491.00    1.07339   0.93884    0.010
 6492.00    1.06897   0.93118    0.010
 6493.00    1.04666   0.92312    0.010
 6494.00    1.02948   0.91523    0.010
 6495.00    1.01880   0.90790    0.010
 6496.00    1.00788   0.90223    0.010
 6497.00    0.99673   0.89823    0.010
 6498.00    0.97340   0.89686    0.010
 6499.00    0.93814   0.89773    0.010
 6500.00    0.90607   0.90117    0.010
 6501.00    0.87674   0.90649    0.009
 6502.00    0.89506   0.91346    0.009
 6503.00    0.94965   0.92128    0.010
 6504.00    0.98499   0.92946    0.010
 6505.00    1.00743   0.93739    0.010
 6506.00    1.00956   0.94469    0.010
 6507.00    0.99977   0.95106    0.010
 6508.00    1.02437   0.95630    0.010
 6509.00    1.06654   0.96039    0.010
 6510.00    1.07819   0.96333    0.010
 6511.00    1.07634   0.96521    0.010
 6512.00    1.08904   0.96621    0.010
 6513.00    1.10727   0.96649    0.010
 6514.00    1.09686   0.96621    0.010
 6515.00    1.07720   0.96557    0.010
 6516.00    1.08216   0.96489    0.010
 6517.00    1.09376   0.96414    0.010
 6518.00    1.05950   0.96374    0.010
 6519.00    1.01508   0.96347    0.010
 6520.00    0.98961   0.96377    0.010
 6521.00    0.96749   0.96426    0.009
 6522.00    1.00690   0.96517    0.009
 6523.00    1.05459   0.96610    0.010
 6524.00    1.08577   0.96724    0.010
 6525.00    1.11538   0.96821    0.010
 6526.00    1.11067   0.96910    0.010
 6527.00    1.10393   0.96971    0.010
 6528.00    1.08471   0.97011    0.000
 6529.00    1.06507   0.97033    0.000
 6530.00    1.02809   0.97050    0.000
 6531.00    0.99270   0.97071    0.000
 6532.00    0.99709   0.97102    0.000
 6533.00    0.99895   0.97140    0.000
 6534.00    0.96701   0.97199    0.000
 6535.00    0.93746   0.97268    0.000
 6536.00    0.92917   0.97349    0.000
 6537.00    0.92409   0.97410    0.000
 6538.00    0.94012   0.97455    0.000
 6539.00    0.95410   0.97449    0.000
 6540.00    0.95765   0.97394    0.000
 6541.00    0.96047   0.97270    0.000
 6542.00    0.96031   0.97065    0.000
 6543.00    0.96592   0.96808    0.000
 6544.00    0.99130   0.96483    0.000
 6545.00    1.00700   0.96126    0.000
 6546.00    0.99485   0.95722    0.000
 6547.00    0.98492   0.95315    0.000
 6548.00    0.98046   0.94887    0.000
 6549.00    0.99565   0.94469    0.000
 6550.00    1.05251   0.94026    0.000
 6551.00    1.09504   0.93576    0.000
 6552.00    1.11115   0.93078    0.000
 6553.00    1.10478   0.92545    0.000
 6554.00    1.06220   0.91925    0.000
 6555.00    1.01787   0.91232    0.000
 6556.00    0.97108   0.90428    0.000
 6557.00    0.94860   0.89537    0.000
 6558.00    0.95634   0.88541    0.000
 6559.00    0.96428   0.87500    0.000
 6560.00    0.97243   0.86499    0.000
 6561.00    1.01271   0.85555    0.000
 6562.00    1.08404   0.84763    0.000
 6563.00    1.18877   0.84157    0.000
 6564.00    1.32197   0.83833    0.000
 6565.00    1.41405   0.83772    0.000
 6566.00    1.47528   0.84028    0.000
 6567.00    1.47352   0.84528    0.000
 6568.00    1.43023   0.85242    0.000
 6569.00    1.34075   0.86074    0.000
 6570.00    1.22461   0.86976    0.000
 6571.00    1.11555   0.87862    0.000
 6572.00    1.01005   0.88713    0.000
 6573.00    0.98519   0.89472    0.000
 6574.00    0.99543   0.90162    0.000
 6575.00    0.99834   0.90751    0.000
 6576.00    0.99853   0.91296    0.000
 6577.00    0.98012   0.91768    0.000
 6578.00    0.95583   0.92225    0.000
 6579.00    0.94948   0.92634    0.000
 6580.00    0.94788   0.93026    0.000
 6581.00    0.99784   0.93376    0.000
 6582.00    1.05894   0.93698    0.000
 6583.00    1.15345   0.93975    0.000
 6584.00    1.25369   0.94213    0.000
 6585.00    1.34760   0.94393    0.000
 6586.00    1.44068   0.94520    0.000
 6587.00    1.39192   0.94573    0.000
 6588.00    1.33022   0.94567    0.000
 6589.00    1.25831   0.94482    0.000
 6590.00    1.18585   0.94353    0.000
 6591.00    1.16437   0.94166    0.000
 6592.00    1.14377   0.93963    0.000
 6593.00    1.10208   0.93748    0.000
 6594.00    1.05895   0.93569    0.000
 6595.00    0.98276   0.93432    0.000
 6596.00    0.90897   0.93369    0.000
 6597.00    0.86564   0.93376    0.000
 6598.00    0.83382   0.93454    0.000
 6599.00    0.90071   0.93583    0.000
 6600.00    0.95980   0.93744    0.000
 6601.00    0.96929   0.93907    0.000
 6602.00    0.97302   0.94052    0.000
 6603.00    0.94807   0.94155    0.000
 6604.00    0.93268   0.94211    0.000
 6605.00    0.95585   0.94219    0.000
 6606.00    0.97237   0.94188    0.000
 6607.00    0.96663   0.94140    0.000
 6608.00    0.96991   0.94089    0.000
 6609.00    0.99869   0.94071    0.010
 6610.00    1.01563   0.94085    0.010
 6611.00    1.00397   0.94166    0.010
 6612.00    0.99598   0.94286    0.010
 6613.00    0.99561   0.94473    0.010
 6614.00    1.00490   0.94677    0.010
 6615.00    1.03172   0.94914    0.009
 6616.00    1.06441   0.95130    0.009
 6617.00    1.10641   0.95330    0.009
 6618.00    1.11792   0.95479    0.009
 6619.00    1.08700   0.95571    0.010
 6620.00    1.06717   0.95606    0.010
 6621.00    1.06092   0.95561    0.010
 6622.00    1.05824   0.95469    0.010
 6623.00    1.05940   0.95300    0.010
 6624.00    1.05797   0.95109    0.010
 6625.00    1.05407   0.94862    0.010
 6626.00    1.03731   0.94618    0.010
 6627.00    1.00972   0.94344    0.010
 6628.00    0.98572   0.94091    0.010
 6629.00    0.96436   0.93837    0.010
 6630.00    0.96929   0.93612    0.010
 6631.00    0.99129   0.93404    0.010
 6632.00    0.99371   0.93228    0.010
 6633.00    0.98501   0.93089    0.010
 6634.00    0.95471   0.92986    0.010
 6635.00    0.91372   0.92931    0.010
 6636.00    0.95489   0.92910    0.010
 6637.00    1.03121   0.92930    0.010
 6638.00    1.06634   0.92972    0.010
 6639.00    1.08637   0.93039    0.010
 6640.00    1.04598   0.93107    0.010
 6641.00    0.98683   0.93176    0.010
 6642.00    0.97846   0.93231    0.010
 6643.00    0.98323   0.93279    0.010
 6644.00    1.00417   0.93309    0.010
 6645.00    1.02851   0.93337    0.010
 6646.00    1.01813   0.93350    0.010
 6647.00    1.00196   0.93371    0.010
 6648.00    0.97489   0.93377    0.010
 6649.00    0.94644   0.93394    0.010
 6650.00    0.91636   0.93390    0.010
 6651.00    0.88613   0.93393    0.010
 6652.00    0.88377   0.93370    0.010
 6653.00    0.88284   0.93342    0.010
 6654.00    0.92524   0.93284    0.010
 6655.00    0.96755   0.93208    0.010
 6656.00    0.94846   0.93106    0.010
 6657.00    0.92849   0.92974    0.010
 6658.00    0.88978   0.92822    0.010
 6659.00    0.85363   0.92637    0.010
 6660.00    0.84834   0.92447    0.009
 6661.00    0.84884   0.92235    0.009
 6662.00    0.89709   0.92046    0.010
 6663.00    0.93991   0.91861    0.010
 6664.00    0.94918   0.91727    0.009
 6665.00    0.94907   0.91631    0.009
 6666.00    0.90345   0.91601    0.009
 6667.00    0.86631   0.91624    0.010
 6668.00    0.86269   0.91702    0.010
 6669.00    0.86383   0.91818    0.010
 6670.00    0.88064   0.91952    0.010
 6671.00    0.89986   0.92082    0.010
 6672.00    0.92577   0.92183    0.010
 6673.00    0.95737   0.92239    0.010
 6674.00    1.00248   0.92236    0.010
 6675.00    1.02579   0.92172    0.010
 6676.00    1.00431   0.92057    0.010
 6677.00    0.97259   0.91903    0.010
 6678.00    0.92256   0.91741    0.010
 6679.00    0.90234   0.91583    0.010
 6680.00    0.92868   0.91466    0.010
 6681.00    0.94749   0.91391    0.010
 6682.00    0.95594   0.91381    0.010
 6683.00    0.95791   0.91422    0.009
 6684.00    0.95203   0.91516    0.009
 6685.00    0.97148   0.91639    0.009
 6686.00    1.01788   0.91779    0.010
 6687.00    1.06742   0.91920    0.010
 6688.00    1.11991   0.92036    0.010
 6689.00    1.11247   0.92132    0.010
 6690.00    1.05541   0.92179    0.010
 6691.00    1.03683   0.92198    0.010
 6692.00    1.04630   0.92165    0.010
 6693.00    1.02001   0.92109    0.010
 6694.00    0.97085   0.92016    0.010
 6695.00    0.91303   0.91917    0.010
 6696.00    0.85038   0.91802    0.000
 6697.00    0.83580   0.91702    0.000
 6698.00    0.84462   0.91608    0.000
 6699.00    0.88678   0.91540    0.000
 6700.00    0.94296   0.91488    0.000
 6701.00    0.96278   0.91460    0.000
 6702.00    0.96949   0.91443    0.000
 6703.00    0.98787   0.91436    0.000
 6704.00    1.00980   0.91424    0.000
 6705.00    1.03472   0.91407    0.000
 6706.00    1.06041   0.91368    0.000
 6707.00    1.05908   0.91311    0.000
 6708.00    1.05219   0.91216    0.000
 6709.00    1.01641   0.91093    0.000
 6710.00    0.97595   0.90926    0.000
 6711.00    0.94725   0.90726    0.000
 6712.00    0.91998   0.90488    0.000
 6713.00    0.93750   0.90227    0.000
 6714.00    0.95874   0.89953    0.000
 6715.00    1.00568   0.89687    0.000
 6716.00    1.05384   0.89442    0.000
 6717.00    1.10538   0.89246    0.000
 6718.00    1.15526   0.89103    0.000
 6719.00    1.10992   0.89039    0.000
 6720.00    1.06440   0.89035    0.000
 6721.00    1.01544   0.89116    0.000
 6722.00    0.97062   0.89239    0.000
 6723.00    0.97328   0.89422    0.000
 6724.00    0.96939   0.89615    0.000
 6725.00    0.91331   0.89835    0.000
 6726.00    0.86554   0.90039    0.000
 6727.00    0.86760   0.90239    0.000
 6728.00    0.87995   0.90412    0.000
 6729.00    0.94109   0.90562    0.000
 6730.00    1.00079   0.90684    0.000
 6731.00    1.05492   0.90772    0.000
 6732.00    1.10283   0.90835    0.000
 6733.00    1.13066   0.90857    0.000
 6734.00    1.16829   0.90856    0.000
 6735.00    1.23266   0.90814    0.000
 6736.00    1.26081   0.90751    0.000
 6737.00    1.20435   0.90657    0.000
 6738.00    1.13066   0.90548    0.000
 6739.00    1.02218   0.90422    0.000
 6740.00    0.93218   0.90288    0.000
 6741.00    0.87471   0.90155    0.000
 6742.00    0.84463   0.90018    0.000
 6743.00    0.85675   0.89895    0.000
 6744.00    0.87456   0.89768    0.000
 6745.00    0.90006   0.89661    0.000
 6746.00    0.90820   0.89552    0.000
 6747.00    0.89567   0.89468    0.000
 6748.00    0.87857   0.89388    0.000
 6749.00    0.85667   0.89340    0.000
 6750.00    0.85312   0.89314    0.000
 6751.00    0.86656   0.89325    0.000
 6752.00    0.89496   0.89382    0.000
 6753.00    0.93555   0.89475    0.010
 6754.00    0.97114   0.89627    0.011
 6755.00    1.00314   0.89804    0.011
 6756.00    0.97528   0.90032    0.011
 6757.00    0.90968   0.90261    0.011
 6758.00    0.91589   0.90512    0.011
 6759.00    0.96169   0.90735    0.011
 6760.00    0.99958   0.90940    0.012
 6761.00    1.03368   0.91094    0.012
 6762.00    1.06967   0.91200    0.012
 6763.00    1.10645   0.91249    0.012
 6764.00    1.11877   0.91242    0.012
 6765.00    1.12246   0.91193    0.012
 6766.00    1.13566   0.91109    0.012
 6767.00    1.15171   0.91015    0.011
 6768.00    1.10150   0.90921    0.011
 6769.00    1.03489   0.90851    0.011
 6770.00    0.99736   0.90816    0.011
 6771.00    0.96568   0.90827    0.011
 6772.00    0.98617   0.90885    0.010
 6773.00    1.01486   0.90986    0.010
 6774.00    0.99845   0.91118    0.010
 6775.00    0.97677   0.91265    0.010
 6776.00    0.95653   0.91402    0.010
 6777.00    0.93640   0.91514    0.010
 6778.00    0.93003   0.91574    0.011
 6779.00    0.92426   0.91577    0.011
 6780.00    0.91380   0.91506    0.011
 6781.00    0.90368   0.91376    0.011
 6782.00    0.91146   0.91185    0.011
 6783.00    0.91870   0.90961    0.011
 6784.00    0.91591   0.90717    0.011
 6785.00    0.90848   0.90479    0.011
 6786.00    0.85028   0.90270    0.011
 6787.00    0.80175   0.90095    0.011
 6788.00    0.82764   0.89978    0.011
 6789.00    0.86183   0.89900    0.011
 6790.00    0.94437   0.89881    0.011
 6791.00    1.01112   0.89885    0.011
 6792.00    1.00487   0.89928    0.011
 6793.00    1.01418   0.89980    0.011
 6794.00    1.08229   0.90051    0.010
 6795.00    1.12664   0.90124    0.010
 6796.00    1.09597   0.90206    0.010
 6797.00    1.05694   0.90292    0.010
 6798.00    0.99553   0.90382    0.010
 6799.00    0.95458   0.90475    0.011
 6800.00    0.96062   0.90568    0.011
 6801.00    0.96860   0.90657    0.011
 6802.00    0.98041   0.90737    0.011
 6803.00    0.98491   0.90805    0.011
 6804.00    0.97672   0.90856    0.011
 6805.00    0.94619   0.90890    0.011
 6806.00    0.88177   0.90906    0.011
 6807.00    0.86271   0.90908    0.011
 6808.00    0.90409   0.90897    0.010
 6809.00    0.92813   0.90880    0.010
 6810.00    0.93181   0.90860    0.010
 6811.00    0.95596   0.90840    0.010
 6812.00    1.00129   0.90827    0.011
 6813.00    0.98240   0.90819    0.011
 6814.00    0.90488   0.90827    0.011
 6815.00    0.85739   0.90842    0.011
 6816.00    0.83405   0.90879    0.010
 6817.00    0.84272   0.90921    0.010
 6818.00    0.87405   0.90986    0.010
 6819.00    0.92305   0.91056    0.010
 6820.00    0.98304   0.91139    0.010
 6821.00    1.00495   0.91224    0.010
 6822.00    1.00619   0.91305    0.010
 6823.00    1.00971   0.91386    0.010
 6824.00    1.01430   0.91445    0.010
 6825.00    0.98191   0.91501    0.010
 6826.00    0.93449   0.91526    0.010
 6827.00    0.89254   0.91550    0.011
 6828.00    0.85249   0.91540    0.011
 6829.00    0.84759   0.91536    0.011
 6830.00    0.85298   0.91502    0.011
 6831.00    0.88492   0.91474    0.011
 6832.00    0.92329   0.91420    0.011
 6833.00    0.91368   0.91361    0.011
 6834.00    0.89469   0.91275    0.010
 6835.00    0.86949   0.91166    0.010
 6836.00    0.84334   0.91029    0.010
 6837.00    0.91179   0.90862    0.011
 6838.00    0.99087   0.90680    0.011
 6839.00    1.01273   0.90479    0.011
 6840.00    1.03030   0.90292    0.011
 6841.00    1.04929   0.90118    0.011
 6842.00    1.06834   0.89989    0.011
 6843.00    0.99870   0.89905    0.010
 6844.00    0.92991   0.89877    0.010
 6845.00    0.91949   0.89905    0.010
 6846.00    0.90820   0.89972    0.011
 6847.00    0.88240   0.90073    0.011
 6848.00    0.86310   0.90172    0.011
 6849.00    0.91172   0.90269    0.011
 6850.00    0.96399   0.90324    0.011
 6851.00    1.04332   0.90346    0.011
 6852.00    1.10853   0.90310    0.011
 6853.00    1.09371   0.90232    0.011
 6854.00    1.07107   0.90107    0.010
 6855.00    1.01313   0.89959    0.010
 6856.00    0.96086   0.89791    0.010
 6857.00    0.92951   0.89629    0.010
 6858.00    0.90103   0.89478    0.010
 6859.00    0.88145   0.89361    0.010
 6860.00    0.88389   0.89270    0.010
 6861.00    0.94422   0.89224    0.010
 6862.00    0.99828   0.89204    0.010
 6863.00    1.03814   0.89218    0.010
 6864.00    1.05335   0.89247    0.010
 6865.00    1.02029   0.89289    0.010
 6866.00    0.97365   0.89334    0.011
 6867.00    0.90384   0.89372    0.011
 6868.00    0.85717   0.89409    0.011
 6869.00    0.84510   0.89434    0.011
 6870.00    0.86281   0.89464    0.011
 6871.00    0.91962   0.89487    0.011
 6872.00    0.94413   0.89528    0.011
 6873.00    0.93124   0.89568    0.010
 6874.00    0.92500   0.89635    0.010
 6875.00    0.92556   0.89699    0.010
 6876.00    0.95472   0.89789    0.010
 6877.00    1.00963   0.89867    0.010
 6878.00    1.00779   0.89962    0.010
 6879.00    0.96092   0.90035    0.010
 6880.00    0.95064   0.90121    0.010
 6881.00    0.96589   0.90184    0.010
 6882.00    1.03684   0.90265    0.010
 6883.00    1.14186   0.90338    0.010
 6884.00    1.14651   0.90436    0.010
 6885.00    1.09752   0.90546    0.010
 6886.00    1.06474   0.90685    0.010
 6887.00    1.03948   0.90845    0.010
 6888.00    1.01406   0.91024    0.010
 6889.00    0.98857   0.91217    0.011
 6890.00    0.94923   0.91408    0.011
 6891.00    0.90516   0.91595    0.011
 6892.00    0.87794   0.91759    0.011
 6893.00    0.85554   0.91905    0.011
 6894.00    0.84742   0.92018    0.011
 6895.00    0.84269   0.92108    0.010
 6896.00    0.88103   0.92172    0.010
 6897.00    0.92759   0.92220    0.010
 6898.00    0.95499   0.92260    0.010
 6899.00    0.97956   0.92295    0.010
 6900.00    1.03515   0.92337    0.010
 6901.00    1.09409   0.92384    0.010
 6902.00    1.05844   0.92443    0.010
 6903.00    1.01609   0.92506    0.010
 6904.00    0.95770   0.92577    0.010
 6905.00    0.89873   0.92646    0.010
 6906.00    0.85624   0.92706    0.010
 6907.00    0.81519   0.92753    0.010
 6908.00    0.82189   0.92771    0.010
 6909.00    0.82911   0.92770    0.010
 6910.00    0.84464   0.92730    0.010
 6911.00    0.86125   0.92671    0.010
 6912.00    0.88866   0.92578    0.011
 6913.00    0.91473   0.92474    0.011
 6914.00    0.93106   0.92359    0.011
 6915.00    0.94106   0.92244    0.011
 6916.00    0.91612   0.92148    0.011
 6917.00    0.88814   0.92053    0.011
 6918.00    0.84670   0.91997    0.011
 6919.00    0.82372   0.91933    0.011
 6920.00    0.86768   0.91908    0.010
 6921.00    0.91082   0.91864    0.010
 6922.00    0.95151   0.91844    0.010
 6923.00    0.98208   0.91803    0.010
 6924.00    0.98648   0.91773    0.010
 6925.00    0.96298   0.91729    0.010
 6926.00    0.87745   0.91690    0.010
 6927.00    0.82848   0.91660    0.010
 6928.00    0.84995   0.91636    0.011
 6929.00    0.86591   0.91634    0.011
 6930.00    0.87262   0.91646    0.011
 6931.00    0.85382   0.91674    0.011
 6932.00    0.79744   0.91723    0.011
 6933.00    0.80475   0.91778    0.011
 6934.00    0.89451   0.91854    0.011
 6935.00    0.92566   0.91922    0.011
 6936.00    0.88993   0.92001    0.011
 6937.00    0.90673   0.92063    0.011
 6938.00    0.97638   0.92122    0.011
 6939.00    1.00943   0.92161    0.011
 6940.00    1.01000   0.92184    0.011
 6941.00    1.00128   0.92187    0.011
 6942.00    0.98531   0.92167    0.010
 6943.00    0.98513   0.92130    0.010
 6944.00    0.99580   0.92077    0.011
 6945.00    0.99572   0.92017    0.011
 6946.00    0.98915   0.91957    0.010
 6947.00    1.00593   0.91901    0.010
 6948.00    1.03500   0.91857    0.010
 6949.00    1.02055   0.91825    0.011
 6950.00    0.98625   0.91810    0.011
 6951.00    0.97094   0.91813    0.011
 6952.00    0.96309   0.91835    0.011
 6953.00    0.93950   0.91881    0.011
 6954.00    0.91064   0.91942    0.011
 6955.00    0.93590   0.92028    0.011
 6956.00    0.97636   0.92132    0.011
 6957.00    0.95621   0.92260    0.011
 6958.00    0.92205   0.92404    0.011
 6959.00    0.96878   0.92574    0.011
 6960.00    1.03052   0.92744    0.011
 6961.00    1.04481   0.92926    0.011
 6962.00    1.05231   0.93098    0.011
 6963.00    1.02780   0.93263    0.010
 6964.00    0.99997   0.93404    0.010
 6965.00    1.05647   0.93525    0.010
 6966.00    1.11859   0.93616    0.011
 6967.00    1.01398   0.93674    0.011
 6968.00    0.90405   0.93698    0.011
 6969.00    0.92494   0.93674    0.011
 6970.00    0.94427   0.93609    0.011
 6971.00    0.91558   0.93491    0.011
 6972.00    0.88690   0.93323    0.011
 6973.00    0.85834   0.93115    0.011
 6974.00    0.84129   0.92865    0.011
 6975.00    0.93474   0.92601    0.011
 6976.00    1.01461   0.92314    0.011
 6977.00    0.99994   0.92067    0.011
 6978.00    0.98024   0.91843    0.011
 6979.00    0.93351   0.91709    0.011
 6980.00    0.89201   0.91630    0.011
 6981.00    0.87310   0.91653    0.011
 6982.00    0.86793   0.91752    0.011
 6983.00    0.91156   0.91935    0.011
 6984.00    0.92736   0.92169    0.011
 6985.00    0.86016   0.92438    0.011
 6986.00    0.83894   0.92718    0.011
 6987.00    0.93454   0.92983    0.011
 6988.00    0.99735   0.93207    0.011
 6989.00    0.98849   0.93386    0.011
 6990.00    0.96814   0.93521    0.011
 6991.00    0.92600   0.93603    0.011
 6992.00    0.92233   0.93653    0.011
 6993.00    0.98236   0.93656    0.011
 6994.00    1.01441   0.93641    0.012
 6995.00    1.00584   0.93586    0.012
 6996.00    1.01631   0.93524    0.012
 6997.00    1.05106   0.93425    0.012
 6998.00    1.06726   0.93324    0.011
 6999.00    1.06258   0.93191    0.011
 7000.00    1.02107   0.93069    0.011
 7001.00    0.94303   0.92932    0.011
 7002.00    0.90033   0.92814    0.011
 7003.00    0.88854   0.92700    0.011
 7004.00    0.84985   0.92608    0.011
 7005.00    0.79043   0.92539    0.011
 7006.00    0.75659   0.92491    0.011
 7007.00    0.74009   0.92461    0.011
 7008.00    0.76490   0.92440    0.011
 7009.00    0.81425   0.92420    0.011
 7010.00    0.81835   0.92402    0.011
 7011.00    0.79903   0.92371    0.011
 7012.00    0.82379   0.92340    0.011
 7013.00    0.86835   0.92287    0.011
 7014.00    0.96485   0.92237    0.012
 7015.00    1.08139   0.92169    0.012
 7016.00    1.03867   0.92124    0.012
 7017.00    0.94368   0.92082    0.012
 7018.00    0.84480   0.92073    0.012
 7019.00    0.74485   0.92073    0.011
 7020.00    0.84426   0.92106    0.012
 7021.00    0.98873   0.92155    0.012
 7022.00    0.97782   0.92250    0.011
 7023.00    0.93883   0.92334    0.011
 7024.00    0.87329   0.92441    0.011
 7025.00    0.80407   0.92529    0.011
 7026.00    0.76450   0.92636    0.011
 7027.00    0.72788   0.92724    0.011
 7028.00    0.78103   0.92838    0.011
 7029.00    0.83980   0.92946    0.011
 7030.00    0.93754   0.93077    0.011
 7031.00    1.03603   0.93195    0.011
 7032.00    1.03802   0.93318    0.011
 7033.00    1.03864   0.93435    0.012
 7034.00    1.00162   0.93552    0.012
 7035.00    0.96640   0.93671    0.012
 7036.00    0.95645   0.93793    0.012
 7037.00    0.94055   0.93933    0.012
 7038.00    0.86991   0.94094    0.012
 7039.00    0.80716   0.94285    0.012
 7040.00    0.79770   0.94502    0.012
 7041.00    0.78650   0.94740    0.012
 7042.00    0.76620   0.94978    0.012
 7043.00    0.77596   0.95221    0.012
 7044.00    0.91235   0.95466    0.012
 7045.00    1.03789   0.95653    0.011
 7046.00    1.12567   0.95777    0.011
 7047.00    1.15140   0.95800    0.011
 7048.00    0.99552   0.95727    0.012
 7049.00    0.87957   0.95534    0.012
 7050.00    0.86335   0.95240   -2.000
 7051.00    0.88001   0.94843   -2.000
 7052.00    0.96738   0.94342   -2.000
 7053.00    1.03489   0.93762   -2.000
 7054.00    1.06531   0.93120   -2.000
 7055.00    1.05155   0.92445   -2.000
 7056.00    0.96574   0.91774   -2.000
 7057.00    0.90818   0.91104   -2.000
 7058.00    0.89104   0.90510   -2.000
 7059.00    0.89924   0.89958   -2.000
 7060.00    0.93932   0.89499   -2.000
 7061.00    0.95565   0.89096   -2.000
 7062.00    0.94565   0.88766   -2.000
 7063.00    0.95310   0.88487   -2.000
 7064.00    0.97763   0.88274   -2.000
 7065.00    0.97007   0.88127   -2.000
 7066.00    0.93483   0.88045   -2.000
 7067.00    0.87627   0.88015   -2.000
 7068.00    0.79999   0.88035   -2.000
 7069.00    0.79660   0.88116   -2.000
 7070.00    0.84189   0.88225   -2.000
 7071.00    0.93467   0.88391   -2.000
 7072.00    1.05524   0.88584   -2.000
 7073.00    1.11816   0.88810   -2.000
 7074.00    1.15168   0.89046   -2.000
 7075.00    1.15573   0.89266   -2.000
 7076.00    1.14678   0.89443   -2.000
 7077.00    1.04596   0.89560   -2.000
 7078.00    0.91030   0.89619   -2.000
 7079.00    0.92314   0.89583   -2.000
 7080.00    0.98381   0.89469   -2.000
 7081.00    1.05569   0.89249   -2.000
 7082.00    1.13058   0.88951   -2.000
 7083.00    1.04410   0.88557   -2.000
 7084.00    0.92198   0.88098   -2.000
 7085.00    0.88807   0.87583   -2.000
 7086.00    0.86968   0.87039   -2.000
 7087.00    0.93330   0.86474   -2.000
 7088.00    1.00792   0.85950   -2.000
 7089.00    0.93121   0.85450   -2.000
 7090.00    0.84011   0.85043   -2.000
 7091.00    0.78290   0.84680   -2.000
 7092.00    0.72768   0.84409   -2.000
 7093.00    0.70831   0.84197   -2.000
 7094.00    0.69110   0.84098   -2.000
 7095.00    0.84766   0.84031   -2.000
 7096.00    0.99816   0.84070   -2.000
 7097.00    0.99790   0.84122   -2.000
 7098.00    0.99142   0.84233   -2.000
 7099.00    0.90231   0.84369   -2.000
 7100.00    0.82314   0.84504   -2.000
 7101.00    0.83201   0.84671   -2.000
 7102.00    0.84271   0.84796   -2.000
 7103.00    0.86535   0.84944   -2.000
 7104.00    0.89652   0.85034   -2.000
 7105.00    0.97121   0.85127   -2.000
 7106.00    1.00325   0.85177   -2.000
 7107.00    0.85978   0.85227   -2.000
 7108.00    0.75150   0.85250   -2.000
 7109.00    0.76321   0.85273   -2.000
 7110.00    0.78848   0.85278   -2.000
 7111.00    0.85276   0.85290   -2.000
 7112.00    0.88249   0.85304   -2.000
 7113.00    0.82749   0.85331   -2.000
 7114.00    0.78271   0.85366   -2.000
 7115.00    0.75959   0.85403   -2.000
 7116.00    0.74236   0.85451   -2.000
 7117.00    0.73600   0.85489   -2.000
 7118.00    0.77921   0.85510   -2.000
 7119.00    0.90208   0.85502   -2.000
 7120.00    1.00811   0.85446   -2.000
 7121.00    1.09041   0.85364   -2.000
 7122.00    1.03694   0.85210   -2.000
 7123.00    0.81507   0.85038   -2.000
 7124.00    0.77531   0.84797   -2.000
 7125.00    0.93466   0.84543   -2.000
 7126.00    0.91166   0.84263   -2.000
 7127.00    0.71279   0.83965   -2.000
 7128.00    0.63370   0.83695   -2.000
 7129.00    0.65648   0.83421   -2.000
 7130.00    0.68718   0.83215   -2.000
 7131.00    0.72381   0.83037   -2.000
 7132.00    0.72365   0.82947   -2.000
 7133.00    0.69928   0.82890   -2.000
 7134.00    0.70601   0.82920   -2.000
 7135.00    0.73065   0.82984   -2.000
 7136.00    0.68444   0.83112   -2.000
 7137.00    0.60266   0.83261   -2.000
 7138.00    0.64319   0.83412   -2.000
 7139.00    0.73683   0.83573   -2.000
 7140.00    0.79519   0.83701   -2.000
 7141.00    0.84040   0.83816   -2.000
 7142.00    0.81988   0.83897   -2.000
 7143.00    0.77859   0.83956   -2.000
 7144.00    0.79575   0.83988   -2.000
 7145.00    0.82832   0.84003   -2.000
 7146.00    0.76127   0.84009   -2.000
 7147.00    0.67275   0.84006   -2.000
 7148.00    0.73643   0.84019   -2.000
 7149.00    0.82613   0.84053   -2.000
 7150.00    0.76629   0.84101   -2.000
 7151.00    0.68710   0.84200   -2.000
 7152.00    0.77739   0.84321   -2.000
 7153.00    0.88308   0.84477   -2.000
 7154.00    0.77140   0.84651   -2.000
 7155.00    0.64783   0.84828   -2.000
 7156.00    0.75624   0.84978   -2.000
 7157.00    0.86938   0.85113   -2.000
 7158.00    0.97026   0.85193   -2.000
 7159.00    1.06333   0.85260   -2.000
 7160.00    0.97887   0.85265   -2.000
 7161.00    0.88129   0.85249   -2.000
 7162.00    0.61853   0.85204   -2.000
 7163.00    0.44238   0.85139   -2.000
 7164.00    1.00511   0.85105   -2.000
 7165.00    1.46445   0.85065   -2.000
 7166.00    1.26853   0.85074   -2.000
 7167.00    1.08714   0.85090   -2.000
 7168.00    0.97788   0.85182   -2.000
 7169.00    0.85919   0.85292   -2.000
 7170.00    0.70259   0.85454   -2.000
 7171.00    0.61849   0.85611   -2.000
 7172.00    0.77666   0.85764   -2.000
 7173.00    0.87873   0.85898   -2.000
 7174.00    0.82255   0.86004   -2.000
 7175.00    0.78882   0.86077   -2.000
 7176.00    0.80925   0.86100   -2.000
 7177.00    0.83621   0.86088   -2.000
 7178.00    0.87676   0.86023   -2.000
 7179.00    0.89017   0.85944   -2.000
 7180.00    0.85441   0.85843   -2.000
 7181.00    0.79384   0.85731   -2.000
 7182.00    0.69396   0.85594   -2.000
 7183.00    0.70059   0.85464   -2.000
 7184.00    0.85518   0.85326   -2.000
 7185.00    0.92589   0.85226   -2.000
 7186.00    0.89403   0.85115   -2.000
 7187.00    0.91397   0.85021   -2.000
 7188.00    0.98974   0.84921   -2.000
 7189.00    0.94244   0.84830   -2.000
 7190.00    0.77813   0.84752   -2.000
 7191.00    0.65976   0.84723   -2.000
 7192.00    0.57992   0.84703   -2.000
 7193.00    0.59210   0.84745   -2.000
 7194.00    0.67219   0.84782   -2.000
 7195.00    0.76960   0.84845   -2.000
 7196.00    0.87824   0.84920   -2.000
 7197.00    0.83844   0.85002   -2.000
 7198.00    0.71443   0.85090   -2.000
 7199.00    0.76524   0.85150   -2.000
 7200.00    0.90239   0.85214   -2.000
 7201.00    0.68375   0.85258   -2.000
 7202.00    0.31320   0.85285   -2.000
 7203.00    0.29464   0.85293   -2.000
 7204.00    0.40487   0.85276   -2.000
 7205.00    0.45884   0.85257   -2.000
 7206.00    0.49537   0.85243   -2.000
 7207.00    0.58016   0.85214   -2.000
 7208.00    0.67739   0.85208   -2.000
 7209.00    0.68104   0.85181   -2.000
 7210.00    0.66499   0.85212   -2.000
 7211.00    0.70942   0.85283   -2.000
 7212.00    0.76389   0.85382   -2.000
 7213.00    0.76203   0.85546   -2.000
 7214.00    0.75313   0.85694   -2.000
 7215.00    0.71115   0.85871   -2.000
 7216.00    0.66631   0.86043   -2.000
 7217.00    0.77188   0.86228   -2.000
 7218.00    0.88510   0.86419   -2.000
