###################################################################
## OUTPUT of StarlightChains_v04.for    [Cid@UFSC - 01/Apr/2007] ##
###################################################################

## Some input info
KUG0210-078._26_34.txt                   [arq_obs]
Base.CB07.vall.4m                        [arq_base]
Masks.EmLines.NEW.gm                     [arq_masks]
StCv04.C11.config                        [arq_config]
   66                                    [N_base]
    0                                    [N_YAV_components = # of components with extra extinction!]
    0                                    [i_FitPowerLaw (1/0 = Yes/No)]
-9.99                                    [alpha_PowerLaw]
CCM                                      [red_law_option]
 1.458241                                [q_norm = A(l_norm)/A(V)]

## (Re)Sampling Parameters
 3741.00                                 [l_ini (A)]
 7218.00                                 [l_fin (A)]
    1.00                                 [dl    (A)]     (OBS: dl_cushion =    50.00 A)

## Normalization info
 4020.00                                 [l_norm (A) - for base]
 4010.00                                 [llow_norm (A) - window for f_obs]
 4060.00                                 [lupp_norm (A) - window for f_obs]
4.815146E-17                             [fobs_norm (in input units)]

## S/N
 3691.00                                 [llow_SN (A) - window for S/N]
 7268.00                                 [lupp_SN (A) - window for S/N]
   6.202                                 [S/N in S/N window]
   6.797                                 [S/N in norm. window]
   0.057                                 [S/N_err in S/N window]
   0.063                                 [S/N_err in norm. window]
  1.0000                                 [fscale_chi2]

## etc...
    -2007330                             [idum_orig]
  2432                                   [NOl_eff]
  2424                                   [Nl_eff]
     8    NSIGMA                         [Ntot_cliped & clip_method]
  3302110                                [Nglobal_steps]
   7                                     [N_chains]
  32                                     [NEX0s_base = N_base in EX0s-fits]
 0   0   1        8   2.0   5.585E+03    [Clip-Bug, RC-Crash & Burn-In warning-flags, n_censored_weights, wei_nsig_threshold & wei_limit]
    71     70.330     69.922      0.408  [idt_all, wdt_TotTime, wdt_UsrTime & wdt_SysTime (sec)]

## Synthesis Results - Best model ##

 4.60421E-05                             [chi2/Nl_eff]
     5.72346                             [adev (%)]

   119.58868                             [sum-of-x (%)]
 2.31895E-17                             [Flux_tot (units of input spectrum!)]
 3.24502E-13                             [Mini_tot (???)]
 1.79885E-13                             [Mcor_tot (???)]

 -36.21                                  [v0_min  (km/s)]
 453.98                                  [vd_min  (km/s)]
-0.6772                                  [AV_min  (mag)]
 0.0000                                  [YAV_min (mag)]

# j     x_j(%)      Mini_j(%)     Mcor_j(%)     age_j(yr)     Z_j      (L/M)_j    YAV?  Mstars   component_j        a/Fe...       SSP_chi2r SSP_adev(%)   SSP_AV   SSP_x(%)
  1      0.0000     0.0000E+00    0.0000E+00    1.000000E+06  0.00400  1.094E-02    0   1.0000   age020_m42            0.0000     1.0905E-04     8.9428   2.6830    98.5303
  2      0.0000     0.0000E+00    0.0000E+00    3.160000E+06  0.00400  4.007E-02    0   0.9999   age045_m42            0.0000     7.8409E-05     7.5853   1.9276   106.0828
  3      0.0000     0.0000E+00    0.0000E+00    5.010000E+06  0.00400  2.539E-02    0   0.9488   age055_m42            0.0000     9.0342E-05     8.1422   2.2624   103.1117
  4      0.0000     0.0000E+00    0.0000E+00    6.610000E+06  0.00400  2.620E-02    0   0.9220   age061_m42            0.0000     7.8513E-05     7.4857   1.8567   106.2244
  5      0.0000     0.0000E+00    0.0000E+00    1.000000E+07  0.00400  1.322E-02    0   0.8862   age070_m42            0.0000     8.9527E-05     8.3254   1.6261   106.7435
  6      0.0000     0.0000E+00    0.0000E+00    1.445000E+07  0.00400  7.883E-03    0   0.8571   age078_m42            0.0000     9.5051E-05     8.5376   1.9527   104.1004
  7      0.0000     0.0000E+00    0.0000E+00    2.512000E+07  0.00400  5.251E-03    0   0.8174   age090_m42            0.0000     8.9720E-05     8.4715   1.5027   107.1174
  8      0.0000     0.0000E+00    0.0000E+00    4.000000E+07  0.00400  3.649E-03    0   0.7851   age104_m42            0.0000     8.3759E-05     8.1223   1.2652   108.3544
  9      4.4745     8.6307E-02    1.1878E-01    5.500000E+07  0.00400  3.098E-03    0   0.7629   age110_m42            0.0000     7.7302E-05     7.4543   1.3895   109.3010
 10      0.0000     0.0000E+00    0.0000E+00    1.015200E+08  0.00400  2.228E-03    0   0.7207   age116_m42            0.0000     7.4739E-05     7.1346   1.3923   110.0861
 11      0.0000     0.0000E+00    0.0000E+00    2.861200E+08  0.00400  1.093E-03    0   0.6648   age125_m42            0.0000     7.4119E-05     7.0742   0.8280   112.9561
 12      7.6243     6.9062E-01    7.9297E-01    5.088000E+08  0.00400  6.597E-04    0   0.6365   age130_m42            0.0000     7.0367E-05     6.5975   0.7879   114.9684
 13      0.0000     0.0000E+00    0.0000E+00    1.434000E+09  0.00400  2.132E-04    0   0.5798   age139_m42            0.0000     5.4672E-05     6.0337  -0.2006   117.9336
 14      8.3097     8.4233E+00    8.1704E+00    4.250000E+09  0.00400  5.895E-05    0   0.5377   age158_m42            0.0000     4.8231E-05     5.8531  -0.6733   114.6620
 15      3.5656     6.0702E+00    5.7073E+00    7.500000E+09  0.00400  3.510E-05    0   0.5212   age171_m42            0.0000     4.9518E-05     5.8501  -0.8801   114.5194
 16      0.0000     0.0000E+00    0.0000E+00    1.300000E+10  0.00400  2.005E-05    0   0.5034   age193_m42            0.0000     5.3687E-05     6.1877  -1.0000   113.0507
 17      0.0000     0.0000E+00    0.0000E+00    1.800000E+10  0.00400  1.525E-05    0   0.4967   age213_m42            0.0000     5.4128E-05     6.3744  -1.0000   111.9953
 18      0.0000     0.0000E+00    0.0000E+00    1.000000E+06  0.00800  1.238E-02    0   1.0000   age020_m52            0.0000     1.0934E-04     8.9381   2.6785    98.7448
 19      0.0000     0.0000E+00    0.0000E+00    3.160000E+06  0.00800  3.074E-02    0   0.9966   age045_m52            0.0000     1.0610E-04     8.8307   2.5986    99.7418
 20      0.0000     0.0000E+00    0.0000E+00    5.010000E+06  0.00800  2.668E-02    0   0.9443   age055_m52            0.0000     9.4775E-05     8.3524   2.3510   102.0397
 21      0.0000     0.0000E+00    0.0000E+00    6.610000E+06  0.00800  2.136E-02    0   0.9177   age061_m52            0.0000     8.5072E-05     8.1866   1.1250   108.0887
 22      0.0000     0.0000E+00    0.0000E+00    1.000000E+07  0.00800  1.215E-02    0   0.8827   age070_m52            0.0000     9.7032E-05     8.8165   1.8189   106.0061
 23      0.0000     0.0000E+00    0.0000E+00    1.445000E+07  0.00800  8.717E-03    0   0.8552   age078_m52            0.0000     9.2757E-05     8.4612   1.9180   105.5469
 24      6.2694     6.6995E-02    9.8642E-02    2.512000E+07  0.00800  5.592E-03    0   0.8162   age090_m52            0.0000     8.8754E-05     8.4580   1.5653   108.3789
 25      0.0000     0.0000E+00    0.0000E+00    4.000000E+07  0.00800  3.896E-03    0   0.7841   age104_m52            0.0000     8.1285E-05     7.9163   1.4603   109.7598
 26      0.0000     0.0000E+00    0.0000E+00    1.015200E+08  0.00800  2.148E-03    0   0.7226   age116_m52            0.0000     7.3677E-05     7.2453   1.3711   110.5539
 27      0.0000     0.0000E+00    0.0000E+00    2.861200E+08  0.00800  9.925E-04    0   0.6683   age125_m52            0.0000     7.0977E-05     6.6883   0.8540   116.0089
 28      0.0000     0.0000E+00    0.0000E+00    9.047900E+08  0.00800  3.141E-04    0   0.6138   age135_m52            0.0000     5.7736E-05     5.8948  -0.0000   122.7038
 29     38.4724     1.3374E+01    1.4121E+01    1.434000E+09  0.00800  1.719E-04    0   0.5853   age139_m52            0.0000     4.7553E-05     5.7542  -0.5766   120.2016
 30      2.1365     1.6218E+00    1.6384E+00    2.500000E+09  0.00800  7.872E-05    0   0.5600   age150_m52            0.0000     4.7436E-05     5.8239  -0.8828   118.4865
 31      0.0000     0.0000E+00    0.0000E+00    4.250000E+09  0.00800  4.336E-05    0   0.5426   age158_m52            0.0000     4.9135E-05     5.8360  -0.8990   117.4325
 32      5.9313     1.1220E+01    1.0765E+01    6.250000E+09  0.00800  3.159E-05    0   0.5319   age166_m52            0.0000     5.6807E-05     6.6666  -1.0000   115.4300
 33      1.0571     4.6411E+00    4.2473E+00    1.300000E+10  0.00800  1.361E-05    0   0.5073   age193_m52            0.0000     1.4757E-04    15.8261  -1.0000   102.8416
 34      0.0000     0.0000E+00    0.0000E+00    1.800000E+10  0.00800  9.886E-06    0   0.4990   age213_m52            0.0000     1.9590E-04    18.3757  -1.0000    99.4039
 35      0.2456     9.5066E-04    1.7149E-03    1.000000E+06  0.02000  1.544E-02    0   1.0000   age020_m62            0.0000     1.1063E-04     8.9933   2.6762    98.9365
 36      0.0000     0.0000E+00    0.0000E+00    3.160000E+06  0.02000  3.762E-02    0   0.9858   age045_m62            0.0000     1.0980E-04     8.9590   2.6127    99.8967
 37      0.3848     6.9773E-04    1.1758E-03    5.010000E+06  0.02000  3.296E-02    0   0.9342   age055_m62            0.0000     8.5230E-05     7.8474   2.2099   104.7870
 38      0.0000     0.0000E+00    0.0000E+00    8.710000E+06  0.02000  1.154E-02    0   0.8861   age067_m62            0.0000     1.4538E-04    12.2467   1.3593   105.7145
 39      0.0000     0.0000E+00    0.0000E+00    1.445000E+07  0.02000  7.663E-03    0   0.8472   age078_m62            0.0000     1.0501E-04     9.5376   1.4891   107.4840
 40      0.0000     0.0000E+00    0.0000E+00    2.512000E+07  0.02000  4.532E-03    0   0.8099   age090_m62            0.0000     1.0533E-04     9.5835   1.4818   107.1211
 41      0.0000     0.0000E+00    0.0000E+00    5.500000E+07  0.02000  2.733E-03    0   0.7595   age110_m62            0.0000     8.2907E-05     7.9957   1.4457   108.9229
 42      0.0000     0.0000E+00    0.0000E+00    1.609000E+08  0.02000  1.369E-03    0   0.6985   age120_m62            0.0000     7.5539E-05     7.0671   1.2410   113.3761
 43      0.0000     0.0000E+00    0.0000E+00    2.861200E+08  0.02000  9.013E-04    0   0.6714   age125_m62            0.0000     7.6807E-05     6.8102   0.9651   117.5083
 44      0.0000     0.0000E+00    0.0000E+00    5.088000E+08  0.02000  5.028E-04    0   0.6449   age130_m62            0.0000     7.0997E-05     6.3153   0.5389   122.3224
 45      0.0000     0.0000E+00    0.0000E+00    9.047900E+08  0.02000  2.428E-04    0   0.6179   age135_m62            0.0000     5.2408E-05     5.8043  -0.0746   122.6613
 46      0.0000     0.0000E+00    0.0000E+00    1.434000E+09  0.02000  1.263E-04    0   0.5908   age139_m62            0.0000     4.8707E-05     5.7691  -0.5291   121.3297
 47      7.5767     7.5648E+00    7.7416E+00    2.500000E+09  0.02000  5.985E-05    0   0.5673   age150_m62            0.0000     5.2139E-05     6.2294  -0.9316   121.0240
 48      6.2925     1.1495E+01    1.1339E+01    4.250000E+09  0.02000  3.271E-05    0   0.5468   age158_m62            0.0000     7.5202E-05     8.5170  -1.0000   114.7444
 49      0.0000     0.0000E+00    0.0000E+00    1.000000E+10  0.02000  1.360E-05    0   0.5167   age181_m62            0.0000     1.7106E-04    15.9442  -1.0000   105.0864
 50      0.0000     0.0000E+00    0.0000E+00    1.800000E+10  0.02000  7.124E-06    0   0.5013   age213_m62            0.0000     2.6738E-04    20.7517  -1.0000    98.2033
 51      0.0000     0.0000E+00    0.0000E+00    1.000000E+06  0.05000  2.592E-02    0   0.9998   age020_m72            0.0000     1.1481E-04     9.1491   2.6726    98.8304
 52      0.0000     0.0000E+00    0.0000E+00    3.160000E+06  0.05000  4.845E-02    0   0.9577   age045_m72            0.0000     9.8545E-05     8.4879   2.4812   101.6633
 53      0.0000     0.0000E+00    0.0000E+00    5.010000E+06  0.05000  3.072E-02    0   0.9147   age055_m72            0.0000     1.0540E-04     8.9317   2.0459   104.2996
 54      0.0000     0.0000E+00    0.0000E+00    6.610000E+06  0.05000  1.455E-02    0   0.8877   age061_m72            0.0000     1.8031E-04    13.4672   1.4118   105.5099
 55      0.0000     0.0000E+00    0.0000E+00    1.000000E+07  0.05000  9.074E-03    0   0.8524   age070_m72            0.0000     1.0981E-04     8.8041   2.2121   104.0946
 56      0.0000     0.0000E+00    0.0000E+00    2.512000E+07  0.05000  4.250E-03    0   0.7902   age090_m72            0.0000     9.5159E-05     8.3785   1.9129   106.3047
 57      0.0000     0.0000E+00    0.0000E+00    4.000000E+07  0.05000  3.087E-03    0   0.7618   age104_m72            0.0000     9.3607E-05     8.3954   1.6868   107.9836
 58      0.0000     0.0000E+00    0.0000E+00    1.015200E+08  0.05000  1.700E-03    0   0.7096   age116_m72            0.0000     8.0011E-05     7.4358   1.3982   112.3199
 59      0.0000     0.0000E+00    0.0000E+00    2.861200E+08  0.05000  7.384E-04    0   0.6633   age125_m72            0.0000     7.2984E-05     6.4301   0.8057   120.1021
 60      0.0000     0.0000E+00    0.0000E+00    5.088000E+08  0.05000  3.819E-04    0   0.6372   age130_m72            0.0000     5.7803E-05     6.0289   0.2698   123.7365
 61      0.0000     0.0000E+00    0.0000E+00    9.047900E+08  0.05000  1.676E-04    0   0.6110   age135_m72            0.0000     5.0635E-05     6.3799  -0.4776   123.5745
 62      5.0601     3.4217E+00    3.6257E+00    1.434000E+09  0.05000  8.837E-05    0   0.5874   age139_m72            0.0000     5.3707E-05     6.3541  -0.9466   123.3364
 63     22.1881     3.1322E+01    3.1631E+01    2.500000E+09  0.05000  4.233E-05    0   0.5598   age150_m72            0.0000     8.1029E-05     8.7748  -1.0000   115.9218
 64      0.0000     0.0000E+00    0.0000E+00    6.250000E+09  0.05000  1.435E-05    0   0.5249   age166_m72            0.0000     2.0616E-04    18.1187  -1.0000   101.9458
 65      0.0000     0.0000E+00    0.0000E+00    1.300000E+10  0.05000  6.513E-06    0   0.5036   age193_m72            0.0000     3.5112E-04    24.2863  -1.0000    94.4211
 66      0.0000     0.0000E+00    0.0000E+00    1.800000E+10  0.05000  4.527E-06    0   0.4945   age213_m72            0.0000     4.5148E-04    27.5125  -1.0000    89.1710


## Synthesis Results - Average & Chains ##

# j      x_j: min, <> & last-chain-values for 1 ...  7 chains
  1      0.0000      1.1240      0.1510      0.6484      0.7321      0.9595      0.0735      0.7925      2.7663
  2      0.0000      1.3855      0.0000      0.0000     10.8863      0.6410      0.0000      4.1314      0.0000
  3      0.0000      1.4347      0.0000      4.6161      1.2460      5.4933      0.0189      0.0000      1.1188
  4      0.0000      1.3754      1.2578      2.3307      2.8468      0.2726      0.6368      0.1518      0.1135
  5      0.0000      1.2225      1.5541      0.1371     11.1509      0.0000      8.3999      1.7145      0.0000
  6      0.0000      1.5832      4.9002      0.5739      0.0000      0.0101      1.1141      0.0000      1.4316
  7      0.0000      1.3720      0.0000      1.4660      0.9445      3.5351      0.0000      3.3945      0.2877
  8      0.0000      1.1060      0.0000      0.0000      0.1238      0.6008      0.1860      4.2446      0.0000
  9      4.4745      1.4710      3.2281      0.2562      2.9931      1.4790      3.3724      0.0000      1.5903
 10      0.0000      1.4365      0.0000      2.6040      5.8460      0.0071      2.1327      2.1853      1.1935
 11      0.0000      1.5646      0.0853      1.4872      4.0288      3.1131      0.0000      1.1442      1.7026
 12      7.6243      3.1748      4.3783      2.8741      0.6666      0.0000      2.8261      0.2712      0.0855
 13      0.0000      1.3783      0.0000      0.0000      1.8259      1.4295      0.7071      0.0000      1.3793
 14      8.3097      1.9124      1.1380      0.5793      0.8449      3.6343      0.0465      0.6134      6.2894
 15      3.5656      1.3576      3.6580      0.0000      0.0000      0.3546      3.9270      1.2150      0.7276
 16      0.0000      1.4367      2.1790      3.5048      1.2758      1.3033      1.9822      3.0702      0.9804
 17      0.0000      1.3216      0.0000      0.0000      1.7967      1.3320      9.7509      0.0000      0.6183
 18      0.0000      1.5277      0.0000      0.0000      7.7201      2.8757      0.0000      4.4319      0.0000
 19      0.0000      1.1728      2.0960      0.0000      1.6957      3.2323      1.6368      1.0188      0.0000
 20      0.0000      1.4991      0.0000      0.1778      6.6394      0.0000      2.3860      0.0673      0.5836
 21      0.0000      1.3364      2.8118      0.3356      0.0000      0.0000      0.0000      2.4765      0.0000
 22      0.0000      1.7322      3.5412      1.1129      0.0000      5.7657      4.6411      0.4230      3.4248
 23      0.0000      1.2469      0.0000      0.2616      1.7546      2.8366      3.6035      0.0000      0.0000
 24      6.2694      1.6341      1.3627      0.1370      0.0000      5.9026      1.4529      1.2326      2.2515
 25      0.0000      1.5834      2.5607      0.5591      3.8440      1.2324      2.8102      0.0000      4.6712
 26      0.0000      1.6206      1.0437      0.0000      0.1275      2.7322      0.0000      0.5457      4.4491
 27      0.0000      1.5768      0.0000      5.7495      0.0000      1.6964      3.3445      1.4092      0.0000
 28      0.0000      2.0210      0.2959      1.8018      6.3201      0.0005      0.3488      1.2038      0.7257
 29     38.4724      1.2391      3.3670      4.9950      0.0000      0.5738      0.2114      0.1364      2.2172
 30      2.1365      1.5208      1.5002     13.7354      0.0636      0.0000      0.0938      0.0000      1.5250
 31      0.0000      1.6468      0.0000      4.1688      1.4123      1.3349      0.6621      2.4845      2.1482
 32      5.9313      1.3689      0.8664      0.0013      3.4755      1.4891      0.0000      3.3796      0.0000
 33      1.0571      1.6943      4.6154      0.8856      0.0000      1.2417      1.3360      0.4438      0.0000
 34      0.0000      2.1561      0.0000      0.0000      0.0000      3.7419      1.9323      0.0000      4.8275
 35      0.2456      1.5295      0.7330      0.0014      0.1965      1.3543      0.7386      5.2004      2.7926
 36      0.0000      1.3578      0.0000      7.9878      0.9881      0.0000      0.5961      2.0542      4.1459
 37      0.3848      1.6605      4.6389      1.8188      1.0359      0.0000      3.7853      0.4398      1.9070
 38      0.0000      1.4869      0.1665      0.0000      0.3025      1.5475      0.0000      3.3466      0.0000
 39      0.0000      1.5738      0.0000      0.7633      0.0669      1.6152      0.0000      7.7298      6.0658
 40      0.0000      1.0829      0.0185      3.5951      0.1070      0.4467      2.1813      0.0000      2.2745
 41      0.0000      1.5571      0.0000     11.2651      0.9064      0.7050      0.0000      2.0658      0.8943
 42      0.0000      1.8740      6.9244      7.6185      1.8852      0.7883      0.5105      1.7716      2.0609
 43      0.0000      1.2333      4.3145      0.8526      0.1544      0.0000      0.0000      0.3427      0.0000
 44      0.0000      1.8473      1.8026      0.0000      2.5189      4.9819      0.6292      0.0000      0.0000
 45      0.0000      1.6148      0.0000      2.9927      0.0000      4.1044      0.0000      1.1531      4.3795
 46      0.0000      1.6216      6.5126      1.5577      0.8200      7.8254      0.0000      1.3316      0.0000
 47      7.5767      1.5408      4.2878      1.3492      0.0000      0.0000      0.0000      0.0000      4.0569
 48      6.2925      1.4988      1.8493      0.0000      2.9623      0.0000      4.7665      1.7140      0.7648
 49      0.0000      1.3004      0.0000      1.7116      5.6039      4.8489      1.3812      1.0767      2.0859
 50      0.0000      1.0912      0.0000      0.6136      0.0000      2.2137      0.7687      5.5306      0.0000
 51      0.0000      1.9802      6.3288      0.7648      0.1449      0.0000      0.0000      0.0000      0.9470
 52      0.0000      1.2647      0.0176      2.0806      0.0000      0.0000      0.0000      0.2927      3.4813
 53      0.0000      1.3174      1.9688      0.0000      0.0000      0.0000      4.2724      0.0000      0.0000
 54      0.0000      2.5636      0.0000      0.0000      3.2559      0.0000      4.3781      0.0000      1.9603
 55      0.0000      1.5324      0.0000      0.0000      0.0442      1.9429      0.0000      1.5520      0.0000
 56      0.0000      1.3885      0.3186      3.5103      0.0000      1.7969      1.2600      2.2556      0.8831
 57      0.0000      1.8986      0.0000      0.0390      0.7072      1.4794      0.0000      0.9605      5.4326
 58      0.0000      3.2601      2.0331      3.9172      2.5400      2.1240      2.3237      5.9988      5.3006
 59      0.0000      1.3542      0.0000      0.0000      1.1856      1.0068      6.0776      1.6293      1.4192
 60      0.0000      1.6436     11.2881      0.0000      0.0000      1.1522      4.6464      1.5406      0.4562
 61      0.0000      1.1603      0.3002      0.9020      0.6130      1.5538      0.1036      9.8600      1.3206
 62      5.0601      2.0695      0.7476      0.9793      1.8851      4.4833      1.8460      0.0000      1.3894
 63     22.1881      1.5502      8.2864      1.3434      0.2939      0.4505      0.0000      3.0738      5.7445
 64      0.0000      1.3019      0.0000      0.0000      0.0000      1.1486      0.0000      0.1485      0.9682
 65      0.0000      1.3215      0.0000      0.2583      0.0000      0.0972      1.3584      0.0000      0.0000
 66      0.0000      1.7855      0.4117      0.0000      0.0000      0.0000      6.0745      4.3015      0.1955

# j      m_j: min, <> & last-chain-values for 1 ...  7 chains
  1  0.0000E+00  1.0974E-02  2.1984E-03  1.1842E-02  1.3564E-02  9.8020E-03  4.2566E-04  5.8246E-03  3.5635E-02
  2  0.0000E+00  3.6926E-03  0.0000E+00  0.0000E+00  5.5063E-02  1.7875E-03  0.0000E+00  8.2892E-03  0.0000E+00
  3  0.0000E+00  5.7263E-03  0.0000E+00  3.4466E-02  9.4379E-03  2.2941E-02  4.4803E-05  0.0000E+00  5.8919E-03
  4  0.0000E+00  5.1697E-03  7.0488E-03  1.6388E-02  2.0306E-02  1.0721E-03  1.4198E-03  4.2957E-04  5.6290E-04
  5  0.0000E+00  8.7526E-03  1.6590E-02  1.8364E-03  1.5152E-01  0.0000E+00  3.5673E-02  9.2411E-03  0.0000E+00
  6  0.0000E+00  1.8386E-02  8.4845E-02  1.2467E-02  0.0000E+00  1.2250E-04  7.6743E-03  0.0000E+00  2.1936E-02
  7  0.0000E+00  2.2811E-02  0.0000E+00  4.5596E-02  2.9802E-02  6.1499E-02  0.0000E+00  4.2487E-02  6.3104E-03
  8  0.0000E+00  2.5417E-02  0.0000E+00  0.0000E+00  5.3981E-03  1.4446E-02  2.5350E-03  7.3430E-02  0.0000E+00
  9  1.1878E-01  3.8689E-02  1.2659E-01  1.2605E-02  1.4940E-01  4.0704E-02  5.2613E-02  0.0000E+00  5.5189E-02
 10  0.0000E+00  4.9631E-02  0.0000E+00  1.6830E-01  3.8330E-01  2.5745E-04  4.3706E-02  5.6837E-02  5.4406E-02
 11  0.0000E+00  1.0164E-01  8.2597E-03  1.8074E-01  4.9669E-01  2.1161E-01  0.0000E+00  5.5958E-02  1.4594E-01
 12  7.9297E-01  3.2717E-01  6.7272E-01  5.5406E-01  1.3037E-01  0.0000E+00  1.7275E-01  2.1035E-02  1.1623E-02
 13  0.0000E+00  4.0035E-01  0.0000E+00  0.0000E+00  1.0065E+00  4.3446E-01  1.2182E-01  0.0000E+00  5.2861E-01
 14  8.1704E+00  1.8631E+00  1.6530E+00  1.0557E+00  1.5621E+00  3.7047E+00  2.6893E-02  4.4988E-01  8.0845E+00
 15  5.7073E+00  2.1532E+00  8.6498E+00  0.0000E+00  0.0000E+00  5.8844E-01  3.6942E+00  1.4506E+00  1.5226E+00
 16  0.0000E+00  3.8527E+00  8.7121E+00  1.7582E+01  6.4928E+00  3.6569E+00  3.1529E+00  6.1980E+00  3.4689E+00
 17  0.0000E+00  4.5976E+00  0.0000E+00  0.0000E+00  1.1862E+01  4.8485E+00  2.0120E+01  0.0000E+00  2.8379E+00
 18  0.0000E+00  1.3180E-02  0.0000E+00  0.0000E+00  1.2640E-01  2.5959E-02  0.0000E+00  2.8784E-02  0.0000E+00
 19  0.0000E+00  4.0612E-03  1.0821E-02  0.0000E+00  1.1143E-02  1.1711E-02  3.3619E-03  2.6556E-03  0.0000E+00
 20  0.0000E+00  5.6670E-03  0.0000E+00  1.2570E-03  4.7632E-02  0.0000E+00  5.3500E-03  1.9145E-04  2.9109E-03
 21  0.0000E+00  6.1325E-03  1.9238E-02  2.8810E-03  0.0000E+00  0.0000E+00  0.0000E+00  8.5551E-03  0.0000E+00
 22  0.0000E+00  1.3441E-02  4.0970E-02  1.6154E-02  0.0000E+00  4.6812E-02  2.1361E-02  2.4708E-03  3.5063E-02
 23  0.0000E+00  1.3066E-02  0.0000E+00  5.1278E-03  3.4892E-02  3.1101E-02  2.2397E-02  0.0000E+00  0.0000E+00
 24  9.8642E-02  2.5475E-02  3.1675E-02  3.9959E-03  0.0000E+00  9.6281E-02  1.3435E-02  1.4466E-02  4.6311E-02
 25  0.0000E+00  3.4037E-02  8.2069E-02  2.2483E-02  1.5681E-01  2.7718E-02  3.5830E-02  0.0000E+00  1.3248E-01
 26  0.0000E+00  5.8229E-02  5.5912E-02  0.0000E+00  8.6961E-03  1.0272E-01  0.0000E+00  1.4761E-02  2.1092E-01
 27  0.0000E+00  1.1340E-01  0.0000E+00  7.7353E-01  0.0000E+00  1.2766E-01  1.4267E-01  7.6292E-02  0.0000E+00
 28  0.0000E+00  4.2182E-01  9.2068E-02  7.0352E-01  2.5034E+00  1.0060E-04  4.3185E-02  1.8915E-01  1.9984E-01
 29  1.4121E+01  4.5062E-01  1.8257E+00  3.3982E+00  0.0000E+00  2.1833E-01  4.5603E-02  3.7341E-02  1.0639E+00
 30  1.6384E+00  1.1555E+00  1.6995E+00  1.9523E+01  9.1648E-02  0.0000E+00  4.2257E-02  0.0000E+00  1.5289E+00
 31  0.0000E+00  2.2010E+00  0.0000E+00  1.0423E+01  3.5824E+00  1.8668E+00  5.2488E-01  2.4998E+00  3.7883E+00
 32  1.0765E+01  2.4619E+00  2.3230E+00  4.3952E-03  1.1861E+01  2.8020E+00  0.0000E+00  4.5754E+00  0.0000E+00
 33  4.2473E+00  6.7453E+00  2.7396E+01  6.5957E+00  0.0000E+00  5.1722E+00  3.1550E+00  1.3301E+00  0.0000E+00
 34  0.0000E+00  1.1624E+01  0.0000E+00  0.0000E+00  0.0000E+00  2.1108E+01  6.1789E+00  0.0000E+00  3.4339E+01
 35  1.7149E-03  1.0580E-02  7.5597E-03  1.8223E-05  2.5800E-03  9.8026E-03  3.0305E-03  2.7082E-02  2.5488E-02
 36  0.0000E+00  3.8002E-03  0.0000E+00  4.1822E-02  5.2482E-03  0.0000E+00  9.8965E-04  4.3280E-03  1.5310E-02
 37  1.1758E-03  5.0269E-03  2.0938E-02  1.0300E-02  5.9512E-03  0.0000E+00  6.7970E-03  1.0024E-03  7.6172E-03
 38  0.0000E+00  1.2194E-02  2.0358E-03  0.0000E+00  4.7083E-03  1.3279E-02  0.0000E+00  2.0662E-02  0.0000E+00
 39  0.0000E+00  1.8584E-02  0.0000E+00  1.6862E-02  1.4985E-03  1.9956E-02  0.0000E+00  6.8713E-02  9.4506E-02
 40  0.0000E+00  2.0670E-02  5.2682E-04  1.2837E-01  3.8747E-03  8.9210E-03  2.4696E-02  0.0000E+00  5.7281E-02
 41  0.0000E+00  4.6217E-02  0.0000E+00  6.2551E-01  5.1055E-02  2.1896E-02  0.0000E+00  4.6159E-02  3.5024E-02
 42  0.0000E+00  1.0212E-01  5.6262E-01  7.7668E-01  1.9497E-01  4.4949E-02  1.6501E-02  7.2679E-02  1.4819E-01
 43  0.0000E+00  9.8125E-02  5.1182E-01  1.2690E-01  2.3318E-02  0.0000E+00  0.0000E+00  2.0526E-02  0.0000E+00
 44  0.0000E+00  2.5306E-01  3.6819E-01  0.0000E+00  6.5486E-01  7.1410E-01  5.1125E-02  0.0000E+00  0.0000E+00
 45  0.0000E+00  4.3894E-01  0.0000E+00  1.5217E+00  0.0000E+00  1.1673E+00  0.0000E+00  2.3596E-01  1.5707E+00
 46  0.0000E+00  8.1019E-01  4.8513E+00  1.4559E+00  7.7745E-01  4.0909E+00  0.0000E+00  5.0082E-01  0.0000E+00
 47  7.7416E+00  1.5599E+00  6.4722E+00  2.5553E+00  0.0000E+00  0.0000E+00  0.0000E+00  0.0000E+00  5.4191E+00
 48  1.1339E+01  2.6760E+00  4.9229E+00  0.0000E+00  1.0037E+01  0.0000E+00  5.0479E+00  2.3038E+00  1.8017E+00
 49  0.0000E+00  5.2768E+00  0.0000E+00  1.2993E+01  4.3156E+01  2.0588E+01  3.3245E+00  3.2891E+00  1.1168E+01
 50  0.0000E+00  8.2011E+00  0.0000E+00  8.6271E+00  0.0000E+00  1.7408E+01  3.4267E+00  3.1292E+01  0.0000E+00
 51  0.0000E+00  8.1579E-03  3.8875E-02  5.8945E-03  1.1330E-03  0.0000E+00  0.0000E+00  0.0000E+00  5.1477E-03
 52  0.0000E+00  2.6700E-03  5.5472E-05  8.2172E-03  0.0000E+00  0.0000E+00  0.0000E+00  4.6523E-04  9.6976E-03
 53  0.0000E+00  4.1897E-03  9.3353E-03  0.0000E+00  0.0000E+00  0.0000E+00  8.0592E-03  0.0000E+00  0.0000E+00
 54  0.0000E+00  1.6705E-02  0.0000E+00  0.0000E+00  4.0264E-02  0.0000E+00  1.6922E-02  0.0000E+00  1.6854E-02
 55  0.0000E+00  1.5375E-02  0.0000E+00  0.0000E+00  8.4081E-04  2.0397E-02  0.0000E+00  1.1722E-02  0.0000E+00
 56  0.0000E+00  2.7574E-02  9.4345E-03  1.3041E-01  0.0000E+00  3.7337E-02  1.4841E-02  3.3721E-02  2.3140E-02
 57  0.0000E+00  5.0042E-02  0.0000E+00  1.9254E-03  3.5372E-02  4.0799E-02  0.0000E+00  1.9058E-02  1.8893E-01
 58  0.0000E+00  1.4534E-01  1.3514E-01  3.2670E-01  2.1490E-01  9.9079E-02  6.1448E-02  2.0133E-01  3.1180E-01
 59  0.0000E+00  1.2993E-01  0.0000E+00  0.0000E+00  2.1588E-01  1.0107E-01  3.4587E-01  1.1768E-01  1.7965E-01
 60  0.0000E+00  2.9291E-01  2.9993E+00  0.0000E+00  0.0000E+00  2.1484E-01  4.9114E-01  2.0668E-01  1.0726E-01
 61  0.0000E+00  4.5178E-01  1.7430E-01  6.5699E-01  4.5296E-01  6.3305E-01  2.3923E-02  2.8902E+00  6.7845E-01
 62  3.6257E+00  1.4692E+00  7.9135E-01  1.3006E+00  2.5399E+00  3.3304E+00  7.7737E-01  0.0000E+00  1.3015E+00
 63  3.1631E+01  2.1897E+00  1.7451E+01  3.5497E+00  7.8773E-01  6.6577E-01  0.0000E+00  3.2685E+00  1.0706E+01
 64  0.0000E+00  5.0861E+00  0.0000E+00  0.0000E+00  0.0000E+00  4.6953E+00  0.0000E+00  4.3669E-01  4.9908E+00
 65  0.0000E+00  1.0914E+01  0.0000E+00  3.9902E+00  0.0000E+00  8.3986E-01  6.6541E+00  0.0000E+00  0.0000E+00
 66  0.0000E+00  2.0832E+01  7.1607E+00  0.0000E+00  0.0000E+00  0.0000E+00  4.2037E+01  3.7779E+01  3.0095E+00

# AV, chi2 & Mass for <> & i_chain = 1 ...  7 solutions
AV      -0.6772      0.4556      0.2974      0.4236      0.7350      0.3304      0.1752      0.2935      0.3901
chi2 4.6042E-05  9.5441E-05  6.9218E-05  7.0719E-05  8.0550E-05  8.0472E-05  7.9401E-05  7.9136E-05  7.8338E-05
Mass 1.7989E-13  8.3130E-13  4.5085E-13  4.2567E-13  6.3752E-13  6.7156E-13  9.6168E-13  8.8824E-13  5.7696E-13
 -36.21                                  [v0_min (km/s) before EX0s...]
 453.98                                  [vd_min (km/s) before EX0s...]


## Synthetic spectrum (Best Model) ##l_obs f_obs f_syn wei
 3478    [Nl_obs]
 3741.00    0.69540   0.63108    0.000
 3742.00    0.68129   0.63273    0.000
 3743.00    0.63499   0.63117    0.000
 3744.00    0.61100   0.62909    0.000
 3745.00    0.60000   0.62732    0.131
 3746.00    0.64086   0.62728    0.133
 3747.00    0.70806   0.62874    0.135
 3748.00    0.73356   0.63104    0.136
 3749.00    0.74074   0.63720    0.136
 3750.00    0.74049   0.64355    0.134
 3751.00    0.73744   0.65231    0.131
 3752.00    0.76440   0.66048    0.129
 3753.00    0.80099   0.66930    0.127
 3754.00    0.81778   0.68045    0.125
 3755.00    0.82927   0.69119    0.122
 3756.00    0.86934   0.70096    0.122
 3757.00    0.91570   0.70869    0.123
 3758.00    0.87110   0.71412    0.122
 3759.00    0.81062   0.71737    0.121
 3760.00    0.73950   0.71953    0.119
 3761.00    0.66697   0.71930    0.116
 3762.00    0.66701   0.71844    0.113
 3763.00    0.67387   0.71821    0.111
 3764.00    0.61734   0.71814    0.110
 3765.00    0.55715   0.71672    0.109
 3766.00    0.51418   0.71684    0.107
 3767.00    0.47232   0.71946    0.106
 3768.00    0.51606   0.72258    0.108
 3769.00    0.55978   0.72806    0.110
 3770.00    0.60280   0.73535    0.111
 3771.00    0.64174   0.74469    0.112
 3772.00    0.62710   0.75649    0.111
 3773.00    0.61816   0.76955    0.110
 3774.00    0.65911   0.78407    0.111
 3775.00    0.69216   0.79935    0.112
 3776.00    0.67394   0.81424    0.113
 3777.00    0.65230   0.82781    0.114
 3778.00    0.61345   0.83900    0.114
 3779.00    0.59693   0.84930    0.115
 3780.00    0.67187   0.85564    0.119
 3781.00    0.76142   0.85803    0.124
 3782.00    0.90049   0.85829    0.125
 3783.00    0.97555   0.85421    0.127
 3784.00    0.86754   0.84782    0.127
 3785.00    0.78785   0.83749    0.127
 3786.00    0.77738   0.82581    0.123
 3787.00    0.79366   0.81159    0.122
 3788.00    0.86634   0.79514    0.122
 3789.00    0.92434   0.77855    0.124
 3790.00    0.95542   0.76084    0.128
 3791.00    0.93635   0.74554    0.129
 3792.00    0.83702   0.73042    0.126
 3793.00    0.78148   0.71816    0.122
 3794.00    0.78746   0.70851    0.117
 3795.00    0.75805   0.70291    0.114
 3796.00    0.68489   0.70079    0.113
 3797.00    0.63505   0.70175    0.113
 3798.00    0.61063   0.70787    0.115
 3799.00    0.62200   0.71592    0.116
 3800.00    0.66776   0.72759    0.116
 3801.00    0.70697   0.74050    0.116
 3802.00    0.74061   0.75563    0.117
 3803.00    0.77926   0.77199    0.117
 3804.00    0.82164   0.78809    0.117
 3805.00    0.85328   0.80383    0.116
 3806.00    0.87789   0.81666    0.114
 3807.00    0.85205   0.82707    0.112
 3808.00    0.79726   0.83328    0.112
 3809.00    0.77726   0.83737    0.114
 3810.00    0.77464   0.83909    0.117
 3811.00    0.75667   0.83880    0.118
 3812.00    0.73207   0.83712    0.116
 3813.00    0.68747   0.83250    0.115
 3814.00    0.63544   0.82541    0.113
 3815.00    0.64447   0.81523    0.115
 3816.00    0.67269   0.80497    0.118
 3817.00    0.63205   0.79430    0.116
 3818.00    0.57334   0.78312    0.113
 3819.00    0.59530   0.77176    0.115
 3820.00    0.63454   0.75880    0.117
 3821.00    0.66947   0.74480    0.118
 3822.00    0.70366   0.72947    0.120
 3823.00    0.60894   0.71449    0.116
 3824.00    0.49767   0.69961    0.112
 3825.00    0.37976   0.68475    0.109
 3826.00    0.26125   0.66914    0.106
 3827.00    0.36489   0.65270    0.110
 3828.00    0.48047   0.63711    0.115
 3829.00    0.56372   0.62204    0.117
 3830.00    0.64542   0.60956    0.119
 3831.00    0.65111   0.59965    0.120
 3832.00    0.65631   0.59246    0.121
 3833.00    0.65047   0.58801    0.119
 3834.00    0.64829   0.58642    0.117
 3835.00    0.69152   0.58865    0.117
 3836.00    0.72913   0.59485    0.118
 3837.00    0.71932   0.60576    0.117
 3838.00    0.70424   0.62007    0.116
 3839.00    0.65609   0.63784    0.114
 3840.00    0.61469   0.65655    0.113
 3841.00    0.60661   0.67721    0.117
 3842.00    0.61440   0.69861    0.120
 3843.00    0.68577   0.71982    0.123
 3844.00    0.76240   0.74112    0.126
 3845.00    0.85656   0.76013    0.125
 3846.00    0.90966   0.77802    0.124
 3847.00    0.84743   0.79312    0.000
 3848.00    0.80125   0.80591    0.000
 3849.00    0.79358   0.81701    0.000
 3850.00    0.79073   0.82532    0.000
 3851.00    0.79783   0.83134    0.000
 3852.00    0.79000   0.83632    0.000
 3853.00    0.75524   0.83958    0.000
 3854.00    0.72598   0.84208    0.000
 3855.00    0.70539   0.84358    0.000
 3856.00    0.69072   0.84499    0.000
 3857.00    0.68426   0.84693    0.000
 3858.00    0.70092   0.84831    0.000
 3859.00    0.74575   0.85105    0.000
 3860.00    0.77463   0.85234    0.000
 3861.00    0.78637   0.85341    0.000
 3862.00    0.76670   0.85459    0.000
 3863.00    0.71729   0.85604    0.000
 3864.00    0.63932   0.85790    0.000
 3865.00    0.53751   0.85780    0.000
 3866.00    0.50008   0.85691    0.000
 3867.00    0.51001   0.85343    0.000
 3868.00    0.47748   0.84930    0.000
 3869.00    0.41753   0.84534    0.000
 3870.00    0.42274   0.84113    0.000
 3871.00    0.46477   0.83652    0.000
 3872.00    0.49620   0.82959    0.000
 3873.00    0.52241   0.82115    0.000
 3874.00    0.58770   0.81242    0.000
 3875.00    0.66961   0.80314    0.000
 3876.00    0.70615   0.79423    0.000
 3877.00    0.72616   0.78523    0.000
 3878.00    0.69571   0.77421    0.000
 3879.00    0.64971   0.76252    0.000
 3880.00    0.64526   0.74946    0.000
 3881.00    0.65148   0.73821    0.112
 3882.00    0.68924   0.72796    0.110
 3883.00    0.73360   0.71679    0.108
 3884.00    0.77080   0.70805    0.111
 3885.00    0.80682   0.70128    0.116
 3886.00    0.83405   0.69756    0.116
 3887.00    0.86018   0.69675    0.116
 3888.00    0.81180   0.69788    0.111
 3889.00    0.75704   0.70331    0.106
 3890.00    0.74135   0.70966    0.107
 3891.00    0.72762   0.71936    0.109
 3892.00    0.73331   0.73254    0.110
 3893.00    0.73922   0.74658    0.111
 3894.00    0.73818   0.76304    0.110
 3895.00    0.73965   0.77692    0.110
 3896.00    0.79231   0.79253    0.110
 3897.00    0.83721   0.80710    0.111
 3898.00    0.79032   0.82167    0.108
 3899.00    0.74005   0.83733    0.106
 3900.00    0.66236   0.84850    0.102
 3901.00    0.60132   0.86132    0.099
 3902.00    0.64205   0.87203    0.100
 3903.00    0.66298   0.88287    0.101
 3904.00    0.58861   0.89414    0.097
 3905.00    0.52856   0.90301    0.095
 3906.00    0.52456   0.91321    0.094
 3907.00    0.54335   0.92024    0.094
 3908.00    0.63643   0.92619    0.100
 3909.00    0.70059   0.93304    0.104
 3910.00    0.68500   0.93738    0.104
 3911.00    0.67261   0.93997    0.105
 3912.00    0.66775   0.94089    0.107
 3913.00    0.67229   0.93898    0.108
 3914.00    0.69600   0.93616    0.109
 3915.00    0.72971   0.92933    0.110
 3916.00    0.78116   0.92099    0.113
 3917.00    0.78530   0.91173    0.115
 3918.00    0.71592   0.89817    0.114
 3919.00    0.68636   0.88490    0.113
 3920.00    0.71116   0.86796    0.110
 3921.00    0.74707   0.84973    0.111
 3922.00    0.79634   0.82859    0.116
 3923.00    0.83992   0.80473    0.120
 3924.00    0.87747   0.78207    0.123
 3925.00    0.89486   0.75664    0.122
 3926.00    0.89340   0.73279    0.118
 3927.00    0.89194   0.70804    0.118
 3928.00    0.89048   0.68401    0.122
 3929.00    0.86811   0.66312    0.123
 3930.00    0.83059   0.64446    0.121
 3931.00    0.80472   0.63178    0.120
 3932.00    0.78626   0.62368    0.119
 3933.00    0.79240   0.62093    0.117
 3934.00    0.81225   0.62300    0.115
 3935.00    0.86045   0.62993    0.115
 3936.00    0.92239   0.64288    0.117
 3937.00    0.93045   0.65986    0.116
 3938.00    0.91597   0.67990    0.116
 3939.00    0.89729   0.70220    0.115
 3940.00    0.87710   0.72585    0.114
 3941.00    0.89029   0.74991    0.113
 3942.00    0.91356   0.77380    0.113
 3943.00    0.85981   0.79688    0.114
 3944.00    0.78671   0.81796    0.115
 3945.00    0.78305   0.83602    0.114
 3946.00    0.79355   0.85190    0.114
 3947.00    0.81918   0.86632    0.115
 3948.00    0.84723   0.87871    0.118
 3949.00    0.90167   0.88655    0.118
 3950.00    0.95926   0.89003    0.119
 3951.00    1.06188   0.89198    0.120
 3952.00    1.16818   0.88992    0.122
 3953.00    1.10805   0.88343    0.121
 3954.00    1.04028   0.87355    0.119
 3955.00    0.98095   0.86048    0.121
 3956.00    0.92299   0.84488    0.122
 3957.00    0.93052   0.82370    0.121
 3958.00    0.93743   0.79728    0.120
 3959.00    0.93276   0.77014    0.122
 3960.00    0.92687   0.74279    0.000
 3961.00    0.90736   0.71437    0.000
 3962.00    0.89300   0.68499    0.000
 3963.00    0.91915   0.65492    0.000
 3964.00    0.92527   0.62807    0.000
 3965.00    0.81251   0.60617    0.000
 3966.00    0.72448   0.58927    0.000
 3967.00    0.75258   0.57884    0.000
 3968.00    0.77803   0.57399    0.000
 3969.00    0.79337   0.57540    0.000
 3970.00    0.82242   0.58373    0.000
 3971.00    0.89529   0.59832    0.000
 3972.00    0.97466   0.62036    0.000
 3973.00    1.07164   0.64670    0.000
 3974.00    1.13113   0.67612    0.000
 3975.00    1.10356   0.70881    0.000
 3976.00    1.04865   0.74189    0.000
 3977.00    0.93884   0.77676    0.000
 3978.00    0.86996   0.80973    0.000
 3979.00    0.87268   0.84021    0.000
 3980.00    0.91498   0.87099    0.000
 3981.00    1.01790   0.89816    0.121
 3982.00    1.06676   0.92393    0.122
 3983.00    1.04290   0.94611    0.122
 3984.00    1.02964   0.96428    0.121
 3985.00    1.02891   0.98313    0.119
 3986.00    1.00855   0.99753    0.117
 3987.00    0.96769   1.01048    0.115
 3988.00    0.93805   1.02242    0.115
 3989.00    0.91873   1.03150    0.115
 3990.00    0.95362   1.04147    0.115
 3991.00    1.03252   1.04761    0.115
 3992.00    1.05868   1.05284    0.114
 3993.00    1.04715   1.05851    0.114
 3994.00    1.02385   1.06247    0.113
 3995.00    0.99316   1.06675    0.113
 3996.00    1.02853   1.07026    0.114
 3997.00    1.10010   1.07314    0.116
 3998.00    1.11346   1.07545    0.116
 3999.00    1.09908   1.07763    0.116
 4000.00    1.05359   1.08047    0.115
 4001.00    0.99531   1.08354    0.116
 4002.00    1.01110   1.08472    0.117
 4003.00    1.05291   1.08678    0.119
 4004.00    1.08701   1.09081    0.120
 4005.00    1.11884   1.09542    0.120
 4006.00    1.04508   1.09876    0.119
 4007.00    0.94538   1.10023    0.118
 4008.00    0.97969   1.10471    0.118
 4009.00    1.04064   1.11010    0.118
 4010.00    1.02066   1.11594    0.118
 4011.00    0.98811   1.12073    0.117
 4012.00    0.98510   1.12452    0.117
 4013.00    0.98549   1.12969    0.117
 4014.00    1.02442   1.13232    0.116
 4015.00    1.06633   1.13596    0.115
 4016.00    1.02491   1.13975    0.117
 4017.00    0.97999   1.14159    0.119
 4018.00    1.03147   1.14335    0.117
 4019.00    1.08223   1.14223    0.116
 4020.00    1.06248   1.14170    0.118
 4021.00    1.04592   1.14123    0.120
 4022.00    1.08550   1.13798    0.121
 4023.00    1.11980   1.13582    0.121
 4024.00    1.09721   1.13281    0.120
 4025.00    1.06788   1.12917    0.119
 4026.00    0.98735   1.12548    0.118
 4027.00    0.92361   1.11925    0.118
 4028.00    0.95677   1.11624    0.120
 4029.00    0.97902   1.11504    0.123
 4030.00    0.95128   1.11232    0.124
 4031.00    0.92547   1.11117    0.124
 4032.00    0.90695   1.10828    0.120
 4033.00    0.90109   1.10797    0.117
 4034.00    0.93488   1.11128    0.118
 4035.00    0.94841   1.11181    0.119
 4036.00    0.90802   1.11245    0.121
 4037.00    0.87670   1.11165    0.120
 4038.00    0.86611   1.11156    0.116
 4039.00    0.87267   1.11539    0.114
 4040.00    0.91313   1.11571    0.114
 4041.00    0.95397   1.11290    0.114
 4042.00    0.99546   1.10886    0.113
 4043.00    1.01726   1.10606    0.113
 4044.00    1.00936   1.10898    0.114
 4045.00    0.97818   1.10960    0.114
 4046.00    0.91614   1.10599    0.115
 4047.00    0.91217   1.10271    0.115
 4048.00    0.97601   1.10124    0.114
 4049.00    1.04348   1.10321    0.114
 4050.00    1.11468   1.10377    0.116
 4051.00    1.12376   1.10158    0.117
 4052.00    1.07640   1.10009    0.116
 4053.00    1.03558   1.09907    0.116
 4054.00    1.00000   1.09653    0.118
 4055.00    1.00640   1.09274    0.117
 4056.00    1.04235   1.09009    0.115
 4057.00    1.07357   1.08891    0.115
 4058.00    1.10185   1.08659    0.117
 4059.00    1.12559   1.08147    0.118
 4060.00    1.14686   1.07558    0.118
 4061.00    1.11517   1.07366    0.119
 4062.00    1.05867   1.07542    0.120
 4063.00    1.03662   1.07308    0.119
 4064.00    1.02850   1.06836    0.117
 4065.00    1.03636   1.06598    0.117
 4066.00    1.04973   1.06660    0.117
 4067.00    1.04457   1.06927    0.117
 4068.00    1.03403   1.06600    0.116
 4069.00    1.00725   1.06133    0.116
 4070.00    0.97656   1.06301    0.116
 4071.00    0.94363   1.06531    0.116
 4072.00    0.91026   1.06590    0.116
 4073.00    0.98437   1.06269    0.116
 4074.00    1.07466   1.05888    0.116
 4075.00    1.09472   1.06220    0.116
 4076.00    1.10701   1.06645    0.116
 4077.00    1.06933   1.06843    0.117
 4078.00    1.02800   1.07014    0.117
 4079.00    1.05120   1.07036    0.118
 4080.00    1.07687   1.07420    0.119
 4081.00    1.07980   1.07963    0.119
 4082.00    1.08303   1.08269    0.118
 4083.00    1.10237   1.08598    0.118
 4084.00    1.11706   1.08677    0.118
 4085.00    1.05504   1.08706    0.119
 4086.00    0.99804   1.08679    0.120
 4087.00    0.99272   1.08221    0.119
 4088.00    0.98770   1.07654    0.118
 4089.00    0.98480   1.06859    0.118
 4090.00    0.99103   1.05923    0.117
 4091.00    1.04847   1.04835    0.118
 4092.00    1.09197   1.03183    0.000
 4093.00    1.07308   1.01386    0.000
 4094.00    1.05245   0.99706    0.000
 4095.00    1.02543   0.98177    0.000
 4096.00    0.99988   0.96713    0.000
 4097.00    0.97882   0.95005    0.000
 4098.00    0.97083   0.93321    0.000
 4099.00    0.99701   0.92222    0.000
 4100.00    1.01451   0.91750    0.000
 4101.00    1.01248   0.91466    0.000
 4102.00    1.01716   0.91314    0.000
 4103.00    1.03489   0.91382    0.000
 4104.00    1.05122   0.91913    0.000
 4105.00    1.06516   0.93076    0.000
 4106.00    1.06758   0.94265    0.000
 4107.00    1.05290   0.95474    0.000
 4108.00    1.03130   0.96870    0.000
 4109.00    1.00067   0.98234    0.000
 4110.00    1.01547   0.99716    0.000
 4111.00    1.08255   1.01079    0.000
 4112.00    1.12058   1.02314    0.000
 4113.00    1.12911   1.03550    0.114
 4114.00    1.14248   1.04527    0.113
 4115.00    1.16018   1.05253    0.112
 4116.00    1.15545   1.05921    0.111
 4117.00    1.13303   1.06626    0.111
 4118.00    1.11254   1.07148    0.110
 4119.00    1.09340   1.07391    0.110
 4120.00    1.05328   1.07405    0.109
 4121.00    1.00040   1.07504    0.108
 4122.00    0.99896   1.07827    0.108
 4123.00    1.02485   1.07864    0.108
 4124.00    1.11578   1.07586    0.110
 4125.00    1.23670   1.07366    0.113
 4126.00    1.25120   1.07309    0.114
 4127.00    1.22344   1.07490    0.114
 4128.00    1.18704   1.07507    0.114
 4129.00    1.14771   1.07082    0.114
 4130.00    1.12109   1.07018    0.114
 4131.00    1.09809   1.07146    0.113
 4132.00    1.07840   1.07404    0.113
 4133.00    1.05948   1.07750    0.113
 4134.00    1.06683   1.07435    0.113
 4135.00    1.07914   1.07446    0.112
 4136.00    1.07508   1.07710    0.113
 4137.00    1.06863   1.07963    0.114
 4138.00    1.08318   1.08340    0.114
 4139.00    1.09997   1.08022    0.114
 4140.00    1.08306   1.07726    0.114
 4141.00    1.06383   1.07756    0.114
 4142.00    1.10779   1.07923    0.116
 4143.00    1.15392   1.08068    0.119
 4144.00    1.13188   1.07750    0.116
 4145.00    1.11055   1.07404    0.113
 4146.00    1.11754   1.07239    0.120
 4147.00    1.12868   1.07441    0.127
 4148.00    1.20400   1.07598    0.129
 4149.00    1.27028   1.07458    0.130
 4150.00    1.24734   1.07472    0.128
 4151.00    1.21477   1.07406    0.125
 4152.00    1.11391   1.07682    0.120
 4153.00    1.02191   1.07974    0.115
 4154.00    0.97826   1.08080    0.115
 4155.00    0.94123   1.08459    0.115
 4156.00    0.93316   1.08611    0.114
 4157.00    0.94217   1.08956    0.113
 4158.00    1.01262   1.09222    0.114
 4159.00    1.06650   1.09343    0.114
 4160.00    1.07039   1.09722    0.110
 4161.00    1.07974   1.09772    0.108
 4162.00    1.10309   1.09849    0.110
 4163.00    1.12463   1.09762    0.112
 4164.00    1.14214   1.09362    0.114
 4165.00    1.16735   1.09200    0.115
 4166.00    1.20730   1.08916    0.114
 4167.00    1.19454   1.08538    0.113
 4168.00    1.09368   1.08063    0.112
 4169.00    1.06639   1.07197    0.112
 4170.00    1.14686   1.06613    0.113
 4171.00    1.17366   1.06379    0.113
 4172.00    1.13134   1.06090    0.112
 4173.00    1.08000   1.05707    0.111
 4174.00    1.01843   1.05092    0.109
 4175.00    1.02027   1.04760    0.109
 4176.00    1.08557   1.04926    0.110
 4177.00    1.10849   1.05221    0.110
 4178.00    1.09401   1.05248    0.107
 4179.00    1.05906   1.05045    0.106
 4180.00    1.00818   1.05210    0.106
 4181.00    1.04909   1.05640    0.107
 4182.00    1.15276   1.06226    0.109
 4183.00    1.17117   1.06426    0.110
 4184.00    1.13849   1.06221    0.109
 4185.00    1.10255   1.06557    0.107
 4186.00    1.06490   1.07000    0.104
 4187.00    1.10030   1.07294    0.106
 4188.00    1.16883   1.07253    0.109
 4189.00    1.17180   1.06944    0.109
 4190.00    1.14918   1.07086    0.107
 4191.00    1.07997   1.07238    0.105
 4192.00    0.99529   1.07061    0.104
 4193.00    1.00100   1.06659    0.106
 4194.00    1.03191   1.06370    0.108
 4195.00    1.05536   1.06297    0.105
 4196.00    1.07710   1.06138    0.102
 4197.00    1.05813   1.06003    0.104
 4198.00    1.03167   1.05753    0.106
 4199.00    1.08224   1.05631    0.106
 4200.00    1.14370   1.05840    0.107
 4201.00    1.13325   1.05949    0.107
 4202.00    1.11548   1.06197    0.107
 4203.00    1.08406   1.06526    0.105
 4204.00    1.05175   1.06731    0.102
 4205.00    1.03999   1.07304    0.103
 4206.00    1.02892   1.07772    0.104
 4207.00    1.05538   1.07919    0.102
 4208.00    1.08103   1.08382    0.101
 4209.00    1.08294   1.08780    0.103
 4210.00    1.08641   1.09073    0.105
 4211.00    1.11260   1.09312    0.105
 4212.00    1.13992   1.09046    0.106
 4213.00    1.17789   1.08999    0.105
 4214.00    1.20038   1.09213    0.104
 4215.00    1.11644   1.08988    0.102
 4216.00    1.04990   1.08604    0.100
 4217.00    1.07593   1.08039    0.100
 4218.00    1.09469   1.07468    0.101
 4219.00    1.08243   1.07105    0.102
 4220.00    1.06959   1.06581    0.103
 4221.00    1.05470   1.05871    0.103
 4222.00    1.03588   1.05246    0.102
 4223.00    1.00539   1.04634    0.101
 4224.00    0.98212   1.03975    0.101
 4225.00    0.97705   1.03779    0.102
 4226.00    0.98455   1.03687    0.103
 4227.00    1.01937   1.03410    0.103
 4228.00    1.03903   1.03358    0.103
 4229.00    1.03010   1.03305    0.102
 4230.00    1.02794   1.03581    0.101
 4231.00    1.03693   1.04240    0.101
 4232.00    1.02222   1.04530    0.100
 4233.00    0.97330   1.04894    0.100
 4234.00    0.94478   1.05438    0.100
 4235.00    0.94216   1.05787    0.099
 4236.00    0.93707   1.06397    0.099
 4237.00    0.92921   1.06889    0.100
 4238.00    0.94037   1.07236    0.100
 4239.00    0.97030   1.07637    0.099
 4240.00    0.98930   1.07847    0.099
 4241.00    0.99878   1.08201    0.100
 4242.00    0.99696   1.08362    0.100
 4243.00    0.98645   1.08399    0.101
 4244.00    1.00679   1.08327    0.102
 4245.00    1.04791   1.08171    0.102
 4246.00    1.09111   1.08329    0.105
 4247.00    1.13554   1.08010    0.109
 4248.00    1.10007   1.07646    0.109
 4249.00    1.02345   1.07609    0.106
 4250.00    1.04159   1.07374    0.106
 4251.00    1.10200   1.07263    0.108
 4252.00    1.08698   1.06886    0.107
 4253.00    1.04305   1.06741    0.106
 4254.00    1.06466   1.07159    0.104
 4255.00    1.10764   1.07064    0.103
 4256.00    1.09919   1.06888    0.103
 4257.00    1.07672   1.06870    0.104
 4258.00    1.09158   1.06995    0.105
 4259.00    1.11482   1.07474    0.106
 4260.00    1.12201   1.07476    0.105
 4261.00    1.12633   1.07278    0.104
 4262.00    1.09098   1.07340    0.106
 4263.00    1.05021   1.07221    0.107
 4264.00    1.02940   1.07123    0.106
 4265.00    1.01054   1.06950    0.105
 4266.00    0.99563   1.06553    0.103
 4267.00    0.98096   1.06360    0.102
 4268.00    0.98624   1.05883    0.102
 4269.00    0.99177   1.05271    0.102
 4270.00    0.94083   1.05208    0.102
 4271.00    0.89325   1.04874    0.102
 4272.00    0.93467   1.04539    0.102
 4273.00    0.96985   1.04420    0.102
 4274.00    0.91941   1.04100    0.102
 4275.00    0.88282   1.04391    0.102
 4276.00    0.97198   1.04426    0.104
 4277.00    1.05806   1.04025    0.106
 4278.00    1.12365   1.04286    0.106
 4279.00    1.17252   1.04243    0.105
 4280.00    1.13492   1.04158    0.104
 4281.00    1.10906   1.04216    0.103
 4282.00    1.13225   1.03628   -2.000
 4283.00    1.13338   1.03289   -2.000
 4284.00    1.05834   1.03061   -2.000
 4285.00    1.00816   1.02540   -2.000
 4286.00    1.03019   1.02002   -2.000
 4287.00    1.05864   1.01233   -2.000
 4288.00    1.10300   1.00448   -2.000
 4289.00    1.13528   0.99983   -2.000
 4290.00    1.14171   0.99423   -2.000
 4291.00    1.13685   0.98249   -2.000
 4292.00    1.11102   0.97330   -2.000
 4293.00    1.07469   0.96676   -2.000
 4294.00    1.02134   0.95797   -2.000
 4295.00    1.01455   0.95116   -2.000
 4296.00    1.07398   0.93848   -2.000
 4297.00    1.12410   0.92765   -2.000
 4298.00    1.16257   0.92422    0.104
 4299.00    1.17094   0.91440    0.103
 4300.00    1.14609   0.90706    0.102
 4301.00    1.13353   0.90240    0.102
 4302.00    1.13292   0.89615    0.103
 4303.00    1.08736   0.89756    0.103
 4304.00    1.00324   0.89710    0.102
 4305.00    0.97716   0.89720    0.102
 4306.00    0.99494   0.90511    0.103
 4307.00    1.04043   0.91182    0.103
 4308.00    1.10433   0.92137    0.104
 4309.00    1.10525   0.93304    0.103
 4310.00    1.06954   0.94441    0.101
 4311.00    1.05983   0.95937    0.099
 4312.00    1.06329   0.97371    0.098
 4313.00    1.07329   0.98932    0.098
 4314.00    1.08616   1.00344    0.097
 4315.00    1.10210   1.01444    0.097
 4316.00    1.11919   1.02694    0.097
 4317.00    1.14647   1.03587    0.098
 4318.00    1.17701   1.04362    0.100
 4319.00    1.19691   1.04995    0.100
 4320.00    1.21397   1.05067    0.100
 4321.00    1.21414   1.05358    0.099
 4322.00    1.21061   1.05329    0.099
 4323.00    1.21297   1.04912    0.101
 4324.00    1.21636   1.04952    0.103
 4325.00    1.20264   1.04663    0.102
 4326.00    1.18666   1.04135    0.102
 4327.00    1.19815   1.03568    0.101
 4328.00    1.21221   1.02809    0.100
 4329.00    1.20984   1.02377    0.099
 4330.00    1.20654   1.01811    0.000
 4331.00    1.22465   1.00859    0.000
 4332.00    1.24311   0.99978    0.000
 4333.00    1.24463   0.99100    0.000
 4334.00    1.24311   0.98002    0.000
 4335.00    1.16835   0.96959    0.000
 4336.00    1.10120   0.96151    0.000
 4337.00    1.13298   0.95317    0.000
 4338.00    1.16400   0.94775    0.000
 4339.00    1.18839   0.94462    0.000
 4340.00    1.20651   0.94053    0.000
 4341.00    1.18410   0.94065    0.000
 4342.00    1.15574   0.94375    0.000
 4343.00    1.09745   0.94876    0.000
 4344.00    1.06086   0.95812    0.000
 4345.00    1.11285   0.96600    0.000
 4346.00    1.15085   0.97505    0.000
 4347.00    1.14156   0.98904    0.000
 4348.00    1.13895   0.99895    0.000
 4349.00    1.15539   1.00772    0.000
 4350.00    1.17107   1.02174    0.000
 4351.00    1.18488   1.03512    0.099
 4352.00    1.19147   1.04587    0.098
 4353.00    1.18284   1.05464    0.098
 4354.00    1.19106   1.06411    0.098
 4355.00    1.23008   1.07680    0.099
 4356.00    1.21946   1.08548    0.099
 4357.00    1.12955   1.09120    0.098
 4358.00    1.08416   1.10137    0.097
 4359.00    1.10116   1.11089    0.098
 4360.00    1.10713   1.11539    0.098
 4361.00    1.09947   1.11818    0.096
 4362.00    1.11130   1.12261    0.096
 4363.00    1.14435   1.12751    0.097
 4364.00    1.17325   1.12772    0.098
 4365.00    1.19817   1.12598    0.098
 4366.00    1.22921   1.12702    0.098
 4367.00    1.26543   1.12641    0.100
 4368.00    1.25492   1.12179    0.100
 4369.00    1.20961   1.11590    0.099
 4370.00    1.20911   1.11202    0.099
 4371.00    1.23792   1.10855    0.100
 4372.00    1.20914   1.10136    0.101
 4373.00    1.14737   1.09428    0.101
 4374.00    1.14805   1.08981    0.101
 4375.00    1.17987   1.08516    0.101
 4376.00    1.22662   1.07754    0.102
 4377.00    1.27982   1.06794    0.103
 4378.00    1.24646   1.06277    0.102
 4379.00    1.18108   1.05942    0.101
 4380.00    1.16441   1.05303    0.101
 4381.00    1.16302   1.04724    0.102
 4382.00    1.13390   1.04415    0.100
 4383.00    1.09753   1.04408    0.097
 4384.00    1.03225   1.04228    0.097
 4385.00    0.96080   1.03868    0.098
 4386.00    0.96741   1.04018    0.097
 4387.00    0.98721   1.04434    0.096
 4388.00    1.07561   1.04786    0.097
 4389.00    1.17278   1.05032    0.098
 4390.00    1.14325   1.05462    0.098
 4391.00    1.10241   1.06185    0.097
 4392.00    1.11687   1.06536    0.097
 4393.00    1.13428   1.06825    0.098
 4394.00    1.17563   1.07271    0.098
 4395.00    1.21694   1.07602    0.098
 4396.00    1.21693   1.08044    0.099
 4397.00    1.21620   1.08095    0.099
 4398.00    1.19968   1.08012    0.099
 4399.00    1.18292   1.08390    0.098
 4400.00    1.16324   1.08507    0.099
 4401.00    1.14655   1.08339    0.100
 4402.00    1.15503   1.08264    0.099
 4403.00    1.16135   1.08356    0.099
 4404.00    1.15417   1.08710    0.100
 4405.00    1.15434   1.08772    0.100
 4406.00    1.19067   1.08647    0.099
 4407.00    1.21428   1.09105    0.099
 4408.00    1.18711   1.09540    0.099
 4409.00    1.17439   1.09573    0.099
 4410.00    1.20961   1.09895    0.097
 4411.00    1.21660   1.10294    0.096
 4412.00    1.14446   1.10659    0.097
 4413.00    1.09446   1.11089    0.097
 4414.00    1.09754   1.11311    0.097
 4415.00    1.10112   1.11738    0.097
 4416.00    1.10571   1.11974    0.098
 4417.00    1.10880   1.11959    0.099
 4418.00    1.10919   1.12416    0.099
 4419.00    1.12396   1.12540    0.099
 4420.00    1.16134   1.12459    0.098
 4421.00    1.17232   1.12701    0.098
 4422.00    1.14680   1.12833    0.097
 4423.00    1.16368   1.12922    0.097
 4424.00    1.23213   1.12657    0.098
 4425.00    1.25188   1.12602    0.099
 4426.00    1.21941   1.12888    0.099
 4427.00    1.24315   1.12569    0.100
 4428.00    1.32004   1.12398    0.103
 4429.00    1.33399   1.12376    0.102
 4430.00    1.29544   1.12301    0.099
 4431.00    1.25278   1.12496    0.098
 4432.00    1.20710   1.12189    0.098
 4433.00    1.16381   1.12173    0.098
 4434.00    1.12207   1.12600    0.098
 4435.00    1.15276   1.12413    0.099
 4436.00    1.22430   1.12410    0.102
 4437.00    1.23104   1.12583    0.102
 4438.00    1.20596   1.12623    0.101
 4439.00    1.20043   1.13010    0.101
 4440.00    1.20319   1.13080    0.101
 4441.00    1.21101   1.12970    0.101
 4442.00    1.22067   1.13398    0.101
 4443.00    1.20211   1.13513    0.099
 4444.00    1.17486   1.13194    0.097
 4445.00    1.22339   1.13241    0.097
 4446.00    1.29131   1.13210    0.098
 4447.00    1.29577   1.12990    0.099
 4448.00    1.28699   1.12767    0.099
 4449.00    1.22559   1.12207    0.099
 4450.00    1.15554   1.11982    0.099
 4451.00    1.14037   1.11831    0.097
 4452.00    1.13196   1.10964    0.095
 4453.00    1.13085   1.10466    0.094
 4454.00    1.13036   1.10393    0.093
 4455.00    1.12512   1.09745    0.094
 4456.00    1.11963   1.09191    0.096
 4457.00    1.11160   1.09157    0.096
 4458.00    1.10378   1.08996    0.096
 4459.00    1.11120   1.08857    0.095
 4460.00    1.11919   1.08880    0.094
 4461.00    1.13845   1.08961    0.000
 4462.00    1.15770   1.09397    0.000
 4463.00    1.17695   1.09639    0.000
 4464.00    1.19345   1.09835    0.000
 4465.00    1.18776   1.10643    0.000
 4466.00    1.18707   1.11168    0.000
 4467.00    1.21683   1.11543    0.000
 4468.00    1.24194   1.12373    0.000
 4469.00    1.24470   1.12956    0.000
 4470.00    1.24317   1.13458    0.000
 4471.00    1.22493   1.14100    0.000
 4472.00    1.21058   1.14596    0.000
 4473.00    1.20891   1.15075    0.000
 4474.00    1.20757   1.15407    0.000
 4475.00    1.20717   1.15639    0.000
 4476.00    1.18807   1.15976    0.000
 4477.00    1.12490   1.16222    0.000
 4478.00    1.10727   1.16328    0.000
 4479.00    1.18238   1.16452    0.000
 4480.00    1.21924   1.16540    0.000
 4481.00    1.18828   1.16501    0.000
 4482.00    1.15402   1.16421    0.092
 4483.00    1.11463   1.16354    0.092
 4484.00    1.12129   1.16262    0.092
 4485.00    1.19066   1.16237    0.092
 4486.00    1.22999   1.16299    0.093
 4487.00    1.23331   1.16248    0.092
 4488.00    1.23150   1.16170    0.092
 4489.00    1.22427   1.16306    0.092
 4490.00    1.21275   1.16362    0.093
 4491.00    1.19725   1.16389    0.093
 4492.00    1.19096   1.16630    0.092
 4493.00    1.19223   1.16845    0.091
 4494.00    1.19459   1.17157    0.091
 4495.00    1.19773   1.17404    0.092
 4496.00    1.21863   1.17691    0.093
 4497.00    1.25080   1.18415    0.094
 4498.00    1.23538   1.18875    0.093
 4499.00    1.19352   1.19182    0.092
 4500.00    1.17081   1.19783    0.092
 4501.00    1.15735   1.20223    0.092
 4502.00    1.20739   1.20665    0.092
 4503.00    1.28393   1.21009    0.092
 4504.00    1.27767   1.21318    0.092
 4505.00    1.24186   1.21755    0.093
 4506.00    1.22516   1.21710    0.092
 4507.00    1.21423   1.21716    0.091
 4508.00    1.20902   1.21841    0.090
 4509.00    1.20525   1.21581    0.088
 4510.00    1.23585   1.21470    0.090
 4511.00    1.27344   1.21147    0.093
 4512.00    1.28872   1.20688    0.092
 4513.00    1.30044   1.20419    0.091
 4514.00    1.23467   1.19785    0.090
 4515.00    1.15970   1.19404    0.089
 4516.00    1.19461   1.18883    0.089
 4517.00    1.23841   1.17939    0.089
 4518.00    1.26029   1.17603    0.089
 4519.00    1.28118   1.16878    0.090
 4520.00    1.18349   1.15915    0.089
 4521.00    1.08736   1.15511    0.088
 4522.00    1.14478   1.14633    0.089
 4523.00    1.19946   1.13928    0.089
 4524.00    1.20274   1.13436    0.089
 4525.00    1.21000   1.12556    0.089
 4526.00    1.26171   1.12305    0.090
 4527.00    1.30500   1.11853    0.090
 4528.00    1.28229   1.11172    0.089
 4529.00    1.25910   1.11162    0.089
 4530.00    1.23303   1.10964    0.089
 4531.00    1.20643   1.10968    0.089
 4532.00    1.17738   1.11158    0.088
 4533.00    1.15602   1.11133    0.088
 4534.00    1.16409   1.11562    0.089
 4535.00    1.16860   1.11807    0.089
 4536.00    1.16178   1.12008    0.090
 4537.00    1.15928   1.12615    0.090
 4538.00    1.16846   1.12784    0.089
 4539.00    1.17222   1.13059    0.088
 4540.00    1.16342   1.13368    0.089
 4541.00    1.16745   1.13435    0.089
 4542.00    1.19722   1.13881    0.088
 4543.00    1.21667   1.13787    0.088
 4544.00    1.21810   1.13663    0.089
 4545.00    1.20517   1.14078    0.089
 4546.00    1.17032   1.13768    0.088
 4547.00    1.16219   1.13680    0.087
 4548.00    1.18994   1.14026    0.089
 4549.00    1.21637   1.13766    0.089
 4550.00    1.24123   1.13882    0.000
 4551.00    1.24539   1.14108    0.000
 4552.00    1.22795   1.14086    0.000
 4553.00    1.20262   1.14576    0.000
 4554.00    1.17004   1.14636    0.000
 4555.00    1.15699   1.14729    0.000
 4556.00    1.15977   1.15458    0.000
 4557.00    1.17298   1.15548    0.000
 4558.00    1.19363   1.15760    0.000
 4559.00    1.20548   1.16312    0.000
 4560.00    1.21182   1.16379    0.000
 4561.00    1.22443   1.16816    0.000
 4562.00    1.24047   1.17126    0.000
 4563.00    1.18352   1.17103    0.000
 4564.00    1.09187   1.17620    0.000
 4565.00    1.11315   1.17552    0.000
 4566.00    1.18075   1.17402    0.000
 4567.00    1.19354   1.17923    0.000
 4568.00    1.18711   1.17714    0.000
 4569.00    1.18457   1.17550    0.000
 4570.00    1.18318   1.17743    0.000
 4571.00    1.20908   1.17396    0.000
 4572.00    1.24167   1.17439    0.000
 4573.00    1.20428   1.17370    0.000
 4574.00    1.15301   1.16795    0.000
 4575.00    1.16145   1.16857    0.000
 4576.00    1.17912   1.16642    0.000
 4577.00    1.17418   1.15975    0.000
 4578.00    1.16665   1.16049    0.000
 4579.00    1.22301   1.15921    0.000
 4580.00    1.28427   1.15351    0.000
 4581.00    1.24910   1.15318    0.000
 4582.00    1.20991   1.15191    0.000
 4583.00    1.21511   1.14851    0.000
 4584.00    1.21999   1.14907    0.000
 4585.00    1.19465   1.14729    0.000
 4586.00    1.17107   1.14480    0.000
 4587.00    1.17815   1.14721    0.000
 4588.00    1.18463   1.14606    0.000
 4589.00    1.18466   1.14427    0.000
 4590.00    1.18605   1.14708    0.000
 4591.00    1.19768   1.14546    0.000
 4592.00    1.19519   1.14488    0.000
 4593.00    1.11150   1.14806    0.000
 4594.00    1.05622   1.14639    0.000
 4595.00    1.13072   1.14709    0.000
 4596.00    1.18783   1.14972    0.000
 4597.00    1.17989   1.14837    0.000
 4598.00    1.18129   1.15113    0.000
 4599.00    1.21192   1.15415    0.000
 4600.00    1.22002   1.15470    0.000
 4601.00    1.16835   1.15869    0.000
 4602.00    1.14302   1.16137    0.000
 4603.00    1.17775   1.16423    0.000
 4604.00    1.20403   1.16860    0.000
 4605.00    1.21367   1.17103    0.000
 4606.00    1.21938   1.17532    0.000
 4607.00    1.21832   1.17811    0.000
 4608.00    1.22994   1.18132    0.000
 4609.00    1.26064   1.18631    0.000
 4610.00    1.25487   1.18617    0.000
 4611.00    1.20084   1.18955    0.000
 4612.00    1.16941   1.19395    0.000
 4613.00    1.16433   1.19221    0.000
 4614.00    1.16922   1.19556    0.000
 4615.00    1.18436   1.19794    0.000
 4616.00    1.21838   1.19519    0.000
 4617.00    1.26951   1.19776    0.000
 4618.00    1.27149   1.19794    0.000
 4619.00    1.23419   1.19598    0.000
 4620.00    1.21566   1.19777    0.000
 4621.00    1.21034   1.19548    0.000
 4622.00    1.21459   1.19432    0.000
 4623.00    1.22476   1.19541    0.000
 4624.00    1.23970   1.19125    0.000
 4625.00    1.25723   1.18919    0.000
 4626.00    1.23598   1.18963    0.000
 4627.00    1.19660   1.18577    0.000
 4628.00    1.19011   1.18185    0.000
 4629.00    1.19687   1.18055    0.000
 4630.00    1.22762   1.17767    0.000
 4631.00    1.26662   1.17207    0.000
 4632.00    1.23759   1.16946    0.000
 4633.00    1.18885   1.16795    0.000
 4634.00    1.19885   1.16142    0.000
 4635.00    1.22291   1.15764    0.000
 4636.00    1.19481   1.15651    0.000
 4637.00    1.15664   1.15051    0.000
 4638.00    1.10103   1.14689    0.000
 4639.00    1.04280   1.14455    0.000
 4640.00    1.12358   1.14006    0.000
 4641.00    1.21967   1.13899    0.000
 4642.00    1.24117   1.13552    0.000
 4643.00    1.25724   1.13228    0.000
 4644.00    1.24156   1.13381    0.000
 4645.00    1.22469   1.13017    0.000
 4646.00    1.21097   1.12879    0.000
 4647.00    1.19822   1.13223    0.000
 4648.00    1.22040   1.12943    0.000
 4649.00    1.23830   1.13014    0.000
 4650.00    1.18601   1.13428    0.000
 4651.00    1.14229   1.13252    0.000
 4652.00    1.18622   1.13436    0.000
 4653.00    1.22408   1.13754    0.000
 4654.00    1.21754   1.13634    0.000
 4655.00    1.21399   1.13839    0.000
 4656.00    1.22713   1.13985    0.000
 4657.00    1.23579   1.13799    0.000
 4658.00    1.22443   1.13826    0.000
 4659.00    1.21625   1.13745    0.000
 4660.00    1.21968   1.13479    0.000
 4661.00    1.22174   1.13338    0.000
 4662.00    1.21958   1.13138    0.000
 4663.00    1.20835   1.12817    0.000
 4664.00    1.17346   1.12620    0.000
 4665.00    1.16407   1.12433    0.000
 4666.00    1.21183   1.12099    0.000
 4667.00    1.22960   1.12009    0.000
 4668.00    1.18914   1.11971    0.000
 4669.00    1.17275   1.11687    0.000
 4670.00    1.19712   1.11770    0.000
 4671.00    1.21016   1.11931    0.000
 4672.00    1.20636   1.11736    0.000
 4673.00    1.20116   1.11918    0.000
 4674.00    1.19411   1.12228    0.000
 4675.00    1.18375   1.12158    0.000
 4676.00    1.16957   1.12327    0.000
 4677.00    1.18631   1.12615    0.000
 4678.00    1.23439   1.12611    0.000
 4679.00    1.24966   1.12729    0.000
 4680.00    1.23561   1.12921    0.000
 4681.00    1.20749   1.12931    0.000
 4682.00    1.16828   1.13016    0.000
 4683.00    1.15861   1.13125    0.000
 4684.00    1.16940   1.13104    0.000
 4685.00    1.16163   1.13194    0.000
 4686.00    1.14258   1.13244    0.000
 4687.00    1.16105   1.13138    0.000
 4688.00    1.19941   1.13224    0.000
 4689.00    1.18958   1.13232    0.000
 4690.00    1.15758   1.13031    0.000
 4691.00    1.12227   1.13040    0.000
 4692.00    1.08566   1.12985    0.000
 4693.00    1.09591   1.12725    0.000
 4694.00    1.12198   1.12602    0.000
 4695.00    1.14776   1.12457    0.000
 4696.00    1.17347   1.12187    0.000
 4697.00    1.16919   1.11952    0.000
 4698.00    1.15790   1.11773    0.000
 4699.00    1.11748   1.11579    0.000
 4700.00    1.07157   1.11303    0.000
 4701.00    1.11391   1.11170    0.000
 4702.00    1.16908   1.11100    0.000
 4703.00    1.16473   1.10878    0.000
 4704.00    1.15409   1.10903    0.000
 4705.00    1.15674   1.10993    0.000
 4706.00    1.16030   1.10915    0.000
 4707.00    1.16976   1.11144    0.000
 4708.00    1.17942   1.11362    0.000
 4709.00    1.18938   1.11481    0.000
 4710.00    1.19757   1.11919    0.000
 4711.00    1.14831   1.12190    0.000
 4712.00    1.10326   1.12421    0.000
 4713.00    1.12301   1.12969    0.000
 4714.00    1.13995   1.13271    0.000
 4715.00    1.12934   1.13492    0.000
 4716.00    1.12168   1.13922    0.000
 4717.00    1.13482   1.14157    0.000
 4718.00    1.14336   1.14320    0.000
 4719.00    1.12691   1.14540    0.000
 4720.00    1.11418   1.14636    0.000
 4721.00    1.11765   1.14627    0.000
 4722.00    1.13131   1.14573    0.000
 4723.00    1.18161   1.14538    0.000
 4724.00    1.21450   1.14355    0.000
 4725.00    1.19503   1.14160    0.000
 4726.00    1.17257   1.14103    0.000
 4727.00    1.14244   1.13777    0.000
 4728.00    1.13676   1.13574    0.000
 4729.00    1.18496   1.13602    0.000
 4730.00    1.21153   1.13259    0.000
 4731.00    1.19677   1.13203    0.000
 4732.00    1.19299   1.13374    0.000
 4733.00    1.20752   1.13107    0.000
 4734.00    1.20466   1.13284    0.000
 4735.00    1.17635   1.13562    0.000
 4736.00    1.16233   1.13344    0.000
 4737.00    1.16667   1.13706    0.000
 4738.00    1.16897   1.14060    0.000
 4739.00    1.16897   1.13893    0.000
 4740.00    1.17281   1.14309    0.000
 4741.00    1.18048   1.14607    0.000
 4742.00    1.20008   1.14450    0.000
 4743.00    1.23017   1.14802    0.000
 4744.00    1.22028   1.14948    0.000
 4745.00    1.17934   1.14770    0.000
 4746.00    1.18152   1.14965    0.000
 4747.00    1.21314   1.14919    0.000
 4748.00    1.22146   1.14717    0.000
 4749.00    1.21583   1.14717    0.000
 4750.00    1.19315   1.14454    0.000
 4751.00    1.16156   1.14217    0.000
 4752.00    1.16900   1.14082    0.000
 4753.00    1.19411   1.13654    0.000
 4754.00    1.18022   1.13367    0.000
 4755.00    1.15113   1.13153    0.000
 4756.00    1.14286   1.12677    0.000
 4757.00    1.14150   1.12380    0.000
 4758.00    1.12680   1.12131    0.000
 4759.00    1.10839   1.11730    0.000
 4760.00    1.13331   1.11524    0.000
 4761.00    1.16814   1.11301    0.078
 4762.00    1.18750   1.11049    0.078
 4763.00    1.20403   1.11026    0.078
 4764.00    1.19745   1.10902    0.079
 4765.00    1.18762   1.10833    0.079
 4766.00    1.13469   1.11016    0.078
 4767.00    1.07739   1.11021    0.077
 4768.00    1.09704   1.11099    0.076
 4769.00    1.12166   1.11430    0.076
 4770.00    1.15200   1.11530    0.076
 4771.00    1.18249   1.11648    0.077
 4772.00    1.19587   1.12017    0.076
 4773.00    1.20853   1.12146    0.076
 4774.00    1.20015   1.12186    0.077
 4775.00    1.18957   1.12481    0.077
 4776.00    1.14704   1.12575    0.077
 4777.00    1.10615   1.12486    0.076
 4778.00    1.08073   1.12665    0.075
 4779.00    1.05380   1.12680    0.074
 4780.00    1.01657   1.12487    0.073
 4781.00    0.98370   1.12615    0.073
 4782.00    0.97400   1.12567    0.072
 4783.00    0.96619   1.12353    0.072
 4784.00    0.96644   1.12537    0.072
 4785.00    0.96539   1.12483    0.072
 4786.00    0.95981   1.12337    0.072
 4787.00    0.96422   1.12646    0.072
 4788.00    0.99813   1.12606    0.072
 4789.00    1.03654   1.12543    0.073
 4790.00    1.08632   1.12958    0.075
 4791.00    1.12589   1.12945    0.076
 4792.00    1.14334   1.12916    0.075
 4793.00    1.14893   1.13327    0.075
 4794.00    1.13218   1.13327    0.074
 4795.00    1.12599   1.13264    0.073
 4796.00    1.13715   1.13556    0.074
 4797.00    1.14823   1.13554    0.074
 4798.00    1.15922   1.13424    0.076
 4799.00    1.16429   1.13547    0.076
 4800.00    1.16189   1.13545    0.075
 4801.00    1.15006   1.13367    0.074
 4802.00    1.12771   1.13366    0.074
 4803.00    1.13240   1.13384    0.075
 4804.00    1.16372   1.13208    0.075
 4805.00    1.15776   1.13165    0.074
 4806.00    1.11942   1.13229    0.073
 4807.00    1.09982   1.13101    0.073
 4808.00    1.09456   1.13065    0.074
 4809.00    1.09516   1.13178    0.074
 4810.00    1.09970   1.13116    0.073
 4811.00    1.10083   1.13082    0.073
 4812.00    1.09995   1.13220    0.073
 4813.00    1.12161   1.13195    0.074
 4814.00    1.15485   1.13105    0.075
 4815.00    1.16530   1.13222    0.076
 4816.00    1.16561   1.13173    0.076
 4817.00    1.16788   1.12969    0.076
 4818.00    1.17090   1.13037    0.075
 4819.00    1.15437   1.12919    0.074
 4820.00    1.13149   1.12588    0.075
 4821.00    1.15302   1.12613    0.075
 4822.00    1.18664   1.12416    0.075
 4823.00    1.17036   1.12006    0.075
 4824.00    1.14293   1.12010    0.075
 4825.00    1.12984   1.11754    0.076
 4826.00    1.11931   1.11340    0.076
 4827.00    1.11702   1.11340    0.076
 4828.00    1.11584   1.11054    0.077
 4829.00    1.11730   1.10696    0.077
 4830.00    1.11900   1.10681    0.078
 4831.00    1.09440   1.10383    0.076
 4832.00    1.06819   1.10097    0.075
 4833.00    1.09492   1.10031    0.076
 4834.00    1.12289   1.09724    0.077
 4835.00    1.12158   1.09494    0.076
 4836.00    1.12150   1.09330    0.076
 4837.00    1.15358   1.08998    0.076
 4838.00    1.17964   1.08786    0.077
 4839.00    1.12362   1.08474    0.076
 4840.00    1.07422   1.08081    0.076
 4841.00    1.08471   1.07835    0.076
 4842.00    1.09812   1.07316    0.076
 4843.00    1.13087   1.06791    0.076
 4844.00    1.16183   1.06442    0.076
 4845.00    1.18351   1.05662    0.076
 4846.00    1.19682   1.04927    0.077
 4847.00    1.17531   1.04413    0.077
 4848.00    1.15879   1.03349    0.000
 4849.00    1.15946   1.02361    0.000
 4850.00    1.16298   1.01686    0.000
 4851.00    1.17474   1.00401    0.000
 4852.00    1.17214   0.99217    0.000
 4853.00    1.13395   0.98493    0.000
 4854.00    1.10705   0.97174    0.000
 4855.00    1.10421   0.95977    0.000
 4856.00    1.09259   0.95417    0.000
 4857.00    1.06470   0.94339    0.000
 4858.00    1.05274   0.93386    0.000
 4859.00    1.06657   0.93206    0.000
 4860.00    1.06512   0.92624    0.000
 4861.00    1.04198   0.92127    0.000
 4862.00    1.03524   0.92423    0.000
 4863.00    1.04900   0.92441    0.000
 4864.00    1.06293   0.92476    0.000
 4865.00    1.07706   0.93163    0.000
 4866.00    1.07322   0.93696    0.000
 4867.00    1.05193   0.94176    0.000
 4868.00    1.04839   0.95051    0.000
 4869.00    1.06007   0.95878    0.000
 4870.00    1.06421   0.96628    0.000
 4871.00    1.06266   0.97474    0.000
 4872.00    1.04975   0.98340    0.000
 4873.00    1.02930   0.99183    0.000
 4874.00    1.03922   0.99861    0.000
 4875.00    1.06677   1.00568    0.076
 4876.00    1.04697   1.01363    0.076
 4877.00    1.00322   1.01839    0.075
 4878.00    1.03317   1.02290    0.074
 4879.00    1.09540   1.02956    0.074
 4880.00    1.09685   1.03291    0.075
 4881.00    1.07546   1.03497    0.075
 4882.00    1.08355   1.04025    0.075
 4883.00    1.10105   1.04347    0.075
 4884.00    1.09220   1.04409    0.075
 4885.00    1.07632   1.04853    0.076
 4886.00    1.09406   1.05295    0.076
 4887.00    1.11914   1.05333    0.077
 4888.00    1.08897   1.05768    0.076
 4889.00    1.04921   1.06391    0.075
 4890.00    1.08270   1.06474    0.075
 4891.00    1.12583   1.06919    0.075
 4892.00    1.13777   1.07674    0.074
 4893.00    1.14682   1.07782    0.074
 4894.00    1.12785   1.08185    0.074
 4895.00    1.10729   1.08930    0.074
 4896.00    1.12112   1.08991    0.076
 4897.00    1.13539   1.09262    0.077
 4898.00    1.11282   1.09845    0.076
 4899.00    1.09055   1.09802    0.075
 4900.00    1.07541   1.09877    0.075
 4901.00    1.06380   1.10200    0.074
 4902.00    1.09779   1.10049    0.074
 4903.00    1.12825   1.09928    0.073
 4904.00    1.12793   1.09975    0.073
 4905.00    1.12546   1.09738    0.073
 4906.00    1.10918   1.09471    0.073
 4907.00    1.09579   1.09286    0.074
 4908.00    1.09695   1.08991    0.074
 4909.00    1.09702   1.08641    0.074
 4910.00    1.09266   1.08313    0.074
 4911.00    1.09018   1.07977    0.074
 4912.00    1.09410   1.07610    0.073
 4913.00    1.09511   1.07262    0.073
 4914.00    1.08784   1.06923    0.073
 4915.00    1.07911   1.06604    0.073
 4916.00    1.06680   1.06385    0.073
 4917.00    1.04846   1.06120    0.073
 4918.00    1.01744   1.05899    0.073
 4919.00    1.01802   1.05931    0.073
 4920.00    1.07625   1.05818    0.073
 4921.00    1.10814   1.05704    0.072
 4922.00    1.09802   1.06022    0.072
 4923.00    1.08274   1.06085    0.073
 4924.00    1.06022   1.06024    0.073
 4925.00    1.04969   1.06548    0.073
 4926.00    1.05391   1.06734    0.072
 4927.00    1.06234   1.06633    0.071
 4928.00    1.07534   1.07220    0.071
 4929.00    1.09463   1.07439    0.072
 4930.00    1.11994   1.07242    0.072
 4931.00    1.11387   1.07791    0.072
 4932.00    1.08131   1.07995    0.071
 4933.00    1.05866   1.07727    0.071
 4934.00    1.04338   1.08226    0.071
 4935.00    1.03843   1.08429    0.071
 4936.00    1.04025   1.08173    0.070
 4937.00    1.04716   1.08665    0.071
 4938.00    1.05700   1.08906    0.071
 4939.00    1.06789   1.08718    0.071
 4940.00    1.07931   1.09217    0.000
 4941.00    1.08526   1.09486    0.000
 4942.00    1.08885   1.09344    0.000
 4943.00    1.10143   1.09793    0.000
 4944.00    1.11733   1.10017    0.000
 4945.00    1.14064   1.09835    0.000
 4946.00    1.16628   1.10146    0.000
 4947.00    1.15579   1.10228    0.000
 4948.00    1.13588   1.09922    0.000
 4949.00    1.11102   1.10051    0.000
 4950.00    1.08510   1.09956    0.000
 4951.00    1.07909   1.09505    0.000
 4952.00    1.07644   1.09484    0.000
 4953.00    1.08006   1.09269    0.000
 4954.00    1.08447   1.08737    0.000
 4955.00    1.08613   1.08649    0.000
 4956.00    1.08754   1.08426    0.000
 4957.00    1.08109   1.07925    0.000
 4958.00    1.07423   1.07836    0.000
 4959.00    1.09132   1.07699    0.000
 4960.00    1.10835   1.07324    0.000
 4961.00    1.08493   1.07261    0.000
 4962.00    1.06293   1.07220    0.000
 4963.00    1.07177   1.06995    0.000
 4964.00    1.08070   1.06948    0.000
 4965.00    1.09064   1.06955    0.000
 4966.00    1.09881   1.06815    0.000
 4967.00    1.09213   1.06748    0.000
 4968.00    1.08290   1.06735    0.000
 4969.00    1.05776   1.06571    0.000
 4970.00    1.03873   1.06437    0.000
 4971.00    1.04973   1.06363    0.000
 4972.00    1.06101   1.06082    0.000
 4973.00    1.07338   1.05844    0.000
 4974.00    1.08006   1.05716    0.000
 4975.00    1.06792   1.05302    0.000
 4976.00    1.06298   1.04967    0.000
 4977.00    1.07816   1.04841    0.000
 4978.00    1.08058   1.04374    0.000
 4979.00    1.05246   1.04006    0.000
 4980.00    1.03420   1.03962    0.000
 4981.00    1.03629   1.03555    0.000
 4982.00    1.03844   1.03255    0.000
 4983.00    1.04070   1.03342    0.000
 4984.00    1.03085   1.03062    0.000
 4985.00    1.00195   1.02895    0.000
 4986.00    1.00176   1.03094    0.000
 4987.00    1.04117   1.02908    0.000
 4988.00    1.05628   1.02858    0.000
 4989.00    1.04189   1.03092    0.000
 4990.00    1.05025   1.02891    0.000
 4991.00    1.08297   1.02873    0.000
 4992.00    1.09378   1.03048    0.000
 4993.00    1.08393   1.02725    0.000
 4994.00    1.06526   1.02645    0.000
 4995.00    1.03925   1.02708    0.000
 4996.00    1.03331   1.02226    0.000
 4997.00    1.04207   1.02036    0.000
 4998.00    1.04714   1.01999    0.000
 4999.00    1.04985   1.01401    0.000
 5000.00    1.05945   1.01110    0.000
 5001.00    1.07294   1.01027    0.000
 5002.00    1.05611   1.00403    0.000
 5003.00    1.02442   1.00062    0.000
 5004.00    1.02683   0.99991    0.000
 5005.00    1.04368   0.99429    0.000
 5006.00    1.04858   0.99094    0.000
 5007.00    1.04914   0.99078    0.000
 5008.00    1.05124   0.98636    0.000
 5009.00    1.05381   0.98357    0.000
 5010.00    1.04036   0.98428    0.000
 5011.00    1.02283   0.98138    0.000
 5012.00    1.00108   0.97944    0.000
 5013.00    0.97844   0.98136    0.000
 5014.00    0.97887   0.98016    0.000
 5015.00    0.98308   0.97920    0.000
 5016.00    0.99286   0.98250    0.000
 5017.00    1.00332   0.98313    0.000
 5018.00    1.01231   0.98303    0.000
 5019.00    1.02117   0.98746    0.000
 5020.00    1.01464   0.98971    0.000
 5021.00    1.00736   0.99022    0.000
 5022.00    1.03342   0.99489    0.000
 5023.00    1.05912   0.99805    0.000
 5024.00    1.03133   0.99885    0.000
 5025.00    1.00501   1.00258    0.000
 5026.00    1.00837   1.00552    0.000
 5027.00    1.01326   1.00632    0.000
 5028.00    1.03597   1.00814    0.000
 5029.00    1.05457   1.00968    0.070
 5030.00    1.03989   1.01040    0.070
 5031.00    1.02834   1.01014    0.069
 5032.00    1.03580   1.00970    0.069
 5033.00    1.03785   1.01053    0.069
 5034.00    1.01407   1.00903    0.069
 5035.00    0.99774   1.00688    0.069
 5036.00    1.01040   1.00816    0.070
 5037.00    1.01634   1.00691    0.070
 5038.00    1.00048   1.00404    0.070
 5039.00    1.00120   1.00606    0.070
 5040.00    1.04748   1.00643    0.070
 5041.00    1.06950   1.00401    0.070
 5042.00    1.03451   1.00666    0.069
 5043.00    1.00988   1.00916    0.069
 5044.00    1.00631   1.00809    0.068
 5045.00    1.00293   1.01092    0.068
 5046.00    0.99991   1.01494    0.068
 5047.00    0.99484   1.01554    0.068
 5048.00    0.98659   1.01816    0.069
 5049.00    0.97714   1.02241    0.069
 5050.00    0.96605   1.02439    0.069
 5051.00    0.97475   1.02660    0.069
 5052.00    1.00713   1.02977    0.070
 5053.00    1.02274   1.03229    0.070
 5054.00    1.02064   1.03405    0.070
 5055.00    1.02791   1.03524    0.070
 5056.00    1.04391   1.03715    0.070
 5057.00    1.05266   1.03839    0.070
 5058.00    1.05545   1.03740    0.070
 5059.00    1.03927   1.03763    0.070
 5060.00    1.00937   1.03825    0.069
 5061.00    1.02412   1.03560    0.069
 5062.00    1.06717   1.03363    0.069
 5063.00    1.06453   1.03344    0.069
 5064.00    1.03655   1.03010    0.069
 5065.00    1.02159   1.02623    0.069
 5066.00    1.01289   1.02511    0.070
 5067.00    1.00504   1.02213    0.070
 5068.00    0.99753   1.01736    0.070
 5069.00    0.99701   1.01513    0.070
 5070.00    0.99898   1.01299    0.069
 5071.00    1.00165   1.00875    0.070
 5072.00    1.00453   1.00566    0.070
 5073.00    1.00414   1.00417    0.070
 5074.00    1.00293   1.00159    0.069
 5075.00    0.99568   0.99859    0.069
 5076.00    0.98722   0.99744    0.070
 5077.00    0.98203   0.99685    0.070
 5078.00    0.97736   0.99517    0.069
 5079.00    0.97293   0.99446    0.069
 5080.00    0.96852   0.99540    0.069
 5081.00    0.98129   0.99569    0.068
 5082.00    0.99544   0.99578    0.067
 5083.00    0.95775   0.99735    0.066
 5084.00    0.91773   0.99916    0.066
 5085.00    0.90014   1.00014    0.065
 5086.00    0.88407   1.00145    0.064
 5087.00    0.93105   1.00364    0.064
 5088.00    0.97446   1.00497    0.064
 5089.00    0.95173   1.00549    0.064
 5090.00    0.93396   1.00690    0.064
 5091.00    0.97141   1.00757    0.065
 5092.00    1.00562   1.00704    0.066
 5093.00    1.01449   1.00736    0.066
 5094.00    1.02410   1.00681    0.066
 5095.00    1.03815   1.00546    0.067
 5096.00    1.04509   1.00509    0.067
 5097.00    1.01883   1.00338    0.067
 5098.00    0.99315   1.00183    0.067
 5099.00    0.96965   1.00161    0.067
 5100.00    0.94723   0.99927    0.066
 5101.00    0.92830   0.99812    0.065
 5102.00    0.91934   0.99881    0.064
 5103.00    0.93723   0.99649    0.065
 5104.00    0.95612   0.99597    0.066
 5105.00    0.97728   0.99797    0.066
 5106.00    0.98421   0.99627    0.066
 5107.00    0.96267   0.99596    0.067
 5108.00    0.94931   0.99885    0.067
 5109.00    0.95018   0.99816    0.066
 5110.00    0.95282   0.99734    0.066
 5111.00    0.95818   1.00002    0.066
 5112.00    0.96204   1.00027    0.066
 5113.00    0.96387   0.99848    0.067
 5114.00    0.97533   0.99971    0.068
 5115.00    0.99814   1.00034    0.069
 5116.00    1.00840   0.99752    0.069
 5117.00    1.00560   0.99657    0.069
 5118.00    0.98477   0.99696    0.069
 5119.00    0.94737   0.99371    0.069
 5120.00    0.94000   0.99059    0.068
 5121.00    0.95692   0.99043    0.068
 5122.00    0.95758   0.98796    0.067
 5123.00    0.94668   0.98339    0.066
 5124.00    0.93180   0.98251    0.066
 5125.00    0.91442   0.98195    0.068
 5126.00    0.94856   0.97681    0.068
 5127.00    1.01083   0.97531    0.069
 5128.00    1.03220   0.97719    0.069
 5129.00    1.03416   0.97192    0.069
 5130.00    1.01241   0.96975    0.069
 5131.00    0.98097   0.97406    0.068
 5132.00    0.99143   0.96901    0.068
 5133.00    1.01655   0.96555    0.069
 5134.00    1.00865   0.97127    0.069
 5135.00    0.99101   0.96713    0.068
 5136.00    1.01161   0.96234    0.069
 5137.00    1.04155   0.96791    0.070
 5138.00    1.02302   0.96511    0.069
 5139.00    0.99490   0.95969    0.068
 5140.00    0.98992   0.96424    0.068
 5141.00    0.98852   0.96306    0.068
 5142.00    0.93994   0.95772    0.067
 5143.00    0.88600   0.96079    0.066
 5144.00    0.90853   0.96142    0.066
 5145.00    0.93690   0.95714    0.066
 5146.00    0.95314   0.95870    0.067
 5147.00    0.96889   0.96075    0.068
 5148.00    0.96413   0.95794    0.068
 5149.00    0.95917   0.95777    0.068
 5150.00    0.95244   0.96009    0.067
 5151.00    0.94714   0.95852    0.067
 5152.00    0.96665   0.95637    0.067
 5153.00    0.98402   0.95731    0.067
 5154.00    0.97852   0.95602    0.066
 5155.00    0.97398   0.95177    0.066
 5156.00    0.97666   0.94963    0.066
 5157.00    0.97802   0.94710    0.066
 5158.00    0.97189   0.94077    0.066
 5159.00    0.96967   0.93508    0.066
 5160.00    0.98529   0.93155    0.066
 5161.00    0.99198   0.92445    0.066
 5162.00    0.96537   0.91484    0.067
 5163.00    0.94728   0.90969    0.067
 5164.00    0.95576   0.90443    0.067
 5165.00    0.95605   0.89437    0.067
 5166.00    0.93464   0.88820    0.067
 5167.00    0.92255   0.88549    0.067
 5168.00    0.93162   0.87818    0.067
 5169.00    0.93720   0.87268    0.067
 5170.00    0.93591   0.87225    0.067
 5171.00    0.93319   0.86956    0.067
 5172.00    0.92803   0.86625    0.066
 5173.00    0.92539   0.86651    0.065
 5174.00    0.92655   0.86797    0.066
 5175.00    0.92787   0.86808    0.066
 5176.00    0.92941   0.86845    0.065
 5177.00    0.94279   0.87248    0.065
 5178.00    0.96993   0.87523    0.065
 5179.00    0.97066   0.87534    0.065
 5180.00    0.94427   0.88096    0.066
 5181.00    0.92043   0.88511    0.065
 5182.00    0.89888   0.88427    0.064
 5183.00    0.88076   0.89052    0.064
 5184.00    0.86537   0.89623    0.064
 5185.00    0.86011   0.89465    0.064
 5186.00    0.86197   0.90044    0.065
 5187.00    0.87692   0.90789    0.065
 5188.00    0.89993   0.90626    0.066
 5189.00    0.91665   0.91031    0.066
 5190.00    0.92999   0.91905    0.000
 5191.00    0.93729   0.91794    0.000
 5192.00    0.94178   0.91902    0.000
 5193.00    0.95625   0.92811    0.000
 5194.00    0.97474   0.92810    0.000
 5195.00    0.95079   0.92517    0.000
 5196.00    0.91227   0.93320    0.000
 5197.00    0.93348   0.93531    0.000
 5198.00    0.97194   0.92902    0.000
 5199.00    0.94598   0.93439    0.000
 5200.00    0.90464   0.93897    0.000
 5201.00    0.93516   0.93162    0.000
 5202.00    0.97951   0.93367    0.000
 5203.00    0.97158   0.94020    0.000
 5204.00    0.95584   0.93481    0.000
 5205.00    0.94074   0.93413    0.000
 5206.00    0.92571   0.94130    0.000
 5207.00    0.90831   0.93983    0.000
 5208.00    0.89073   0.93787    0.000
 5209.00    0.91351   0.94402    0.000
 5210.00    0.93780   0.94614    0.000
 5211.00    0.95994   0.94493    0.067
 5212.00    0.98135   0.94985    0.066
 5213.00    0.97611   0.95330    0.066
 5214.00    0.97185   0.95265    0.066
 5215.00    0.98346   0.95650    0.066
 5216.00    0.99284   0.95926    0.066
 5217.00    0.97939   0.95800    0.066
 5218.00    0.96579   0.96148    0.066
 5219.00    0.95111   0.96292    0.066
 5220.00    0.94332   0.95988    0.066
 5221.00    0.97395   0.96397    0.065
 5222.00    0.99730   0.96559    0.065
 5223.00    0.98826   0.96097    0.066
 5224.00    0.97666   0.96498    0.066
 5225.00    0.95576   0.96757    0.066
 5226.00    0.93818   0.96245    0.066
 5227.00    0.93075   0.96559    0.065
 5228.00    0.93093   0.97049    0.065
 5229.00    0.95093   0.96734    0.066
 5230.00    0.97135   0.96920    0.066
 5231.00    0.99269   0.97607    0.065
 5232.00    1.00112   0.97555    0.065
 5233.00    0.98452   0.97513    0.064
 5234.00    0.98077   0.98247    0.064
 5235.00    0.99875   0.98500    0.064
 5236.00    1.00664   0.98255    0.064
 5237.00    0.99961   0.98786    0.064
 5238.00    0.99666   0.99290    0.065
 5239.00    0.99904   0.98992    0.065
 5240.00    0.98399   0.99053    0.064
 5241.00    0.94897   0.99572    0.064
 5242.00    0.94308   0.99458    0.063
 5243.00    0.96663   0.99117    0.063
 5244.00    0.96232   0.99377    0.063
 5245.00    0.93315   0.99428    0.064
 5246.00    0.94811   0.98967    0.064
 5247.00    0.99777   0.98937    0.065
 5248.00    1.00632   0.98963    0.065
 5249.00    0.98645   0.98513    0.066
 5250.00    0.95796   0.98293    0.066
 5251.00    0.92424   0.98281    0.065
 5252.00    0.92505   0.97833    0.064
 5253.00    0.94413   0.97367    0.064
 5254.00    0.97077   0.97281    0.064
 5255.00    1.00088   0.96818    0.065
 5256.00    1.00502   0.96077    0.065
 5257.00    0.99891   0.95938    0.065
 5258.00    0.97390   0.95565    0.065
 5259.00    0.94253   0.94560    0.066
 5260.00    0.93984   0.94374    0.066
 5261.00    0.94528   0.94336    0.065
 5262.00    0.94352   0.93213    0.066
 5263.00    0.94009   0.92750    0.067
 5264.00    0.90912   0.93163    0.068
 5265.00    0.87298   0.92450    0.068
 5266.00    0.87899   0.91825    0.068
 5267.00    0.89110   0.92543    0.068
 5268.00    0.90027   0.92401    0.069
 5269.00    0.90914   0.91761    0.069
 5270.00    0.90096   0.92652    0.069
 5271.00    0.89163   0.93213    0.068
 5272.00    0.91986   0.92791    0.068
 5273.00    0.94936   0.93527    0.069
 5274.00    0.93781   0.94547    0.068
 5275.00    0.92701   0.94543    0.067
 5276.00    0.94189   0.95047    0.067
 5277.00    0.95640   0.96149    0.067
 5278.00    0.96532   0.96548    0.066
 5279.00    0.97126   0.96907    0.065
 5280.00    0.94823   0.97810    0.065
 5281.00    0.93049   0.98378    0.065
 5282.00    0.94998   0.98696    0.065
 5283.00    0.96577   0.99296    0.065
 5284.00    0.96150   0.99733    0.064
 5285.00    0.95582   1.00017    0.064
 5286.00    0.94405   1.00385    0.064
 5287.00    0.94397   1.00595    0.064
 5288.00    0.98573   1.00806    0.064
 5289.00    1.01956   1.01023    0.064
 5290.00    1.02957   1.00956    0.065
 5291.00    1.02926   1.00967    0.065
 5292.00    1.00256   1.01207    0.064
 5293.00    0.98112   1.01131    0.064
 5294.00    0.97124   1.00942    0.064
 5295.00    0.96198   1.01148    0.064
 5296.00    0.95389   1.01234    0.065
 5297.00    0.96629   1.01011    0.065
 5298.00    1.01279   1.01115    0.064
 5299.00    1.03205   1.01340    0.064
 5300.00    1.01154   1.01223    0.063
 5301.00    0.98790   1.01276    0.063
 5302.00    0.96024   1.01595    0.063
 5303.00    0.94453   1.01584    0.063
 5304.00    0.94233   1.01572    0.063
 5305.00    0.95490   1.01918    0.063
 5306.00    0.98217   1.01945    0.063
 5307.00    0.99743   1.01804    0.063
 5308.00    1.00211   1.02066    0.063
 5309.00    0.98802   1.02086    0.063
 5310.00    0.95938   1.01820    0.063
 5311.00    0.95535   1.01868    0.062
 5312.00    0.96809   1.01789    0.062
 5313.00    0.96046   1.01406    0.062
 5314.00    0.94067   1.01207    0.063
 5315.00    0.94605   1.01060    0.063
 5316.00    0.96454   1.00608    0.064
 5317.00    0.95217   1.00083    0.063
 5318.00    0.92587   0.99846    0.063
 5319.00    0.91739   0.99583    0.063
 5320.00    0.91584   0.98930    0.063
 5321.00    0.91641   0.98408    0.063
 5322.00    0.91766   0.98307    0.063
 5323.00    0.90555   0.97940    0.063
 5324.00    0.88974   0.97348    0.062
 5325.00    0.91706   0.97253    0.063
 5326.00    0.95422   0.97201    0.063
 5327.00    0.94081   0.96836    0.063
 5328.00    0.91818   0.96798    0.063
 5329.00    0.93211   0.96915    0.063
 5330.00    0.95118   0.96724    0.064
 5331.00    0.93495   0.96788    0.064
 5332.00    0.91516   0.97093    0.064
 5333.00    0.93278   0.96989    0.063
 5334.00    0.95280   0.97069    0.063
 5335.00    0.95192   0.97538    0.063
 5336.00    0.95042   0.97566    0.063
 5337.00    0.94853   0.97656    0.062
 5338.00    0.94659   0.98113    0.061
 5339.00    0.94316   0.98213    0.061
 5340.00    0.94002   0.98460    0.061
 5341.00    0.94098   0.98902    0.061
 5342.00    0.94347   0.98895    0.061
 5343.00    0.96033   0.99097    0.061
 5344.00    0.97308   0.99665    0.061
 5345.00    0.95774   0.99783    0.061
 5346.00    0.94371   0.99807    0.061
 5347.00    0.93653   1.00382    0.061
 5348.00    0.93177   1.00729    0.061
 5349.00    0.93726   1.00654    0.061
 5350.00    0.94136   1.01076    0.061
 5351.00    0.94061   1.01484    0.061
 5352.00    0.94631   1.01409    0.061
 5353.00    0.97103   1.01662    0.061
 5354.00    0.98396   1.01914    0.061
 5355.00    0.96722   1.01756    0.061
 5356.00    0.95631   1.01835    0.061
 5357.00    0.95803   1.01930    0.061
 5358.00    0.95487   1.01688    0.061
 5359.00    0.94257   1.01580    0.061
 5360.00    0.92767   1.01492    0.061
 5361.00    0.90854   1.01206    0.061
 5362.00    0.90499   1.01038    0.061
 5363.00    0.92388   1.00799    0.061
 5364.00    0.93816   1.00419    0.061
 5365.00    0.94664   1.00309    0.061
 5366.00    0.94102   1.00154    0.061
 5367.00    0.91969   0.99707    0.061
 5368.00    0.91552   0.99653   -2.000
 5369.00    0.92822   0.99766   -2.000
 5370.00    0.93951   0.99432   -2.000
 5371.00    0.94958   0.99397   -2.000
 5372.00    0.95817   0.99645   -2.000
 5373.00    0.96562   0.99402   -2.000
 5374.00    0.96013   0.99386   -2.000
 5375.00    0.94597   0.99756   -2.000
 5376.00    0.96392   0.99577   -2.000
 5377.00    1.00076   0.99445   -2.000
 5378.00    0.99767   0.99859   -2.000
 5379.00    0.97411   0.99762   -2.000
 5380.00    0.95314   0.99446   -2.000
 5381.00    0.93332   0.99784   -2.000
 5382.00    0.94136   0.99761   -2.000
 5383.00    0.96004   0.99231    0.061
 5384.00    0.95541   0.99330    0.061
 5385.00    0.94323   0.99377    0.061
 5386.00    0.94707   0.98703    0.061
 5387.00    0.95527   0.98463    0.061
 5388.00    0.94645   0.98637    0.060
 5389.00    0.93384   0.98018    0.060
 5390.00    0.94740   0.97393    0.060
 5391.00    0.96561   0.97633    0.060
 5392.00    0.96077   0.97306    0.060
 5393.00    0.95280   0.96372    0.059
 5394.00    0.95630   0.96427    0.060
 5395.00    0.96092   0.96557    0.061
 5396.00    0.93194   0.95730    0.060
 5397.00    0.90094   0.95406    0.060
 5398.00    0.91937   0.95731    0.060
 5399.00    0.93906   0.95297    0.060
 5400.00    0.95422   0.94781    0.059
 5401.00    0.96851   0.95094    0.059
 5402.00    0.96042   0.95056    0.059
 5403.00    0.95050   0.94605    0.058
 5404.00    0.91591   0.94930    0.059
 5405.00    0.88372   0.95261    0.059
 5406.00    0.87303   0.94945    0.059
 5407.00    0.86467   0.95101    0.059
 5408.00    0.87166   0.95668    0.059
 5409.00    0.88028   0.95740    0.059
 5410.00    0.89735   0.95770    0.059
 5411.00    0.91535   0.96191    0.059
 5412.00    0.93720   0.96482    0.059
 5413.00    0.95112   0.96610    0.059
 5414.00    0.93784   0.96966    0.059
 5415.00    0.92833   0.97265    0.059
 5416.00    0.92971   0.97272    0.059
 5417.00    0.92938   0.97457    0.059
 5418.00    0.92480   0.97819    0.059
 5419.00    0.92466   0.97828    0.059
 5420.00    0.93396   0.97750    0.059
 5421.00    0.94217   0.97938    0.059
 5422.00    0.94836   0.97919    0.059
 5423.00    0.95229   0.97863    0.060
 5424.00    0.95256   0.98016    0.059
 5425.00    0.95485   0.97758    0.060
 5426.00    0.96000   0.97512    0.060
 5427.00    0.95993   0.97793    0.061
 5428.00    0.95336   0.97759    0.060
 5429.00    0.96080   0.97395    0.060
 5430.00    0.98364   0.97469    0.060
 5431.00    0.97715   0.97659    0.060
 5432.00    0.94224   0.97404    0.060
 5433.00    0.93692   0.97416    0.060
 5434.00    0.95690   0.97813    0.060
 5435.00    0.96387   0.97609    0.060
 5436.00    0.96104   0.97442    0.060
 5437.00    0.94754   0.97862    0.059
 5438.00    0.92699   0.97876    0.058
 5439.00    0.92468   0.97606    0.058
 5440.00    0.93294   0.97739    0.058
 5441.00    0.94308   0.97882    0.058
 5442.00    0.95416   0.97595    0.058
 5443.00    0.94471   0.97460    0.058
 5444.00    0.92631   0.97712    0.058
 5445.00    0.92883   0.97578    0.058
 5446.00    0.93922   0.97316    0.058
 5447.00    0.94109   0.97385    0.058
 5448.00    0.94025   0.97217    0.058
 5449.00    0.94203   0.96921    0.058
 5450.00    0.94450   0.96954    0.057
 5451.00    0.93854   0.96815    0.057
 5452.00    0.93075   0.96409    0.057
 5453.00    0.91981   0.96436    0.057
 5454.00    0.90833   0.96654    0.057
 5455.00    0.90652   0.96370    0.057
 5456.00    0.90598   0.96125    0.057
 5457.00    0.92740   0.96400    0.058
 5458.00    0.95085   0.96300    0.058
 5459.00    0.94810   0.95800    0.058
 5460.00    0.94388   0.96028    0.058
 5461.00    0.93005   0.96285    0.058
 5462.00    0.91618   0.95717    0.058
 5463.00    0.92130   0.95574    0.058
 5464.00    0.92693   0.96125    0.058
 5465.00    0.94450   0.95918    0.058
 5466.00    0.96045   0.95225    0.059
 5467.00    0.95580   0.95538    0.059
 5468.00    0.95196   0.95858    0.058
 5469.00    0.95529   0.94995    0.058
 5470.00    0.95854   0.94842    0.059
 5471.00    0.96136   0.95593    0.059
 5472.00    0.95958   0.95061    0.059
 5473.00    0.93477   0.94296    0.059
 5474.00    0.91144   0.94958    0.059
 5475.00    0.89410   0.95273    0.059
 5476.00    0.88781   0.94426    0.060
 5477.00    0.91873   0.94430    0.060
 5478.00    0.94309   0.95193   -2.000
 5479.00    0.94886   0.94763   -2.000
 5480.00    0.95008   0.94360   -2.000
 5481.00    0.94024   0.95226   -2.000
 5482.00    0.93182   0.95345   -2.000
 5483.00    0.92636   0.94586   -2.000
 5484.00    0.90393   0.95034   -2.000
 5485.00    0.85059   0.95832   -2.000
 5486.00    0.81719   0.95329   -2.000
 5487.00    0.81552   0.95112   -2.000
 5488.00    0.82857   0.95917   -2.000
 5489.00    0.86216   0.95833   -2.000
 5490.00    0.88434   0.95318   -2.000
 5491.00    0.89249   0.95898   -2.000
 5492.00    0.90775   0.96175   -2.000
 5493.00    0.93072   0.95448   -2.000
 5494.00    0.94209   0.95523   -2.000
 5495.00    0.94237   0.96120   -2.000
 5496.00    0.94489   0.95708   -2.000
 5497.00    0.94931   0.95324   -2.000
 5498.00    0.94546   0.95672   -2.000
 5499.00    0.93549   0.95537   -2.000
 5500.00    0.91487   0.95150   -2.000
 5501.00    0.88731   0.95341   -2.000
 5502.00    0.88215   0.95280    0.172
 5503.00    0.88978   0.94887    0.067
 5504.00    0.90879   0.95010    0.056
 5505.00    0.93347   0.95116    0.057
 5506.00    0.93608   0.94883    0.057
 5507.00    0.92921   0.94874    0.056
 5508.00    0.92490   0.94913    0.056
 5509.00    0.92155   0.94767    0.057
 5510.00    0.91467   0.94850    0.057
 5511.00    0.90669   0.95079    0.057
 5512.00    0.89546   0.94969    0.057
 5513.00    0.88337   0.94916    0.057
 5514.00    0.88342   0.95222    0.057
 5515.00    0.88605   0.95328    0.057
 5516.00    0.91080   0.95273    0.058
 5517.00    0.93926   0.95372    0.058
 5518.00    0.93143   0.95468    0.058
 5519.00    0.91900   0.95539    0.058
 5520.00    0.91107   0.95571    0.058
 5521.00    0.90353   0.95583    0.058
 5522.00    0.88010   0.95735    0.057
 5523.00    0.85583   0.95748    0.057
 5524.00    0.85630   0.95548    0.056
 5525.00    0.85733   0.95674    0.056
 5526.00    0.86595   0.95949    0.056
 5527.00    0.87394   0.95783    0.056
 5528.00    0.86821   0.95625    0.056
 5529.00    0.86499   0.95936    0.057
 5530.00    0.89228   0.96010    0.057
 5531.00    0.91463   0.95696    0.057
 5532.00    0.89585   0.95897    0.056
 5533.00    0.87954   0.96238    0.055
 5534.00    0.87867   0.96019    0.056
 5535.00    0.88223   0.96006    0.056
 5536.00    0.90749   0.96444    0.056
 5537.00    0.92698   0.96587    0.055
 5538.00    0.92354   0.96429    0.055
 5539.00    0.92120   0.96548    0.062
 5540.00    0.92247   0.96839    0.145
 5541.00    0.92621   0.96834   -1.000
 5542.00    0.93682   0.96784   -1.000
 5543.00    0.93713   0.96994   -1.000
 5544.00    0.91286   0.97173   -1.000
 5545.00    0.89683   0.97114   -1.000
 5546.00    0.89778   0.97085   -1.000
 5547.00    0.90258   0.97259   -1.000
 5548.00    0.91427   0.97276   -1.000
 5549.00    0.92023   0.97053    0.280
 5550.00    0.91718   0.97040    0.079
 5551.00    0.91327   0.97116    0.055
 5552.00    0.90817   0.96945    0.055
 5553.00    0.90691   0.96806    0.055
 5554.00    0.91028   0.96803    0.056
 5555.00    0.91100   0.96641    0.056
 5556.00    0.90886   0.96445    0.056
 5557.00    0.90497   0.96418    0.055
 5558.00    0.89942   0.96169    0.055
 5559.00    0.90379   0.95870    0.055
 5560.00    0.91642   0.95958    0.056
 5561.00    0.91322   0.95763    0.056
 5562.00    0.89845   0.95318    0.056
 5563.00    0.89695   0.95439    0.056
 5564.00    0.90398   0.95504    0.056
 5565.00    0.90173   0.94929    0.056
 5566.00    0.89427   0.94836    0.056
 5567.00    0.88444   0.95268    0.056
 5568.00    0.87343   0.94797    0.055
 5569.00    0.87334   0.94308    0.055
 5570.00    0.87787   0.94857    0.055
 5571.00    0.88359   0.94814    0.055
 5572.00    0.88974   0.94107    0.056
 5573.00    0.87909   0.94340    0.055
 5574.00    0.86331   0.94652    0.055
 5575.00    0.87352   0.94018    0.055
 5576.00    0.89036   0.93822    0.055
 5577.00    0.90189   0.94214    0.055
 5578.00    0.91232   0.93836    0.055
 5579.00    0.90484   0.93362    0.055
 5580.00    0.89444   0.93566    0.054
 5581.00    0.89403   0.93482    0.054
 5582.00    0.89483   0.92977    0.055
 5583.00    0.90745   0.92822    0.054
 5584.00    0.92106   0.92796    0.054
 5585.00    0.90946   0.92534    0.054
 5586.00    0.89665   0.92361    0.054
 5587.00    0.88593   0.92254    0.054
 5588.00    0.87556   0.92129    0.054
 5589.00    0.88384   0.92092    0.054
 5590.00    0.89038   0.91898    0.055
 5591.00    0.86215   0.91796    0.055
 5592.00    0.83805   0.92030    0.054
 5593.00    0.86186   0.92022    0.055
 5594.00    0.88420   0.91782    0.057
 5595.00    0.89464   0.92020    0.057
 5596.00    0.90392   0.92376    0.057
 5597.00    0.90621   0.92216    0.057
 5598.00    0.90775   0.92247    0.057
 5599.00    0.90576   0.92721    0.057
 5600.00    0.90050   0.92827    0.057
 5601.00    0.88255   0.92730    0.057
 5602.00    0.86744   0.93165    0.057
 5603.00    0.86155   0.93510    0.057
 5604.00    0.86016   0.93265    0.056
 5605.00    0.87110   0.93373    0.056
 5606.00    0.88263   0.93835    0.056
 5607.00    0.89555   0.93793    0.056
 5608.00    0.90644   0.93646    0.055
 5609.00    0.91320   0.93971    0.055
 5610.00    0.91525   0.94084    0.056
 5611.00    0.90897   0.93701    0.057
 5612.00    0.89661   0.93760    0.058
 5613.00    0.87487   0.94014    0.059
 5614.00    0.85768   0.93723    0.059
 5615.00    0.84668   0.93556    0.058
 5616.00    0.84268   0.93745    0.057
 5617.00    0.84707   0.93655    0.054
 5618.00    0.85472   0.93443    0.053
 5619.00    0.86580   0.93540    0.053
 5620.00    0.87585   0.93493    0.052
 5621.00    0.88495   0.93240    0.053
 5622.00    0.89207   0.93337    0.053
 5623.00    0.89758   0.93429    0.053
 5624.00    0.89026   0.93302    0.053
 5625.00    0.87371   0.93395    0.052
 5626.00    0.86097   0.93478    0.052
 5627.00    0.85065   0.93327    0.052
 5628.00    0.86246   0.93381    0.052
 5629.00    0.88651   0.93543    0.052
 5630.00    0.90011   0.93373    0.052
 5631.00    0.90868   0.93327    0.053
 5632.00    0.90481   0.93554    0.052
 5633.00    0.89577   0.93448    0.052
 5634.00    0.88873   0.93286    0.052
 5635.00    0.88241   0.93498    0.052
 5636.00    0.88812   0.93512    0.053
 5637.00    0.89743   0.93202    0.053
 5638.00    0.89438   0.93278    0.053
 5639.00    0.88826   0.93446    0.052
 5640.00    0.88765   0.93171    0.053
 5641.00    0.88815   0.93100    0.054
 5642.00    0.88971   0.93357    0.054
 5643.00    0.89144   0.93199    0.053
 5644.00    0.89127   0.92888    0.053
 5645.00    0.89088   0.93122    0.053
 5646.00    0.90244   0.93207    0.053
 5647.00    0.91496   0.92723    0.053
 5648.00    0.91120   0.92713    0.053
 5649.00    0.90672   0.93087    0.053
 5650.00    0.90444   0.92754    0.054
 5651.00    0.90199   0.92316    0.054
 5652.00    0.89013   0.92686    0.054
 5653.00    0.87823   0.92772    0.053
 5654.00    0.86549   0.92101    0.053
 5655.00    0.85285   0.92123    0.053
 5656.00    0.84128   0.92620    0.052
 5657.00    0.83282   0.92232    0.052
 5658.00    0.84840   0.91815    0.052
 5659.00    0.86188   0.92308    0.053
 5660.00    0.86304   0.92459    0.052
 5661.00    0.86407   0.91963    0.051
 5662.00    0.86455   0.92161    0.051
 5663.00    0.86454   0.92643    0.051
 5664.00    0.86268   0.92379    0.051
 5665.00    0.86076   0.92284    0.051
 5666.00    0.85870   0.92819    0.051
 5667.00    0.85703   0.92923    0.051
 5668.00    0.85639   0.92722    0.051
 5669.00    0.85506   0.93076    0.051
 5670.00    0.85216   0.93378    0.051
 5671.00    0.85580   0.93149    0.051
 5672.00    0.87252   0.93251    0.051
 5673.00    0.89033   0.93654    0.052
 5674.00    0.91003   0.93577    0.052
 5675.00    0.91383   0.93426    0.053
 5676.00    0.89344   0.93687    0.053
 5677.00    0.87925   0.93771    0.054
 5678.00    0.87338   0.93509    0.054
 5679.00    0.86393   0.93550    0.054
 5680.00    0.85026   0.93726    0.054
 5681.00    0.84237   0.93586    0.053
 5682.00    0.84048   0.93436    0.053
 5683.00    0.85567   0.93473    0.053
 5684.00    0.88650   0.93458    0.053
 5685.00    0.90216   0.93348    0.053
 5686.00    0.90558   0.93303    0.053
 5687.00    0.89819   0.93228    0.053
 5688.00    0.88314   0.93210    0.052
 5689.00    0.87667   0.93212    0.052
 5690.00    0.87556   0.92992    0.052
 5691.00    0.88134   0.92870    0.052
 5692.00    0.89088   0.93001    0.052
 5693.00    0.89931   0.92890    0.052
 5694.00    0.90721   0.92510    0.052
 5695.00    0.90947   0.92536    0.052
 5696.00    0.90944   0.92665    0.052
 5697.00    0.90835   0.92217    0.053
 5698.00    0.90689   0.91927    0.053
 5699.00    0.89765   0.92173    0.052
 5700.00    0.88611   0.92023    0.052
 5701.00    0.87971   0.91495    0.052
 5702.00    0.87455   0.91566    0.051
 5703.00    0.87247   0.91789    0.051
 5704.00    0.87098   0.91369    0.051
 5705.00    0.86275   0.91154    0.051
 5706.00    0.85349   0.91522    0.051
 5707.00    0.86154   0.91498    0.051
 5708.00    0.87156   0.91201    0.051
 5709.00    0.87997   0.91483    0.051
 5710.00    0.88825   0.91832    0.051
 5711.00    0.88082   0.91726    0.051
 5712.00    0.87275   0.91825    0.051
 5713.00    0.87436   0.92254    0.051
 5714.00    0.87607   0.92423    0.051
 5715.00    0.87917   0.92492    0.051
 5716.00    0.88244   0.92811    0.051
 5717.00    0.88885   0.93137    0.051
 5718.00    0.89374   0.93332    0.052
 5719.00    0.88261   0.93525    0.052
 5720.00    0.87437   0.93719    0.052
 5721.00    0.88778   0.93957    0.052
 5722.00    0.90033   0.94170    0.052
 5723.00    0.90801   0.94196    0.053
 5724.00    0.91464   0.94328    0.053
 5725.00    0.91653   0.94618    0.053
 5726.00    0.91785   0.94655    0.053
 5727.00    0.91713   0.94552    0.052
 5728.00    0.91369   0.94733    0.052
 5729.00    0.90179   0.94906    0.052
 5730.00    0.89383   0.94730    0.052
 5731.00    0.89622   0.94716    0.052
 5732.00    0.89510   0.94921    0.051
 5733.00    0.88597   0.94870    0.051
 5734.00    0.88086   0.94722    0.051
 5735.00    0.88364   0.94798    0.051
 5736.00    0.88572   0.94844    0.051
 5737.00    0.88661   0.94689    0.051
 5738.00    0.89082   0.94664    0.051
 5739.00    0.90001   0.94703    0.051
 5740.00    0.90566   0.94608    0.000
 5741.00    0.90662   0.94542    0.000
 5742.00    0.90316   0.94536    0.000
 5743.00    0.89458   0.94423    0.000
 5744.00    0.89509   0.94288    0.000
 5745.00    0.90491   0.94295    0.000
 5746.00    0.90732   0.94245    0.000
 5747.00    0.90304   0.94106    0.000
 5748.00    0.89963   0.94059    0.000
 5749.00    0.89692   0.94042    0.000
 5750.00    0.90141   0.93900    0.000
 5751.00    0.91096   0.93764    0.000
 5752.00    0.91234   0.93779    0.000
 5753.00    0.90871   0.93782    0.000
 5754.00    0.89601   0.93694    0.000
 5755.00    0.87844   0.93634    0.000
 5756.00    0.87536   0.93666    0.000
 5757.00    0.87903   0.93638    0.000
 5758.00    0.87783   0.93530    0.000
 5759.00    0.87467   0.93525    0.000
 5760.00    0.87788   0.93628    0.000
 5761.00    0.88328   0.93623    0.000
 5762.00    0.89110   0.93535    0.000
 5763.00    0.89962   0.93569    0.000
 5764.00    0.88746   0.93615    0.000
 5765.00    0.87036   0.93521    0.000
 5766.00    0.89076   0.93421    0.000
 5767.00    0.91835   0.93464    0.000
 5768.00    0.92018   0.93467    0.000
 5769.00    0.91816   0.93315    0.000
 5770.00    0.90586   0.93164    0.000
 5771.00    0.89245   0.93134    0.000
 5772.00    0.90983   0.93067    0.000
 5773.00    0.92941   0.92805    0.000
 5774.00    0.93671   0.92636    0.000
 5775.00    0.94355   0.92653    0.000
 5776.00    0.94113   0.92492    0.000
 5777.00    0.93805   0.92142    0.000
 5778.00    0.91263   0.92089    0.000
 5779.00    0.88775   0.92149    0.000
 5780.00    0.87148   0.91871    0.000
 5781.00    0.85687   0.91682    0.000
 5782.00    0.85916   0.91825    0.000
 5783.00    0.86202   0.91797    0.000
 5784.00    0.86903   0.91589    0.000
 5785.00    0.87491   0.91720    0.000
 5786.00    0.87451   0.91892    0.000
 5787.00    0.87612   0.91807    0.000
 5788.00    0.88666   0.91912    0.000
 5789.00    0.89707   0.92147    0.000
 5790.00    0.90703   0.92190    0.000
 5791.00    0.90866   0.92333   -2.000
 5792.00    0.88482   0.92665   -2.000
 5793.00    0.86519   0.92723   -2.000
 5794.00    0.85648   0.92742   -2.000
 5795.00    0.84816   0.93111   -2.000
 5796.00    0.84069   0.93298   -2.000
 5797.00    0.84254   0.93214   -2.000
 5798.00    0.86244   0.93472   -2.000
 5799.00    0.87567   0.93828   -2.000
 5800.00    0.87766   0.93712   -2.000
 5801.00    0.87893   0.93634   -2.000
 5802.00    0.87916   0.93981   -2.000
 5803.00    0.88165   0.94121   -2.000
 5804.00    0.88709   0.93926   -2.000
 5805.00    0.89150   0.94021   -2.000
 5806.00    0.89475   0.94293   -2.000
 5807.00    0.89293   0.94199   -2.000
 5808.00    0.88599   0.94020   -2.000
 5809.00    0.88094   0.94190   -2.000
 5810.00    0.87758   0.94385   -2.000
 5811.00    0.87149   0.94248    0.000
 5812.00    0.86325   0.94155    0.000
 5813.00    0.85885   0.94350    0.000
 5814.00    0.85708   0.94448    0.000
 5815.00    0.86209   0.94292    0.000
 5816.00    0.87120   0.94296    0.000
 5817.00    0.87642   0.94547    0.000
 5818.00    0.87958   0.94569    0.000
 5819.00    0.87995   0.94401    0.000
 5820.00    0.87902   0.94484    0.000
 5821.00    0.88914   0.94730    0.000
 5822.00    0.90362   0.94689    0.000
 5823.00    0.89154   0.94549    0.000
 5824.00    0.87054   0.94709    0.000
 5825.00    0.88146   0.94868    0.000
 5826.00    0.90140   0.94723    0.000
 5827.00    0.90708   0.94614    0.000
 5828.00    0.90944   0.94832    0.000
 5829.00    0.90147   0.94908    0.000
 5830.00    0.89157   0.94664    0.000
 5831.00    0.88494   0.94613    0.000
 5832.00    0.87878   0.94802    0.000
 5833.00    0.86742   0.94728    0.000
 5834.00    0.85552   0.94447    0.000
 5835.00    0.85167   0.94483    0.000
 5836.00    0.84837   0.94584    0.000
 5837.00    0.85639   0.94333    0.000
 5838.00    0.86479   0.94071    0.000
 5839.00    0.88271   0.94122    0.000
 5840.00    0.90003   0.94087    0.000
 5841.00    0.89841   0.93741    0.000
 5842.00    0.89697   0.93513    0.000
 5843.00    0.89811   0.93492    0.000
 5844.00    0.89748   0.93308    0.000
 5845.00    0.87975   0.92929    0.000
 5846.00    0.86441   0.92749    0.000
 5847.00    0.86586   0.92694    0.000
 5848.00    0.86790   0.92409    0.000
 5849.00    0.87310   0.92018    0.000
 5850.00    0.87535   0.91873    0.000
 5851.00    0.86482   0.91809    0.000
 5852.00    0.85693   0.91510    0.000
 5853.00    0.85845   0.91263    0.000
 5854.00    0.86030   0.91214    0.000
 5855.00    0.86312   0.91102    0.000
 5856.00    0.86274   0.90852    0.000
 5857.00    0.85416   0.90775    0.000
 5858.00    0.85006   0.90789    0.000
 5859.00    0.85579   0.90695    0.000
 5860.00    0.85928   0.90649    0.000
 5861.00    0.85851   0.90641    0.000
 5862.00    0.86478   0.90604    0.000
 5863.00    0.88273   0.90598    0.000
 5864.00    0.88727   0.90673    0.000
 5865.00    0.87228   0.90603    0.000
 5866.00    0.86244   0.90545    0.000
 5867.00    0.85920   0.90636    0.000
 5868.00    0.86091   0.90560    0.000
 5869.00    0.86819   0.90357    0.000
 5870.00    0.87084   0.90315    0.000
 5871.00    0.86887   0.90308    0.000
 5872.00    0.86364   0.90022    0.000
 5873.00    0.85554   0.89755    0.000
 5874.00    0.85847   0.89564    0.000
 5875.00    0.86995   0.89167    0.000
 5876.00    0.87378   0.88751    0.000
 5877.00    0.87241   0.88445    0.000
 5878.00    0.86916   0.88041    0.000
 5879.00    0.86478   0.87537    0.000
 5880.00    0.86132   0.87036    0.000
 5881.00    0.85834   0.86325    0.000
 5882.00    0.85866   0.85661    0.000
 5883.00    0.86047   0.85367    0.000
 5884.00    0.85554   0.84892    0.000
 5885.00    0.84801   0.84100    0.000
 5886.00    0.83575   0.83688    0.000
 5887.00    0.82194   0.83421    0.000
 5888.00    0.81444   0.82640    0.000
 5889.00    0.80868   0.82208    0.000
 5890.00    0.79899   0.82509    0.000
 5891.00    0.78840   0.82261    0.000
 5892.00    0.78568   0.81553    0.000
 5893.00    0.78439   0.81740    0.000
 5894.00    0.78085   0.82211    0.000
 5895.00    0.77699   0.81919    0.000
 5896.00    0.78404   0.82054    0.000
 5897.00    0.79220   0.82966    0.000
 5898.00    0.80600   0.83100    0.000
 5899.00    0.82017   0.82759    0.000
 5900.00    0.83919   0.83488    0.000
 5901.00    0.85828   0.84415    0.050
 5902.00    0.84926   0.84465    0.050
 5903.00    0.84017   0.84786    0.050
 5904.00    0.82881   0.85712    0.049
 5905.00    0.81876   0.85969    0.048
 5906.00    0.82712   0.85832    0.048
 5907.00    0.83567   0.86480    0.048
 5908.00    0.84587   0.87169    0.048
 5909.00    0.85352   0.87188    0.048
 5910.00    0.84380   0.87302    0.047
 5911.00    0.83633   0.87818    0.047
 5912.00    0.84069   0.88039    0.047
 5913.00    0.84608   0.87969    0.047
 5914.00    0.85578   0.88170    0.047
 5915.00    0.86451   0.88454    0.047
 5916.00    0.86982   0.88519    0.047
 5917.00    0.87173   0.88509    0.047
 5918.00    0.86366   0.88633    0.046
 5919.00    0.85585   0.88742    0.046
 5920.00    0.84866   0.88799    0.047
 5921.00    0.84334   0.88825    0.047
 5922.00    0.84203   0.88812    0.047
 5923.00    0.84229   0.88909    0.047
 5924.00    0.84548   0.89033    0.047
 5925.00    0.84847   0.88983    0.047
 5926.00    0.85113   0.88851    0.048
 5927.00    0.84885   0.88989    0.048
 5928.00    0.83947   0.89173    0.048
 5929.00    0.83015   0.89024    0.048
 5930.00    0.82089   0.88921    0.048
 5931.00    0.81931   0.89172    0.048
 5932.00    0.82625   0.89245    0.049
 5933.00    0.83811   0.88903    0.049
 5934.00    0.85479   0.88899    0.049
 5935.00    0.86029   0.89292    0.049
 5936.00    0.85610   0.89246    0.048
 5937.00    0.85044   0.88866    0.048
 5938.00    0.84364   0.88993    0.048
 5939.00    0.83493   0.89322    0.048
 5940.00    0.82493   0.89042    0.047
 5941.00    0.82145   0.88750    0.047
 5942.00    0.82180   0.89106    0.047
 5943.00    0.83261   0.89317    0.047
 5944.00    0.84878   0.88862    0.048
 5945.00    0.85603   0.88686    0.048
 5946.00    0.85932   0.89123    0.047
 5947.00    0.85259   0.89172    0.047
 5948.00    0.84205   0.88746    0.046
 5949.00    0.83640   0.88804    0.046
 5950.00    0.83233   0.89187    0.046
 5951.00    0.83763   0.89017    0.046
 5952.00    0.84548   0.88704    0.046
 5953.00    0.85059   0.88975    0.047
 5954.00    0.85509   0.89281    0.047
 5955.00    0.86074   0.89056    0.047
 5956.00    0.86660   0.88926    0.047
 5957.00    0.85887   0.89219    0.047
 5958.00    0.84931   0.89341    0.046
 5959.00    0.84497   0.89197    0.047
 5960.00    0.84113   0.89246    0.047
 5961.00    0.84630   0.89446    0.048
 5962.00    0.85200   0.89458    0.048
 5963.00    0.85998   0.89428    0.048
 5964.00    0.86802   0.89491    0.048
 5965.00    0.87681   0.89548    0.048
 5966.00    0.88533   0.89565    0.048
 5967.00    0.88685   0.89567    0.048
 5968.00    0.88763   0.89494    0.048
 5969.00    0.87839   0.89435    0.048
 5970.00    0.86976   0.89509    0.047
 5971.00    0.86658   0.89481    0.048
 5972.00    0.86435   0.89323    0.048
 5973.00    0.86843   0.89288    0.047
 5974.00    0.87077   0.89366    0.047
 5975.00    0.86422   0.89202    0.047
 5976.00    0.85892   0.88945    0.046
 5977.00    0.85879   0.89004    0.046
 5978.00    0.85850   0.89109    0.045
 5979.00    0.85769   0.88864    0.045
 5980.00    0.85554   0.88658    0.045
 5981.00    0.84951   0.88830    0.046
 5982.00    0.84514   0.88874    0.046
 5983.00    0.84484   0.88559    0.046
 5984.00    0.84604   0.88487    0.046
 5985.00    0.85041   0.88775    0.047
 5986.00    0.85468   0.88714    0.047
 5987.00    0.85878   0.88375    0.047
 5988.00    0.85795   0.88456    0.046
 5989.00    0.84916   0.88707    0.046
 5990.00    0.84697   0.88517    0.046
 5991.00    0.85413   0.88312    0.047
 5992.00    0.86014   0.88539    0.047
 5993.00    0.86470   0.88648    0.048
 5994.00    0.86618   0.88325    0.048
 5995.00    0.86427   0.88203    0.048
 5996.00    0.85986   0.88441    0.047
 5997.00    0.85304   0.88408    0.047
 5998.00    0.84825   0.88157    0.047
 5999.00    0.84518   0.88157    0.047
 6000.00    0.83898   0.88163    0.047
 6001.00    0.83042   0.87955    0.047
 6002.00    0.82884   0.87903    0.047
 6003.00    0.83185   0.88036    0.047
 6004.00    0.83437   0.87906    0.046
 6005.00    0.83661   0.87612    0.046
 6006.00    0.83738   0.87670    0.046
 6007.00    0.83741   0.87779    0.046
 6008.00    0.84403   0.87525    0.046
 6009.00    0.85353   0.87417    0.046
 6010.00    0.85433   0.87671    0.046
 6011.00    0.85187   0.87576    0.046
 6012.00    0.84134   0.87212    0.046
 6013.00    0.82824   0.87391    0.046
 6014.00    0.82931   0.87764    0.046
 6015.00    0.83413   0.87538    0.047
 6016.00    0.84124   0.87236    0.047
 6017.00    0.84884   0.87633    0.047
 6018.00    0.85030   0.87929    0.047
 6019.00    0.85071   0.87592    0.047
 6020.00    0.84948   0.87590    0.047
 6021.00    0.84804   0.88142    0.047
 6022.00    0.84261   0.88229    0.051
 6023.00    0.83680   0.87906    0.056
 6024.00    0.84404   0.88186    0.056
 6025.00    0.85201   0.88698    0.057
 6026.00    0.85926   0.88623    0.057
 6027.00    0.86643   0.88484    0.056
 6028.00    0.86671   0.88911    0.051
 6029.00    0.86665   0.89229    0.048
 6030.00    0.85862   0.89055    0.047
 6031.00    0.85071   0.89138    0.047
 6032.00    0.84428   0.89552    0.047
 6033.00    0.83897   0.89647    0.047
 6034.00    0.84336   0.89488    0.046
 6035.00    0.84692   0.89694    0.046
 6036.00    0.84523   0.89989    0.046
 6037.00    0.84186   0.89923    0.045
 6038.00    0.83011   0.89856    0.045
 6039.00    0.81963   0.90074    0.045
 6040.00    0.81425   0.90190    0.045
 6041.00    0.81277   0.90036    0.045
 6042.00    0.82440   0.90064    0.045
 6043.00    0.83471   0.90242    0.045
 6044.00    0.84129   0.90196    0.045
 6045.00    0.84429   0.90016    0.045
 6046.00    0.83863   0.90088    0.046
 6047.00    0.83588   0.90197    0.046
 6048.00    0.83924   0.90048    0.046
 6049.00    0.84351   0.89917    0.046
 6050.00    0.84942   0.89984    0.046
 6051.00    0.85337   0.90003    0.046
 6052.00    0.85418   0.89832    0.046
 6053.00    0.85337   0.89737    0.047
 6054.00    0.85031   0.89784    0.047
 6055.00    0.85108   0.89780    0.047
 6056.00    0.85655   0.89633    0.047
 6057.00    0.85589   0.89511    0.048
 6058.00    0.84859   0.89560    0.048
 6059.00    0.84047   0.89614    0.047
 6060.00    0.83155   0.89507    0.047
 6061.00    0.83140   0.89412    0.047
 6062.00    0.83861   0.89487    0.046
 6063.00    0.84347   0.89541    0.046
 6064.00    0.84658   0.89422    0.047
 6065.00    0.84786   0.89371    0.046
 6066.00    0.84795   0.89468    0.046
 6067.00    0.85290   0.89477    0.045
 6068.00    0.86060   0.89353    0.045
 6069.00    0.86053   0.89324    0.045
 6070.00    0.85660   0.89356    0.044
 6071.00    0.85175   0.89324    0.044
 6072.00    0.84649   0.89323    0.045
 6073.00    0.84667   0.89231    0.045
 6074.00    0.84884   0.89062    0.045
 6075.00    0.85277   0.89053    0.044
 6076.00    0.85725   0.89130    0.044
 6077.00    0.85949   0.88902    0.045
 6078.00    0.86115   0.88643    0.045
 6079.00    0.86209   0.88742    0.045
 6080.00    0.86288   0.88795    0.046
 6081.00    0.86259   0.88420    0.046
 6082.00    0.86212   0.88203    0.046
 6083.00    0.85025   0.88453    0.046
 6084.00    0.83694   0.88402    0.047
 6085.00    0.83015   0.87957    0.047
 6086.00    0.82394   0.87897    0.047
 6087.00    0.83676   0.88185    0.047
 6088.00    0.85056   0.88042    0.047
 6089.00    0.85205   0.87684    0.047
 6090.00    0.85317   0.87699    0.046
 6091.00    0.84328   0.87879    0.046
 6092.00    0.83396   0.87775    0.047
 6093.00    0.83670   0.87581    0.046
 6094.00    0.83936   0.87580    0.046
 6095.00    0.84114   0.87601    0.046
 6096.00    0.84229   0.87560    0.045
 6097.00    0.83821   0.87532    0.045
 6098.00    0.83351   0.87538    0.045
 6099.00    0.82495   0.87506    0.044
 6100.00    0.81648   0.87502    0.044
 6101.00    0.80838   0.87463    0.044
 6102.00    0.80154   0.87404    0.045
 6103.00    0.79972   0.87470    0.045
 6104.00    0.79957   0.87561    0.045
 6105.00    0.80490   0.87438    0.045
 6106.00    0.80931   0.87264    0.045
 6107.00    0.81114   0.87372    0.046
 6108.00    0.81451   0.87545    0.046
 6109.00    0.82150   0.87490    0.046
 6110.00    0.82838   0.87259    0.047
 6111.00    0.83501   0.87238    0.047
 6112.00    0.83782   0.87429    0.046
 6113.00    0.83380   0.87379    0.046
 6114.00    0.82908   0.87084    0.046
 6115.00    0.82327   0.87060    0.047
 6116.00    0.81684   0.87228    0.047
 6117.00    0.80958   0.87074    0.046
 6118.00    0.80267   0.86829    0.046
 6119.00    0.79617   0.86872    0.046
 6120.00    0.79389   0.86924    0.046
 6121.00    0.79612   0.86624    0.046
 6122.00    0.80506   0.86474    0.046
 6123.00    0.82031   0.86693    0.046
 6124.00    0.82994   0.86586    0.046
 6125.00    0.83488   0.86054    0.045
 6126.00    0.83603   0.86063    0.045
 6127.00    0.83441   0.86477    0.044
 6128.00    0.83762   0.86256    0.044
 6129.00    0.84392   0.85712    0.044
 6130.00    0.84805   0.85811    0.044
 6131.00    0.85095   0.86164    0.045
 6132.00    0.84356   0.85887    0.045
 6133.00    0.83113   0.85509    0.046
 6134.00    0.82166   0.85743    0.046
 6135.00    0.81343   0.85972    0.046
 6136.00    0.80799   0.85578    0.046
 6137.00    0.80355   0.85363    0.047
 6138.00    0.80248   0.85760    0.047
 6139.00    0.80243   0.85875    0.048
 6140.00    0.80309   0.85355    0.047
 6141.00    0.80393   0.85235    0.047
 6142.00    0.80902   0.85697    0.046
 6143.00    0.81499   0.85781    0.046
 6144.00    0.82731   0.85351    0.047
 6145.00    0.84065   0.85173    0.047
 6146.00    0.84178   0.85361    0.047
 6147.00    0.84142   0.85372    0.047
 6148.00    0.83794   0.85144    0.046
 6149.00    0.83419   0.84880    0.046
 6150.00    0.83372   0.84705    0.045
 6151.00    0.83339   0.84656    0.044
 6152.00    0.82991   0.84568    0.044
 6153.00    0.82623   0.84128    0.044
 6154.00    0.81416   0.83748    0.044
 6155.00    0.80248   0.83858    0.043
 6156.00    0.79833   0.83804    0.044
 6157.00    0.79439   0.83080    0.044
 6158.00    0.79286   0.82692    0.045
 6159.00    0.79235   0.83084    0.045
 6160.00    0.79996   0.82937    0.045
 6161.00    0.80653   0.82051    0.045
 6162.00    0.80680   0.81968    0.045
 6163.00    0.80614   0.82577    0.046
 6164.00    0.80104   0.82214    0.046
 6165.00    0.79507   0.81359    0.046
 6166.00    0.78572   0.81693    0.045
 6167.00    0.77936   0.82389    0.045
 6168.00    0.78266   0.81896    0.046
 6169.00    0.79118   0.81337    0.046
 6170.00    0.81396   0.82010    0.046
 6171.00    0.82804   0.82514    0.046
 6172.00    0.82178   0.81873    0.046
 6173.00    0.81843   0.81692    0.046
 6174.00    0.82097   0.82479    0.046
 6175.00    0.82376   0.82645    0.046
 6176.00    0.82700   0.82100    0.046
 6177.00    0.82656   0.82329    0.046
 6178.00    0.82045   0.82908    0.045
 6179.00    0.81165   0.82616    0.045
 6180.00    0.79920   0.82281    0.045
 6181.00    0.79421   0.82810    0.044
 6182.00    0.79811   0.83071    0.044
 6183.00    0.80574   0.82532    0.044
 6184.00    0.81728   0.82472    0.044
 6185.00    0.81728   0.83029    0.044
 6186.00    0.80656   0.82947    0.045
 6187.00    0.80132   0.82415    0.045
 6188.00    0.80058   0.82604    0.045
 6189.00    0.80480   0.83042    0.045
 6190.00    0.81259   0.82725    0.046
 6191.00    0.81896   0.82345    0.045
 6192.00    0.82442   0.82744    0.045
 6193.00    0.81781   0.83064    0.045
 6194.00    0.80453   0.82598    0.046
 6195.00    0.77216   0.82352    0.048
 6196.00    0.73063   0.82851   -2.000
 6197.00    0.72635   0.83060   -2.000
 6198.00    0.73752   0.82637   -2.000
 6199.00    0.74739   0.82488   -2.000
 6200.00    0.75680   0.82861   -2.000
 6201.00    0.77756   0.82947   -2.000
 6202.00    0.80171   0.82592   -2.000
 6203.00    0.80813   0.82435   -2.000
 6204.00    0.81015   0.82621   -2.000
 6205.00    0.81277   0.82649   -2.000
 6206.00    0.81550   0.82404   -2.000
 6207.00    0.81522   0.82213   -2.000
 6208.00    0.81447   0.82190    0.047
 6209.00    0.81717   0.82131    0.046
 6210.00    0.82027   0.81932    0.045
 6211.00    0.81585   0.81731    0.044
 6212.00    0.81084   0.81622    0.044
 6213.00    0.80207   0.81532    0.044
 6214.00    0.79312   0.81315    0.044
 6215.00    0.79551   0.81095    0.044
 6216.00    0.79823   0.81026    0.044
 6217.00    0.81071   0.80964    0.044
 6218.00    0.82241   0.80686    0.044
 6219.00    0.81986   0.80448    0.044
 6220.00    0.81746   0.80526    0.045
 6221.00    0.81653   0.80543    0.046
 6222.00    0.81696   0.80240    0.046
 6223.00    0.82785   0.80032    0.046
 6224.00    0.83445   0.80142    0.046
 6225.00    0.81593   0.80160    0.046
 6226.00    0.79905   0.79929    0.046
 6227.00    0.78981   0.79803    0.046
 6228.00    0.78149   0.79886    0.047
 6229.00    0.77671   0.79853    0.046
 6230.00    0.77364   0.79675    0.046
 6231.00    0.77603   0.79647    0.046
 6232.00    0.77999   0.79709    0.045
 6233.00    0.78821   0.79610    0.045
 6234.00    0.79620   0.79442    0.044
 6235.00    0.80366   0.79447    0.044
 6236.00    0.80831   0.79501    0.044
 6237.00    0.80738   0.79445    0.043
 6238.00    0.80759   0.79296    0.043
 6239.00    0.80979   0.79250    0.044
 6240.00    0.80833   0.79304    0.044
 6241.00    0.80129   0.79234    0.044
 6242.00    0.79988   0.79035    0.043
 6243.00    0.80599   0.79015    0.044
 6244.00    0.81341   0.79139    0.044
 6245.00    0.82239   0.79016    0.044
 6246.00    0.83008   0.78796    0.044
 6247.00    0.83645   0.78896    0.044
 6248.00    0.84202   0.79016    0.045
 6249.00    0.84686   0.78795    0.045
 6250.00    0.84192   0.78707    0.045
 6251.00    0.82911   0.78944    0.045
 6252.00    0.81527   0.78990    0.045
 6253.00    0.80072   0.78758    0.046
 6254.00    0.79732   0.78849    0.046
 6255.00    0.80086   0.79145    0.046
 6256.00    0.79688   0.79098    0.046
 6257.00    0.78882   0.78914    0.046
 6258.00    0.78102   0.79196    0.046
 6259.00    0.77335   0.79574    0.047
 6260.00    0.77079   0.79441    0.049
 6261.00    0.77032   0.79293    0.051
 6262.00    0.78177   0.79718    0.053
 6263.00    0.79736   0.80120    0.054
 6264.00    0.80250   0.79909    0.054
 6265.00    0.80457   0.79849    0.053
 6266.00    0.80475   0.80361    0.050
 6267.00    0.80448   0.80657    0.047
 6268.00    0.82061   0.80404    0.046
 6269.00    0.83997   0.80418    0.044
 6270.00    0.85144   0.80892    0.044
 6271.00    0.86171   0.81079    0.045
 6272.00    0.85179   0.80881    0.045
 6273.00    0.83960   0.80927    0.044
 6274.00    0.83494   0.81266    0.045
 6275.00    0.83084   0.81373    0.045
 6276.00    0.82684   0.81251    0.045
 6277.00    0.82286   0.81298    0.045
 6278.00    0.81635   0.81526    0.045
 6279.00    0.80976   0.81584    0.045
 6280.00    0.80026   0.81482    0.000
 6281.00    0.79130   0.81508    0.000
 6282.00    0.79145   0.81671    0.000
 6283.00    0.79216   0.81706    0.000
 6284.00    0.79881   0.81591    0.000
 6285.00    0.80603   0.81561    0.000
 6286.00    0.81761   0.81682    0.000
 6287.00    0.82710   0.81749    0.000
 6288.00    0.82469   0.81605    0.000
 6289.00    0.81998   0.81490    0.000
 6290.00    0.80487   0.81583    0.000
 6291.00    0.79335   0.81667    0.000
 6292.00    0.79515   0.81512    0.000
 6293.00    0.79896   0.81360    0.000
 6294.00    0.80902   0.81434    0.000
 6295.00    0.81516   0.81496    0.000
 6296.00    0.81092   0.81328    0.000
 6297.00    0.80907   0.81209    0.000
 6298.00    0.81265   0.81302    0.000
 6299.00    0.81710   0.81341    0.000
 6300.00    0.82327   0.81186    0.000
 6301.00    0.82385   0.81087    0.000
 6302.00    0.81487   0.81168    0.000
 6303.00    0.80639   0.81242    0.000
 6304.00    0.79866   0.81171    0.000
 6305.00    0.79671   0.81048    0.000
 6306.00    0.80239   0.81040    0.000
 6307.00    0.80923   0.81170    0.000
 6308.00    0.81743   0.81254    0.000
 6309.00    0.82062   0.81098    0.000
 6310.00    0.81870   0.80949    0.000
 6311.00    0.81591   0.81128    0.000
 6312.00    0.81233   0.81385    0.000
 6313.00    0.80716   0.81195    0.000
 6314.00    0.80074   0.80908    0.000
 6315.00    0.79851   0.81145    0.000
 6316.00    0.79920   0.81532    0.000
 6317.00    0.80092   0.81313    0.000
 6318.00    0.80327   0.80971    0.000
 6319.00    0.80789   0.81266    0.000
 6320.00    0.81372   0.81682    0.000
 6321.00    0.81959   0.81453    0.043
 6322.00    0.82548   0.81144    0.043
 6323.00    0.82617   0.81434    0.043
 6324.00    0.82479   0.81803    0.044
 6325.00    0.82178   0.81635    0.044
 6326.00    0.81822   0.81356    0.045
 6327.00    0.81826   0.81535    0.045
 6328.00    0.81934   0.81865    0.044
 6329.00    0.81752   0.81803    0.044
 6330.00    0.81501   0.81491    0.044
 6331.00    0.81647   0.81516    0.045
 6332.00    0.81868   0.81859    0.045
 6333.00    0.82088   0.81888    0.045
 6334.00    0.82307   0.81497    0.046
 6335.00    0.82373   0.81397    0.045
 6336.00    0.82422   0.81792    0.045
 6337.00    0.82592   0.81893    0.045
 6338.00    0.82771   0.81407    0.044
 6339.00    0.82715   0.81227    0.044
 6340.00    0.82650   0.81673    0.044
 6341.00    0.81925   0.81794    0.044
 6342.00    0.81223   0.81252    0.043
 6343.00    0.81450   0.81076    0.043
 6344.00    0.81727   0.81537    0.043
 6345.00    0.82786   0.81587    0.043
 6346.00    0.83757   0.81022    0.043
 6347.00    0.83841   0.80909    0.043
 6348.00    0.83880   0.81357    0.043
 6349.00    0.83585   0.81281    0.043
 6350.00    0.83408   0.80718    0.044
 6351.00    0.83890   0.80723    0.044
 6352.00    0.84205   0.81143    0.044
 6353.00    0.83781   0.80930    0.045
 6354.00    0.83166   0.80411    0.045
 6355.00    0.81854   0.80572    0.045
 6356.00    0.80696   0.80970    0.045
 6357.00    0.80006   0.80655    0.045
 6358.00    0.79398   0.80222    0.045
 6359.00    0.79000   0.80538    0.045
 6360.00    0.78600   0.80929    0.045
 6361.00    0.78197   0.80590    0.046
 6362.00    0.78003   0.80284    0.046
 6363.00    0.78212   0.80707    0.046
 6364.00    0.78553   0.81073    0.045
 6365.00    0.79116   0.80777    0.045
 6366.00    0.79788   0.80613    0.045
 6367.00    0.80618   0.81068    0.044
 6368.00    0.81519   0.81372    0.044
 6369.00    0.82512   0.81135    0.043
 6370.00    0.82971   0.81083    0.043
 6371.00    0.82821   0.81500    0.044
 6372.00    0.82906   0.81704    0.044
 6373.00    0.83227   0.81508    0.044
 6374.00    0.83175   0.81523    0.044
 6375.00    0.82790   0.81846    0.044
 6376.00    0.82320   0.81918    0.044
 6377.00    0.81781   0.81757    0.044
 6378.00    0.81483   0.81824    0.044
 6379.00    0.81350   0.82010    0.044
 6380.00    0.81755   0.81934    0.044
 6381.00    0.82484   0.81833    0.044
 6382.00    0.82466   0.81969    0.045
 6383.00    0.82053   0.81992    0.046
 6384.00    0.81390   0.81769    0.045
 6385.00    0.80613   0.81774    0.045
 6386.00    0.79893   0.81990    0.044
 6387.00    0.79195   0.81842    0.044
 6388.00    0.79144   0.81519    0.044
 6389.00    0.79310   0.81672    0.044
 6390.00    0.79436   0.81943    0.043
 6391.00    0.79551   0.81632    0.043
 6392.00    0.79498   0.81295    0.043
 6393.00    0.79407   0.81608    0.043
 6394.00    0.79580   0.81865    0.044
 6395.00    0.79802   0.81417    0.044
 6396.00    0.79588   0.81162    0.044
 6397.00    0.79311   0.81625    0.044
 6398.00    0.80468   0.81787    0.044
 6399.00    0.81776   0.81232    0.044
 6400.00    0.82924   0.81138    0.044
 6401.00    0.84061   0.81709    0.045
 6402.00    0.83917   0.81705    0.045
 6403.00    0.83730   0.81095    0.045
 6404.00    0.82266   0.81203    0.044
 6405.00    0.80849   0.81810    0.044
 6406.00    0.80895   0.81629    0.045
 6407.00    0.80993   0.81037    0.045
 6408.00    0.81866   0.81274    0.045
 6409.00    0.82576   0.81816    0.044
 6410.00    0.81702   0.81562    0.045
 6411.00    0.80955   0.81102    0.045
 6412.00    0.81095   0.81363    0.045
 6413.00    0.81338   0.81759    0.045
 6414.00    0.82132   0.81512    0.045
 6415.00    0.82616   0.81200    0.045
 6416.00    0.81764   0.81433    0.045
 6417.00    0.81036   0.81700    0.044
 6418.00    0.80748   0.81518    0.044
 6419.00    0.80560   0.81349    0.044
 6420.00    0.80668   0.81514    0.043
 6421.00    0.80644   0.81656    0.043
 6422.00    0.80285   0.81551    0.043
 6423.00    0.80167   0.81502    0.043
 6424.00    0.80577   0.81628    0.044
 6425.00    0.81052   0.81667    0.044
 6426.00    0.81651   0.81569    0.044
 6427.00    0.81731   0.81615    0.045
 6428.00    0.80951   0.81770    0.046
 6429.00    0.79970   0.81705    0.046
 6430.00    0.78697   0.81545    0.046
 6431.00    0.77795   0.81707    0.046
 6432.00    0.77368   0.81945    0.046
 6433.00    0.77839   0.81751    0.045
 6434.00    0.79323   0.81484    0.045
 6435.00    0.80422   0.81754    0.045
 6436.00    0.81138   0.82064    0.045
 6437.00    0.81655   0.81759    0.045
 6438.00    0.81997   0.81423    0.045
 6439.00    0.81834   0.81756    0.045
 6440.00    0.81282   0.82067    0.045
 6441.00    0.80923   0.81702    0.045
 6442.00    0.80694   0.81386    0.044
 6443.00    0.80557   0.81726    0.044
 6444.00    0.80473   0.81966    0.044
 6445.00    0.80060   0.81574    0.044
 6446.00    0.79478   0.81315    0.044
 6447.00    0.78886   0.81640    0.044
 6448.00    0.78291   0.81805    0.044
 6449.00    0.77999   0.81436    0.044
 6450.00    0.77825   0.81250    0.045
 6451.00    0.77116   0.81541    0.044
 6452.00    0.76232   0.81665    0.044
 6453.00    0.74479   0.81336    0.044
 6454.00    0.72487   0.81182    0.044
 6455.00    0.71683   0.81461    0.044
 6456.00    0.71149   0.81615    0.044
 6457.00    0.71035   0.81313    0.044
 6458.00    0.70998   0.81122    0.044
 6459.00    0.71881   0.81406    0.046
 6460.00    0.72891   0.81654    0.049
 6461.00    0.74309   0.81379    0.049
 6462.00    0.75767   0.81099    0.049
 6463.00    0.77454   0.81367    0.048
 6464.00    0.79155   0.81693    0.047
 6465.00    0.79185   0.81425    0.046
 6466.00    0.79169   0.81068    0.045
 6467.00    0.79718   0.81317    0.044
 6468.00    0.80268   0.81663    0.043
 6469.00    0.80895   0.81364    0.043
 6470.00    0.81456   0.80945    0.043
 6471.00    0.81081   0.81165    0.044
 6472.00    0.80762   0.81487    0.044
 6473.00    0.80957   0.81145    0.044
 6474.00    0.81065   0.80676    0.045
 6475.00    0.80581   0.80847    0.045
 6476.00    0.80024   0.81108    0.045
 6477.00    0.79084   0.80706    0.044
 6478.00    0.78315   0.80206    0.044
 6479.00    0.78267   0.80338    0.044
 6480.00    0.78473   0.80522    0.044
 6481.00    0.79560   0.80042    0.044
 6482.00    0.80495   0.79531    0.044
 6483.00    0.80986   0.79658    0.044
 6484.00    0.81405   0.79776    0.044
 6485.00    0.81645   0.79245    0.044
 6486.00    0.81954   0.78764    0.044
 6487.00    0.82413   0.78909    0.045
 6488.00    0.82593   0.78997    0.045
 6489.00    0.82251   0.78497    0.045
 6490.00    0.81705   0.78095    0.045
 6491.00    0.80824   0.78270    0.044
 6492.00    0.80301   0.78389    0.044
 6493.00    0.80291   0.78016    0.044
 6494.00    0.80005   0.77730    0.044
 6495.00    0.79371   0.77930    0.043
 6496.00    0.78637   0.78126    0.043
 6497.00    0.77795   0.77954    0.044
 6498.00    0.77406   0.77797    0.044
 6499.00    0.77461   0.77993    0.044
 6500.00    0.78164   0.78258    0.045
 6501.00    0.79425   0.78278    0.045
 6502.00    0.80767   0.78223    0.045
 6503.00    0.82171   0.78382    0.044
 6504.00    0.83175   0.78676    0.044
 6505.00    0.83912   0.78822    0.045
 6506.00    0.84009   0.78807    0.045
 6507.00    0.83731   0.78901    0.045
 6508.00    0.83725   0.79184    0.045
 6509.00    0.83859   0.79373    0.045
 6510.00    0.83726   0.79339    0.044
 6511.00    0.83474   0.79370    0.044
 6512.00    0.82943   0.79624    0.044
 6513.00    0.82306   0.79776    0.044
 6514.00    0.81886   0.79687    0.044
 6515.00    0.81537   0.79691    0.044
 6516.00    0.80784   0.79922    0.044
 6517.00    0.79922   0.80003    0.044
 6518.00    0.80050   0.79856    0.044
 6519.00    0.80397   0.79867    0.044
 6520.00    0.81085   0.80081    0.044
 6521.00    0.81833   0.80086    0.044
 6522.00    0.82211   0.79905    0.044
 6523.00    0.82539   0.79943    0.045
 6524.00    0.81902   0.80123    0.044
 6525.00    0.81173   0.80054    0.043
 6526.00    0.79542   0.79868    0.044
 6527.00    0.77857   0.79932    0.044
 6528.00    0.77471   0.80047    0.000
 6529.00    0.77130   0.79895    0.000
 6530.00    0.78632   0.79714    0.000
 6531.00    0.80130   0.79792    0.000
 6532.00    0.81567   0.79817    0.000
 6533.00    0.82930   0.79556    0.000
 6534.00    0.83328   0.79357    0.000
 6535.00    0.83602   0.79436    0.000
 6536.00    0.82774   0.79369    0.000
 6537.00    0.82216   0.78964    0.000
 6538.00    0.83429   0.78688    0.000
 6539.00    0.84462   0.78758    0.000
 6540.00    0.84568   0.78628    0.000
 6541.00    0.84505   0.78048    0.000
 6542.00    0.83744   0.77620    0.000
 6543.00    0.82947   0.77680    0.000
 6544.00    0.82030   0.77544    0.000
 6545.00    0.81406   0.76776    0.000
 6546.00    0.81624   0.76137    0.000
 6547.00    0.81907   0.76209    0.000
 6548.00    0.82344   0.76147    0.000
 6549.00    0.82508   0.75212    0.000
 6550.00    0.82091   0.74354    0.000
 6551.00    0.81822   0.74495    0.000
 6552.00    0.81827   0.74598    0.000
 6553.00    0.81833   0.73567    0.000
 6554.00    0.81839   0.72558    0.000
 6555.00    0.81757   0.72846    0.000
 6556.00    0.81548   0.73191    0.000
 6557.00    0.81486   0.72186    0.000
 6558.00    0.81606   0.71170    0.000
 6559.00    0.82002   0.71661    0.000
 6560.00    0.82702   0.72268    0.000
 6561.00    0.83150   0.71430    0.000
 6562.00    0.83355   0.70579    0.000
 6563.00    0.83678   0.71265    0.000
 6564.00    0.84099   0.72061    0.000
 6565.00    0.83765   0.71494    0.000
 6566.00    0.82865   0.70939    0.000
 6567.00    0.81514   0.71733    0.000
 6568.00    0.79867   0.72570    0.000
 6569.00    0.79131   0.72291    0.000
 6570.00    0.78922   0.72069    0.000
 6571.00    0.78474   0.72844    0.000
 6572.00    0.77907   0.73557    0.000
 6573.00    0.78429   0.73501    0.000
 6574.00    0.79426   0.73558    0.000
 6575.00    0.80144   0.74204    0.000
 6576.00    0.80758   0.74677    0.000
 6577.00    0.81105   0.74735    0.000
 6578.00    0.81368   0.74976    0.000
 6579.00    0.82812   0.75447    0.000
 6580.00    0.84569   0.75644    0.000
 6581.00    0.85265   0.75717    0.000
 6582.00    0.85732   0.76054    0.000
 6583.00    0.85840   0.76366    0.000
 6584.00    0.85888   0.76318    0.000
 6585.00    0.85868   0.76348    0.000
 6586.00    0.85839   0.76727    0.000
 6587.00    0.85189   0.76932    0.000
 6588.00    0.84481   0.76709    0.000
 6589.00    0.82809   0.76685    0.000
 6590.00    0.81083   0.77081    0.000
 6591.00    0.81508   0.77235    0.000
 6592.00    0.81975   0.76918    0.000
 6593.00    0.82068   0.76854    0.000
 6594.00    0.82108   0.77256    0.000
 6595.00    0.80918   0.77397    0.000
 6596.00    0.79844   0.77047    0.000
 6597.00    0.80246   0.76967    0.000
 6598.00    0.80643   0.77373    0.000
 6599.00    0.81005   0.77516    0.000
 6600.00    0.81174   0.77164    0.000
 6601.00    0.80122   0.77086    0.000
 6602.00    0.79340   0.77497    0.000
 6603.00    0.79901   0.77640    0.000
 6604.00    0.80278   0.77292    0.000
 6605.00    0.79916   0.77220    0.000
 6606.00    0.79592   0.77632    0.000
 6607.00    0.79396   0.77768    0.000
 6608.00    0.79395   0.77420    0.000
 6609.00    0.79941   0.77349    0.045
 6610.00    0.80517   0.77744    0.045
 6611.00    0.81166   0.77859    0.045
 6612.00    0.81639   0.77514    0.045
 6613.00    0.81744   0.77436    0.045
 6614.00    0.81904   0.77783    0.045
 6615.00    0.82165   0.77861    0.045
 6616.00    0.82128   0.77530    0.045
 6617.00    0.81617   0.77440    0.044
 6618.00    0.80970   0.77710    0.043
 6619.00    0.80135   0.77740    0.043
 6620.00    0.79830   0.77440    0.043
 6621.00    0.80174   0.77342    0.043
 6622.00    0.80392   0.77515    0.044
 6623.00    0.80476   0.77502    0.045
 6624.00    0.80430   0.77260    0.045
 6625.00    0.80261   0.77163    0.045
 6626.00    0.79952   0.77232    0.045
 6627.00    0.79526   0.77193    0.045
 6628.00    0.79319   0.77045    0.046
 6629.00    0.79275   0.76967    0.046
 6630.00    0.79176   0.76930    0.046
 6631.00    0.79041   0.76874    0.045
 6632.00    0.79157   0.76852    0.045
 6633.00    0.79416   0.76819    0.046
 6634.00    0.80048   0.76677    0.046
 6635.00    0.80865   0.76597    0.045
 6636.00    0.80965   0.76708    0.045
 6637.00    0.80757   0.76740    0.046
 6638.00    0.80642   0.76508    0.046
 6639.00    0.80560   0.76386    0.045
 6640.00    0.81312   0.76596    0.045
 6641.00    0.82323   0.76699    0.046
 6642.00    0.82950   0.76408    0.046
 6643.00    0.83479   0.76232    0.046
 6644.00    0.82271   0.76484    0.046
 6645.00    0.80696   0.76636    0.045
 6646.00    0.79855   0.76326    0.045
 6647.00    0.79136   0.76106    0.045
 6648.00    0.79347   0.76345    0.045
 6649.00    0.79675   0.76510    0.046
 6650.00    0.79785   0.76211    0.045
 6651.00    0.79876   0.75974    0.045
 6652.00    0.79984   0.76170    0.046
 6653.00    0.80093   0.76315    0.046
 6654.00    0.80775   0.76046    0.047
 6655.00    0.81447   0.75823    0.047
 6656.00    0.80759   0.75969    0.046
 6657.00    0.80098   0.76075    0.046
 6658.00    0.80002   0.75854    0.046
 6659.00    0.79849   0.75674    0.046
 6660.00    0.79015   0.75766    0.045
 6661.00    0.78310   0.75822    0.045
 6662.00    0.78665   0.75670    0.045
 6663.00    0.78970   0.75558    0.044
 6664.00    0.78964   0.75587    0.045
 6665.00    0.78845   0.75582    0.045
 6666.00    0.78179   0.75517    0.045
 6667.00    0.77592   0.75493    0.045
 6668.00    0.77317   0.75451    0.044
 6669.00    0.77192   0.75369    0.044
 6670.00    0.77555   0.75388    0.045
 6671.00    0.78008   0.75462    0.045
 6672.00    0.78707   0.75363    0.046
 6673.00    0.79229   0.75202    0.046
 6674.00    0.79329   0.75274    0.046
 6675.00    0.79345   0.75430    0.046
 6676.00    0.79192   0.75313    0.046
 6677.00    0.79075   0.75101    0.046
 6678.00    0.79024   0.75177    0.046
 6679.00    0.78882   0.75367    0.046
 6680.00    0.78602   0.75279    0.046
 6681.00    0.78791   0.75071    0.046
 6682.00    0.79625   0.75110    0.046
 6683.00    0.79937   0.75270    0.046
 6684.00    0.79617   0.75232    0.046
 6685.00    0.79174   0.75080    0.046
 6686.00    0.78599   0.75068    0.045
 6687.00    0.77867   0.75151    0.044
 6688.00    0.76989   0.75152    0.044
 6689.00    0.76576   0.75078    0.045
 6690.00    0.76549   0.75027    0.045
 6691.00    0.77224   0.75013    0.045
 6692.00    0.78411   0.75022    0.045
 6693.00    0.79474   0.75015    0.046
 6694.00    0.80457   0.74953    0.046
 6695.00    0.80469   0.74864    0.046
 6696.00    0.79938   0.74842    0.000
 6697.00    0.79813   0.74861    0.000
 6698.00    0.79885   0.74819    0.000
 6699.00    0.79672   0.74695    0.000
 6700.00    0.79339   0.74611    0.000
 6701.00    0.78422   0.74615    0.000
 6702.00    0.77295   0.74618    0.000
 6703.00    0.77175   0.74500    0.000
 6704.00    0.77362   0.74334    0.000
 6705.00    0.77288   0.74290    0.000
 6706.00    0.77149   0.74360    0.000
 6707.00    0.77537   0.74290    0.000
 6708.00    0.78034   0.74046    0.000
 6709.00    0.77908   0.73934    0.000
 6710.00    0.77681   0.74076    0.000
 6711.00    0.77656   0.74089    0.000
 6712.00    0.77655   0.73798    0.000
 6713.00    0.78832   0.73618    0.000
 6714.00    0.80107   0.73815    0.000
 6715.00    0.81103   0.73928    0.000
 6716.00    0.82085   0.73640    0.000
 6717.00    0.81333   0.73408    0.000
 6718.00    0.80538   0.73626    0.000
 6719.00    0.78666   0.73831    0.000
 6720.00    0.76901   0.73594    0.000
 6721.00    0.77204   0.73333    0.000
 6722.00    0.77471   0.73526    0.000
 6723.00    0.77316   0.73790    0.000
 6724.00    0.77091   0.73633    0.000
 6725.00    0.76308   0.73357    0.000
 6726.00    0.75700   0.73479    0.000
 6727.00    0.76143   0.73764    0.000
 6728.00    0.76744   0.73695    0.000
 6729.00    0.78096   0.73413    0.000
 6730.00    0.79300   0.73438    0.000
 6731.00    0.79936   0.73701    0.000
 6732.00    0.80303   0.73709    0.000
 6733.00    0.79805   0.73440    0.000
 6734.00    0.78921   0.73372    0.000
 6735.00    0.76988   0.73585    0.000
 6736.00    0.75661   0.73639    0.000
 6737.00    0.75753   0.73406    0.000
 6738.00    0.75899   0.73293    0.000
 6739.00    0.76155   0.73441    0.000
 6740.00    0.76795   0.73503    0.000
 6741.00    0.78113   0.73329    0.000
 6742.00    0.78361   0.73229    0.000
 6743.00    0.76962   0.73324    0.000
 6744.00    0.76097   0.73369    0.000
 6745.00    0.75954   0.73268    0.000
 6746.00    0.76077   0.73214    0.000
 6747.00    0.76517   0.73279    0.000
 6748.00    0.76388   0.73313    0.000
 6749.00    0.75663   0.73262    0.000
 6750.00    0.75042   0.73255    0.000
 6751.00    0.74519   0.73326    0.000
 6752.00    0.75553   0.73363    0.000
 6753.00    0.77859   0.73326    0.049
 6754.00    0.77957   0.73335    0.050
 6755.00    0.76469   0.73427    0.051
 6756.00    0.74842   0.73495    0.051
 6757.00    0.73128   0.73454    0.051
 6758.00    0.71957   0.73425    0.052
 6759.00    0.71085   0.73524    0.052
 6760.00    0.76079   0.73644    0.054
 6761.00    0.83884   0.73606    0.056
 6762.00    0.88236   0.73516    0.058
 6763.00    0.91160   0.73592    0.059
 6764.00    0.91012   0.73746    0.059
 6765.00    0.89777   0.73727    0.059
 6766.00    0.89240   0.73599    0.058
 6767.00    0.88911   0.73629    0.058
 6768.00    0.89725   0.73774    0.057
 6769.00    0.90822   0.73779    0.056
 6770.00    0.89640   0.73649    0.055
 6771.00    0.88001   0.73632    0.054
 6772.00    0.86499   0.73734    0.053
 6773.00    0.85017   0.73746    0.051
 6774.00    0.82328   0.73641    0.050
 6775.00    0.79497   0.73593    0.049
 6776.00    0.78297   0.73633    0.050
 6777.00    0.77226   0.73631    0.050
 6778.00    0.79537   0.73567    0.051
 6779.00    0.81997   0.73523    0.052
 6780.00    0.82392   0.73501    0.053
 6781.00    0.82734   0.73463    0.053
 6782.00    0.81549   0.73445    0.053
 6783.00    0.80486   0.73432    0.052
 6784.00    0.81640   0.73369    0.053
 6785.00    0.82727   0.73295    0.054
 6786.00    0.83073   0.73308    0.054
 6787.00    0.83264   0.73333    0.054
 6788.00    0.82258   0.73273    0.054
 6789.00    0.81451   0.73179    0.054
 6790.00    0.81794   0.73194    0.054
 6791.00    0.82075   0.73257    0.054
 6792.00    0.82069   0.73235    0.054
 6793.00    0.82133   0.73136    0.054
 6794.00    0.82460   0.73125    0.054
 6795.00    0.82426   0.73217    0.053
 6796.00    0.81254   0.73251    0.052
 6797.00    0.80781   0.73148    0.051
 6798.00    0.82184   0.73095    0.051
 6799.00    0.82998   0.73211    0.051
 6800.00    0.82459   0.73299    0.051
 6801.00    0.81472   0.73186    0.051
 6802.00    0.79594   0.73086    0.051
 6803.00    0.78472   0.73216    0.051
 6804.00    0.78659   0.73355    0.052
 6805.00    0.78536   0.73242    0.052
 6806.00    0.77941   0.73092    0.053
 6807.00    0.77089   0.73205    0.053
 6808.00    0.75896   0.73393    0.053
 6809.00    0.76145   0.73321    0.053
 6810.00    0.78086   0.73123    0.053
 6811.00    0.78344   0.73170    0.053
 6812.00    0.76859   0.73389    0.054
 6813.00    0.77059   0.73405    0.055
 6814.00    0.78798   0.73197    0.056
 6815.00    0.78846   0.73137    0.056
 6816.00    0.77532   0.73335    0.054
 6817.00    0.77698   0.73457    0.053
 6818.00    0.78910   0.73289    0.052
 6819.00    0.79981   0.73120    0.051
 6820.00    0.80963   0.73243    0.050
 6821.00    0.80796   0.73442    0.050
 6822.00    0.80005   0.73354    0.051
 6823.00    0.80223   0.73106    0.051
 6824.00    0.80918   0.73111    0.051
 6825.00    0.81050   0.73328    0.051
 6826.00    0.80952   0.73342    0.052
 6827.00    0.80337   0.73089    0.053
 6828.00    0.79542   0.72968    0.053
 6829.00    0.79036   0.73123    0.054
 6830.00    0.78616   0.73213    0.054
 6831.00    0.79507   0.73025    0.055
 6832.00    0.80715   0.72823    0.055
 6833.00    0.80171   0.72869    0.055
 6834.00    0.79284   0.72983    0.054
 6835.00    0.78029   0.72900    0.054
 6836.00    0.76718   0.72687    0.055
 6837.00    0.78079   0.72618    0.056
 6838.00    0.79740   0.72708    0.056
 6839.00    0.80264   0.72733    0.056
 6840.00    0.80703   0.72581    0.055
 6841.00    0.79625   0.72430    0.055
 6842.00    0.78487   0.72453    0.055
 6843.00    0.76703   0.72543    0.054
 6844.00    0.75004   0.72475    0.053
 6845.00    0.76866   0.72291    0.052
 6846.00    0.78587   0.72241    0.052
 6847.00    0.77912   0.72352    0.052
 6848.00    0.77187   0.72367    0.052
 6849.00    0.75926   0.72187    0.053
 6850.00    0.75110   0.72081    0.054
 6851.00    0.77599   0.72182    0.055
 6852.00    0.79803   0.72233    0.055
 6853.00    0.80402   0.72086    0.055
 6854.00    0.80860   0.71988    0.055
 6855.00    0.80686   0.72061    0.055
 6856.00    0.80386   0.72102    0.056
 6857.00    0.79619   0.71998    0.056
 6858.00    0.78774   0.71920    0.056
 6859.00    0.77692   0.71964    0.056
 6860.00    0.76879   0.72024    0.055
 6861.00    0.76777   0.71985    0.055
 6862.00    0.75952   0.71896    0.054
 6863.00    0.73495   0.71879    0.053
 6864.00    0.72809   0.71970    0.052
 6865.00    0.75588   0.72022    0.053
 6866.00    0.77557   0.71943    0.054
 6867.00    0.78145   0.71883    0.054
 6868.00    0.77384   0.71979    0.055
 6869.00    0.74607   0.72083    0.055
 6870.00    0.73706   0.72036    0.054
 6871.00    0.75268   0.71987    0.054
 6872.00    0.76901   0.72065    0.053
 6873.00    0.78617   0.72165    0.054
 6874.00    0.79776   0.72168    0.054
 6875.00    0.80365   0.72181    0.055
 6876.00    0.79200   0.72227    0.055
 6877.00    0.76454   0.72267    0.056
 6878.00    0.75081   0.72310    0.055
 6879.00    0.74798   0.72403    0.054
 6880.00    0.75035   0.72451    0.054
 6881.00    0.75637   0.72443    0.055
 6882.00    0.75949   0.72496    0.056
 6883.00    0.76084   0.72616    0.055
 6884.00    0.74409   0.72683    0.054
 6885.00    0.71766   0.72686    0.053
 6886.00    0.73164   0.72715    0.053
 6887.00    0.76437   0.72796    0.053
 6888.00    0.77873   0.72892    0.054
 6889.00    0.78576   0.72943    0.055
 6890.00    0.77609   0.72934    0.055
 6891.00    0.76073   0.72944    0.055
 6892.00    0.74837   0.73056    0.055
 6893.00    0.73687   0.73161    0.055
 6894.00    0.74616   0.73142    0.055
 6895.00    0.76037   0.73077    0.056
 6896.00    0.78176   0.73154    0.057
 6897.00    0.80452   0.73289    0.058
 6898.00    0.78606   0.73297    0.057
 6899.00    0.76150   0.73196    0.057
 6900.00    0.75489   0.73204    0.057
 6901.00    0.75022   0.73317    0.057
 6902.00    0.75810   0.73360    0.057
 6903.00    0.76687   0.73271    0.058
 6904.00    0.76082   0.73217    0.057
 6905.00    0.75425   0.73278    0.057
 6906.00    0.75622   0.73333    0.055
 6907.00    0.75798   0.73278    0.054
 6908.00    0.75149   0.73183    0.054
 6909.00    0.74533   0.73187    0.055
 6910.00    0.74439   0.73248    0.055
 6911.00    0.74403   0.73216    0.054
 6912.00    0.74947   0.73104    0.054
 6913.00    0.75199   0.73103    0.054
 6914.00    0.73353   0.73160    0.054
 6915.00    0.72102   0.73114    0.054
 6916.00    0.74132   0.73007    0.055
 6917.00    0.75339   0.73030    0.056
 6918.00    0.72914   0.73101    0.055
 6919.00    0.71720   0.73026    0.056
 6920.00    0.74991   0.72900    0.057
 6921.00    0.76616   0.72946    0.058
 6922.00    0.73237   0.73064    0.057
 6923.00    0.71131   0.72999    0.056
 6924.00    0.72317   0.72846    0.057
 6925.00    0.73160   0.72891    0.057
 6926.00    0.73243   0.73053    0.057
 6927.00    0.73538   0.73017    0.057
 6928.00    0.74242   0.72833    0.057
 6929.00    0.74677   0.72851    0.056
 6930.00    0.74658   0.73049    0.056
 6931.00    0.74802   0.73059    0.056
 6932.00    0.75185   0.72873    0.055
 6933.00    0.75056   0.72845    0.056
 6934.00    0.74263   0.73037    0.056
 6935.00    0.74326   0.73095    0.056
 6936.00    0.75363   0.72934    0.056
 6937.00    0.75140   0.72870    0.057
 6938.00    0.73651   0.73032    0.057
 6939.00    0.72616   0.73112    0.057
 6940.00    0.71984   0.72970    0.057
 6941.00    0.72747   0.72897    0.057
 6942.00    0.74601   0.73034    0.058
 6943.00    0.75426   0.73132    0.059
 6944.00    0.75543   0.73037    0.058
 6945.00    0.75583   0.72959    0.058
 6946.00    0.75577   0.73043    0.058
 6947.00    0.74193   0.73157    0.058
 6948.00    0.72085   0.73115    0.057
 6949.00    0.72737   0.73025    0.057
 6950.00    0.74648   0.73083    0.058
 6951.00    0.74392   0.73222    0.057
 6952.00    0.73284   0.73209    0.057
 6953.00    0.74260   0.73107    0.056
 6954.00    0.75932   0.73159    0.056
 6955.00    0.76608   0.73309    0.055
 6956.00    0.77003   0.73294    0.055
 6957.00    0.75312   0.73169    0.055
 6958.00    0.73140   0.73221    0.055
 6959.00    0.71747   0.73398    0.056
 6960.00    0.70498   0.73371    0.057
 6961.00    0.71441   0.73190    0.057
 6962.00    0.72698   0.73211    0.058
 6963.00    0.73325   0.73419    0.058
 6964.00    0.73886   0.73421    0.058
 6965.00    0.71712   0.73194    0.058
 6966.00    0.69357   0.73125    0.058
 6967.00    0.72555   0.73330    0.060
 6968.00    0.75931   0.73411    0.061
 6969.00    0.73538   0.73160    0.060
 6970.00    0.71276   0.72994    0.059
 6971.00    0.73010   0.73192    0.058
 6972.00    0.74622   0.73347    0.057
 6973.00    0.74427   0.73097    0.057
 6974.00    0.74097   0.72871    0.057
 6975.00    0.72467   0.73055    0.057
 6976.00    0.71102   0.73263    0.057
 6977.00    0.71582   0.73083    0.056
 6978.00    0.72087   0.72861    0.056
 6979.00    0.72724   0.72984    0.057
 6980.00    0.73284   0.73191    0.057
 6981.00    0.73508   0.73109    0.057
 6982.00    0.73512   0.72934    0.057
 6983.00    0.72735   0.72992    0.056
 6984.00    0.72323   0.73157    0.056
 6985.00    0.72999   0.73136    0.059
 6986.00    0.73579   0.73001    0.060
 6987.00    0.73914   0.73035    0.060
 6988.00    0.74719   0.73182    0.060
 6989.00    0.76550   0.73164    0.060
 6990.00    0.76194   0.73008    0.059
 6991.00    0.71690   0.73022    0.058
 6992.00    0.69854   0.73194    0.058
 6993.00    0.72434   0.73183    0.058
 6994.00    0.73435   0.72963    0.059
 6995.00    0.72143   0.72915    0.058
 6996.00    0.71951   0.73113    0.057
 6997.00    0.73163   0.73151    0.057
 6998.00    0.73391   0.72897    0.057
 6999.00    0.72515   0.72771    0.057
 7000.00    0.71832   0.72960    0.057
 7001.00    0.71341   0.73047    0.056
 7002.00    0.72388   0.72794    0.056
 7003.00    0.74779   0.72612    0.057
 7004.00    0.74565   0.72798    0.058
 7005.00    0.72344   0.72945    0.059
 7006.00    0.70538   0.72699    0.060
 7007.00    0.69014   0.72450    0.060
 7008.00    0.68054   0.72628    0.060
 7009.00    0.67430   0.72885    0.060
 7010.00    0.67391   0.72689    0.060
 7011.00    0.67654   0.72337    0.059
 7012.00    0.68752   0.72453    0.060
 7013.00    0.70224   0.72829    0.061
 7014.00    0.70788   0.72756    0.061
 7015.00    0.71001   0.72371    0.060
 7016.00    0.70021   0.72392    0.059
 7017.00    0.68650   0.72792    0.059
 7018.00    0.69205   0.72853    0.058
 7019.00    0.70291   0.72521    0.056
 7020.00    0.71419   0.72445    0.057
 7021.00    0.72557   0.72799    0.057
 7022.00    0.69877   0.72996    0.058
 7023.00    0.66507   0.72776    0.058
 7024.00    0.66739   0.72618    0.062
 7025.00    0.67468   0.72863    0.068
 7026.00    0.70810   0.73160    0.070
 7027.00    0.74411   0.73104    0.071
 7028.00    0.72546   0.72910    0.071
 7029.00    0.70338   0.72980    0.071
 7030.00    0.70054   0.73280    0.072
 7031.00    0.69833   0.73417    0.073
 7032.00    0.72003   0.73284    0.067
 7033.00    0.74023   0.73176    0.063
 7034.00    0.71900   0.73353    0.063
 7035.00    0.69952   0.73593    0.062
 7036.00    0.70461   0.73556    0.062
 7037.00    0.70825   0.73369    0.061
 7038.00    0.69866   0.73409    0.060
 7039.00    0.69347   0.73610    0.058
 7040.00    0.71803   0.73616    0.059
 7041.00    0.73740   0.73433    0.059
 7042.00    0.72970   0.73348    0.058
 7043.00    0.72300   0.73430    0.058
 7044.00    0.72046   0.73428    0.058
 7045.00    0.71941   0.73244    0.058
 7046.00    0.72352   0.73062    0.059
 7047.00    0.72483   0.73033    0.060
 7048.00    0.71794   0.73011    0.061
 7049.00    0.70914   0.72810    0.061
 7050.00    0.69562   0.72525   -2.000
 7051.00    0.69372   0.72420   -2.000
 7052.00    0.71681   0.72412   -2.000
 7053.00    0.73629   0.72225   -2.000
 7054.00    0.74904   0.71892   -2.000
 7055.00    0.76202   0.71732   -2.000
 7056.00    0.77537   0.71736   -2.000
 7057.00    0.77885   0.71597   -2.000
 7058.00    0.76820   0.71271   -2.000
 7059.00    0.76572   0.71073   -2.000
 7060.00    0.77354   0.71096   -2.000
 7061.00    0.79021   0.71042   -2.000
 7062.00    0.81669   0.70777   -2.000
 7063.00    0.82940   0.70548   -2.000
 7064.00    0.82863   0.70556   -2.000
 7065.00    0.81868   0.70596   -2.000
 7066.00    0.80081   0.70414   -2.000
 7067.00    0.78231   0.70153   -2.000
 7068.00    0.76332   0.70141   -2.000
 7069.00    0.75835   0.70248   -2.000
 7070.00    0.76275   0.70131   -2.000
 7071.00    0.77893   0.69871   -2.000
 7072.00    0.80199   0.69813   -2.000
 7073.00    0.80871   0.69902   -2.000
 7074.00    0.80711   0.69800   -2.000
 7075.00    0.81040   0.69534   -2.000
 7076.00    0.81585   0.69450   -2.000
 7077.00    0.80832   0.69524   -2.000
 7078.00    0.79588   0.69415   -2.000
 7079.00    0.78904   0.69094   -2.000
 7080.00    0.78401   0.68932   -2.000
 7081.00    0.80192   0.69020   -2.000
 7082.00    0.82601   0.68966   -2.000
 7083.00    0.82246   0.68620   -2.000
 7084.00    0.81281   0.68366   -2.000
 7085.00    0.78345   0.68428   -2.000
 7086.00    0.75062   0.68455   -2.000
 7087.00    0.74552   0.68196   -2.000
 7088.00    0.74413   0.67875   -2.000
 7089.00    0.77300   0.67844   -2.000
 7090.00    0.80475   0.67960   -2.000
 7091.00    0.79135   0.67869   -2.000
 7092.00    0.77530   0.67551   -2.000
 7093.00    0.76821   0.67414   -2.000
 7094.00    0.76137   0.67572   -2.000
 7095.00    0.76092   0.67644   -2.000
 7096.00    0.75928   0.67428   -2.000
 7097.00    0.72833   0.67202   -2.000
 7098.00    0.69902   0.67296   -2.000
 7099.00    0.69164   0.67488   -2.000
 7100.00    0.68175   0.67468   -2.000
 7101.00    0.64959   0.67239   -2.000
 7102.00    0.62883   0.67167   -2.000
 7103.00    0.68260   0.67358   -2.000
 7104.00    0.72327   0.67502   -2.000
 7105.00    0.69721   0.67363   -2.000
 7106.00    0.67839   0.67195   -2.000
 7107.00    0.68940   0.67279   -2.000
 7108.00    0.69857   0.67438   -2.000
 7109.00    0.70145   0.67420   -2.000
 7110.00    0.69929   0.67274   -2.000
 7111.00    0.68263   0.67243   -2.000
 7112.00    0.67294   0.67301   -2.000
 7113.00    0.68032   0.67328   -2.000
 7114.00    0.67826   0.67287   -2.000
 7115.00    0.65618   0.67223   -2.000
 7116.00    0.64926   0.67145   -2.000
 7117.00    0.67023   0.67083   -2.000
 7118.00    0.69748   0.67132   -2.000
 7119.00    0.73483   0.67174   -2.000
 7120.00    0.76327   0.67028   -2.000
 7121.00    0.77913   0.66792   -2.000
 7122.00    0.77053   0.66818   -2.000
 7123.00    0.73160   0.67023   -2.000
 7124.00    0.69974   0.66949   -2.000
 7125.00    0.67561   0.66591   -2.000
 7126.00    0.67784   0.66475   -2.000
 7127.00    0.70549   0.66753   -2.000
 7128.00    0.69203   0.66870   -2.000
 7129.00    0.64362   0.66544   -2.000
 7130.00    0.63264   0.66251   -2.000
 7131.00    0.64970   0.66463   -2.000
 7132.00    0.67875   0.66774   -2.000
 7133.00    0.71570   0.66595   -2.000
 7134.00    0.74194   0.66199   -2.000
 7135.00    0.76201   0.66277   -2.000
 7136.00    0.76297   0.66684   -2.000
 7137.00    0.75434   0.66666   -2.000
 7138.00    0.76117   0.66294   -2.000
 7139.00    0.77471   0.66257   -2.000
 7140.00    0.76383   0.66617   -2.000
 7141.00    0.74384   0.66742   -2.000
 7142.00    0.72845   0.66477   -2.000
 7143.00    0.71451   0.66347   -2.000
 7144.00    0.71523   0.66620   -2.000
 7145.00    0.71980   0.66846   -2.000
 7146.00    0.70410   0.66650   -2.000
 7147.00    0.68402   0.66460   -2.000
 7148.00    0.68165   0.66711   -2.000
 7149.00    0.68230   0.66983   -2.000
 7150.00    0.67367   0.66795   -2.000
 7151.00    0.66383   0.66580   -2.000
 7152.00    0.66869   0.66818   -2.000
 7153.00    0.67488   0.67109   -2.000
 7154.00    0.66558   0.66979   -2.000
 7155.00    0.65543   0.66715   -2.000
 7156.00    0.67167   0.66845   -2.000
 7157.00    0.68813   0.67184   -2.000
 7158.00    0.67274   0.67186   -2.000
 7159.00    0.65917   0.66873   -2.000
 7160.00    0.68693   0.66837   -2.000
 7161.00    0.71456   0.67190   -2.000
 7162.00    0.74055   0.67317   -2.000
 7163.00    0.76624   0.67041   -2.000
 7164.00    0.78945   0.66902   -2.000
 7165.00    0.81367   0.67159   -2.000
 7166.00    0.84429   0.67329   -2.000
 7167.00    0.85954   0.67171   -2.000
 7168.00    0.79848   0.67018   -2.000
 7169.00    0.74635   0.67139   -2.000
 7170.00    0.73021   0.67278   -2.000
 7171.00    0.72053   0.67193   -2.000
 7172.00    0.73240   0.67077   -2.000
 7173.00    0.74221   0.67131   -2.000
 7174.00    0.74620   0.67208   -2.000
 7175.00    0.74465   0.67097   -2.000
 7176.00    0.72974   0.67007   -2.000
 7177.00    0.72119   0.67119   -2.000
 7178.00    0.72589   0.67184   -2.000
 7179.00    0.72566   0.67004   -2.000
 7180.00    0.71650   0.66875   -2.000
 7181.00    0.70399   0.67026   -2.000
 7182.00    0.68616   0.67133   -2.000
 7183.00    0.67083   0.66934   -2.000
 7184.00    0.65898   0.66738   -2.000
 7185.00    0.66241   0.66879   -2.000
 7186.00    0.68452   0.67078   -2.000
 7187.00    0.70537   0.66927   -2.000
 7188.00    0.72484   0.66616   -2.000
 7189.00    0.72061   0.66669   -2.000
 7190.00    0.69385   0.67018   -2.000
 7191.00    0.67200   0.67027   -2.000
 7192.00    0.65425   0.66645   -2.000
 7193.00    0.65538   0.66525   -2.000
 7194.00    0.67043   0.66880   -2.000
 7195.00    0.68073   0.67071   -2.000
 7196.00    0.68794   0.66772   -2.000
 7197.00    0.68418   0.66521   -2.000
 7198.00    0.67420   0.66741   -2.000
 7199.00    0.63886   0.67088   -2.000
 7200.00    0.59099   0.67008   -2.000
 7201.00    0.61055   0.66652   -2.000
 7202.00    0.65890   0.66631   -2.000
 7203.00    0.69528   0.67028   -2.000
 7204.00    0.72729   0.67217   -2.000
 7205.00    0.71527   0.66945   -2.000
 7206.00    0.68960   0.66745   -2.000
 7207.00    0.68536   0.66991   -2.000
 7208.00    0.68666   0.67296   -2.000
 7209.00    0.42378   0.67239   -2.000
 7210.00    0.10533   0.67047   -2.000
 7211.00    0.48983   0.67117   -2.000
 7212.00    0.99109   0.67417   -2.000
 7213.00    1.07164   0.67563   -2.000
 7214.00    1.09963   0.67417   -2.000
 7215.00    1.10294   0.67340   -2.000
 7216.00    1.10410   0.67584   -2.000
 7217.00    1.10973   0.67838   -2.000
 7218.00    1.11559   0.67801   -2.000
