###################################################################
## OUTPUT of StarlightChains_v04.for    [Cid@UFSC - 01/Apr/2007] ##
###################################################################

## Some input info
KUG0210-078._43_48.txt                   [arq_obs]
Base.CB07.vall.4m                        [arq_base]
Masks.EmLines.NEW.gm                     [arq_masks]
StCv04.C11.config                        [arq_config]
   66                                    [N_base]
    0                                    [N_YAV_components = # of components with extra extinction!]
    0                                    [i_FitPowerLaw (1/0 = Yes/No)]
-9.99                                    [alpha_PowerLaw]
CCM                                      [red_law_option]
 1.458241                                [q_norm = A(l_norm)/A(V)]

## (Re)Sampling Parameters
 3741.00                                 [l_ini (A)]
 7218.00                                 [l_fin (A)]
    1.00                                 [dl    (A)]     (OBS: dl_cushion =    50.00 A)

## Normalization info
 4020.00                                 [l_norm (A) - for base]
 4010.00                                 [llow_norm (A) - window for f_obs]
 4060.00                                 [lupp_norm (A) - window for f_obs]
7.770747E-18                             [fobs_norm (in input units)]

## S/N
 3691.00                                 [llow_SN (A) - window for S/N]
 7268.00                                 [lupp_SN (A) - window for S/N]
   2.959                                 [S/N in S/N window]
   3.020                                 [S/N in norm. window]
   0.010                                 [S/N_err in S/N window]
   0.010                                 [S/N_err in norm. window]
  1.0000                                 [fscale_chi2]

## etc...
    -2007820                             [idum_orig]
  2399                                   [NOl_eff]
  2142                                   [Nl_eff]
   257    NSIGMA                         [Ntot_cliped & clip_method]
 11025350                                [Nglobal_steps]
   7                                     [N_chains]
  35                                     [NEX0s_base = N_base in EX0s-fits]
 0   0   1      257   2.0   5.552E+03    [Clip-Bug, RC-Crash & Burn-In warning-flags, n_censored_weights, wei_nsig_threshold & wei_limit]
   257    256.364    254.902      1.462  [idt_all, wdt_TotTime, wdt_UsrTime & wdt_SysTime (sec)]

## Synthesis Results - Best model ##

 1.25611E-05                             [chi2/Nl_eff]
    18.85377                             [adev (%)]

   129.07956                             [sum-of-x (%)]
 3.10852E-18                             [Flux_tot (units of input spectrum!)]
 8.64392E-14                             [Mini_tot (???)]
 4.57874E-14                             [Mcor_tot (???)]

 249.35                                  [v0_min  (km/s)]
 150.00                                  [vd_min  (km/s)]
-0.8722                                  [AV_min  (mag)]
 0.0000                                  [YAV_min (mag)]

# j     x_j(%)      Mini_j(%)     Mcor_j(%)     age_j(yr)     Z_j      (L/M)_j    YAV?  Mstars   component_j        a/Fe...       SSP_chi2r SSP_adev(%)   SSP_AV   SSP_x(%)
  1      0.8306     2.1153E-03    3.9933E-03    1.000000E+06  0.00400  1.094E-02    0   1.0000   age020_m42            0.0000     1.3471E-05    18.4543   2.3236   118.7618
  2      0.0556     3.8674E-05    7.3004E-05    3.160000E+06  0.00400  4.007E-02    0   0.9999   age045_m42            0.0000     1.3391E-05    19.1189   1.6822   123.3246
  3      0.0000     0.0000E+00    0.0000E+00    5.010000E+06  0.00400  2.539E-02    0   0.9488   age055_m42            0.0000     1.3489E-05    18.8397   1.9645   121.7963
  4      0.0000     0.0000E+00    0.0000E+00    6.610000E+06  0.00400  2.620E-02    0   0.9220   age061_m42            0.0000     1.3462E-05    19.3232   1.6179   123.3969
  5      0.0370     7.8022E-05    1.3053E-04    1.000000E+07  0.00400  1.322E-02    0   0.8862   age070_m42            0.0000     1.3830E-05    20.8158   1.3793   125.6826
  6      0.0000     0.0000E+00    0.0000E+00    1.445000E+07  0.00400  7.883E-03    0   0.8571   age078_m42            0.0000     1.3763E-05    20.3708   1.6772   123.4786
  7      0.0385     2.0437E-04    3.1537E-04    2.512000E+07  0.00400  5.251E-03    0   0.8174   age090_m42            0.0000     1.3914E-05    21.2312   1.2652   125.9951
  8      0.0000     0.0000E+00    0.0000E+00    4.000000E+07  0.00400  3.649E-03    0   0.7851   age104_m42            0.0000     1.3862E-05    21.2579   1.0513   126.4485
  9      0.0000     0.0000E+00    0.0000E+00    5.500000E+07  0.00400  3.098E-03    0   0.7629   age110_m42            0.0000     1.3668E-05    20.6604   1.1981   126.0844
 10      2.3341     2.9188E-02    3.9712E-02    1.015200E+08  0.00400  2.228E-03    0   0.7207   age116_m42            0.0000     1.3562E-05    20.3036   1.2150   126.0197
 11      0.0000     0.0000E+00    0.0000E+00    2.861200E+08  0.00400  1.093E-03    0   0.6648   age125_m42            0.0000     1.3825E-05    21.2634   0.6755   128.6137
 12      0.0000     0.0000E+00    0.0000E+00    5.088000E+08  0.00400  6.597E-04    0   0.6365   age130_m42            0.0000     1.3635E-05    20.6644   0.6662   129.0440
 13      0.0000     0.0000E+00    0.0000E+00    1.434000E+09  0.00400  2.132E-04    0   0.5798   age139_m42            0.0000     1.3366E-05    20.5260  -0.2605   129.6560
 14      0.0000     0.0000E+00    0.0000E+00    4.250000E+09  0.00400  5.895E-05    0   0.5377   age158_m42            0.0000     1.3220E-05    19.3662  -0.7288   125.0755
 15      0.0000     0.0000E+00    0.0000E+00    7.500000E+09  0.00400  3.510E-05    0   0.5212   age171_m42            0.0000     1.3217E-05    19.0884  -0.9187   123.9937
 16      0.0000     0.0000E+00    0.0000E+00    1.300000E+10  0.00400  2.005E-05    0   0.5034   age193_m42            0.0000     1.3344E-05    19.6014  -1.0000   120.1907
 17      0.0000     0.0000E+00    0.0000E+00    1.800000E+10  0.00400  1.525E-05    0   0.4967   age213_m42            0.0000     1.3351E-05    19.8238  -1.0000   118.8413
 18      2.5943     5.8382E-03    1.1022E-02    1.000000E+06  0.00800  1.238E-02    0   1.0000   age020_m52            0.0000     1.3431E-05    18.4171   2.3177   119.1043
 19      0.0000     0.0000E+00    0.0000E+00    3.160000E+06  0.00800  3.074E-02    0   0.9966   age045_m52            0.0000     1.3398E-05    18.3882   2.2455   119.9571
 20      0.0000     0.0000E+00    0.0000E+00    5.010000E+06  0.00800  2.668E-02    0   0.9443   age055_m52            0.0000     1.3444E-05    18.7814   2.0413   121.1587
 21      0.0000     0.0000E+00    0.0000E+00    6.610000E+06  0.00800  2.136E-02    0   0.9177   age061_m52            0.0000     1.3730E-05    20.6056   0.8852   127.0887
 22      0.0129     2.9645E-05    4.9400E-05    1.000000E+07  0.00800  1.215E-02    0   0.8827   age070_m52            0.0000     1.3861E-05    21.1178   1.5529   125.9724
 23      0.2062     6.5897E-04    1.0639E-03    1.445000E+07  0.00800  8.717E-03    0   0.8552   age078_m52            0.0000     1.3726E-05    20.5277   1.6534   124.9229
 24      0.0000     0.0000E+00    0.0000E+00    2.512000E+07  0.00800  5.592E-03    0   0.8162   age090_m52            0.0000     1.3828E-05    21.3932   1.3356   127.3645
 25      0.0000     0.0000E+00    0.0000E+00    4.000000E+07  0.00800  3.896E-03    0   0.7841   age104_m52            0.0000     1.3740E-05    21.2859   1.2565   127.6898
 26      0.0000     0.0000E+00    0.0000E+00    1.015200E+08  0.00800  2.148E-03    0   0.7226   age116_m52            0.0000     1.3615E-05    20.7480   1.1967   126.7717
 27      0.0000     0.0000E+00    0.0000E+00    2.861200E+08  0.00800  9.925E-04    0   0.6683   age125_m52            0.0000     1.3521E-05    20.8008   0.7408   130.3572
 28      0.0000     0.0000E+00    0.0000E+00    9.047900E+08  0.00800  3.141E-04    0   0.6138   age135_m52            0.0000     1.2986E-05    20.2785  -0.0275   133.6530
 29      0.0000     0.0000E+00    0.0000E+00    1.434000E+09  0.00800  1.719E-04    0   0.5853   age139_m52            0.0000     1.3017E-05    19.9709  -0.6207   131.0347
 30      0.0000     0.0000E+00    0.0000E+00    2.500000E+09  0.00800  7.872E-05    0   0.5600   age150_m52            0.0000     1.2921E-05    19.0514  -0.8993   127.6255
 31      0.0000     0.0000E+00    0.0000E+00    4.250000E+09  0.00800  4.336E-05    0   0.5426   age158_m52            0.0000     1.2949E-05    19.0133  -0.9141   126.3872
 32      0.0052     4.5671E-03    4.5860E-03    6.250000E+09  0.00800  3.159E-05    0   0.5319   age166_m52            0.0000     1.3067E-05    19.6411  -1.0000   121.8754
 33      0.0000     0.0000E+00    0.0000E+00    1.300000E+10  0.00800  1.361E-05    0   0.5073   age193_m52            0.0000     1.5015E-05    24.5056  -1.0000   104.2788
 34      0.0000     0.0000E+00    0.0000E+00    1.800000E+10  0.00800  9.886E-06    0   0.4990   age213_m52            0.0000     1.5813E-05    25.4144  -1.0000    99.7725
 35      0.0000     0.0000E+00    0.0000E+00    1.000000E+06  0.02000  1.544E-02    0   1.0000   age020_m62            0.0000     1.3413E-05    18.3776   2.3104   119.5155
 36      0.0000     0.0000E+00    0.0000E+00    3.160000E+06  0.02000  3.762E-02    0   0.9858   age045_m62            0.0000     1.3414E-05    18.3205   2.2446   120.6628
 37      0.0000     0.0000E+00    0.0000E+00    5.010000E+06  0.02000  3.296E-02    0   0.9342   age055_m62            0.0000     1.3385E-05    18.7888   1.9335   122.9680
 38      0.0000     0.0000E+00    0.0000E+00    8.710000E+06  0.02000  1.154E-02    0   0.8861   age067_m62            0.0000     1.4761E-05    24.2984   1.0405   130.8873
 39      0.0000     0.0000E+00    0.0000E+00    1.445000E+07  0.02000  7.663E-03    0   0.8472   age078_m62            0.0000     1.4128E-05    22.1660   1.2187   128.6877
 40      0.0000     0.0000E+00    0.0000E+00    2.512000E+07  0.02000  4.532E-03    0   0.8099   age090_m62            0.0000     1.4257E-05    22.5105   1.2218   127.9522
 41      0.0000     0.0000E+00    0.0000E+00    5.500000E+07  0.02000  2.733E-03    0   0.7595   age110_m62            0.0000     1.3769E-05    21.1878   1.2328   127.0315
 42      0.0000     0.0000E+00    0.0000E+00    1.609000E+08  0.02000  1.369E-03    0   0.6985   age120_m62            0.0000     1.3567E-05    20.7929   1.0862   129.3051
 43      0.0000     0.0000E+00    0.0000E+00    2.861200E+08  0.02000  9.013E-04    0   0.6714   age125_m62            0.0000     1.3456E-05    20.7194   0.8540   132.0573
 44      0.0000     0.0000E+00    0.0000E+00    5.088000E+08  0.02000  5.028E-04    0   0.6449   age130_m62            0.0000     1.3063E-05    19.9876   0.4850   134.3095
 45      0.0000     0.0000E+00    0.0000E+00    9.047900E+08  0.02000  2.428E-04    0   0.6179   age135_m62            0.0000     1.2701E-05    19.4771  -0.0974   132.8792
 46      2.7213     6.0029E-01    6.6953E-01    1.434000E+09  0.02000  1.263E-04    0   0.5908   age139_m62            0.0000     1.2654E-05    19.2128  -0.5410   130.8176
 47     12.2039     5.6809E+00    6.0841E+00    2.500000E+09  0.02000  5.985E-05    0   0.5673   age150_m62            0.0000     1.2643E-05    18.6150  -0.9223   129.3309
 48     12.7370     1.0849E+01    1.1199E+01    4.250000E+09  0.02000  3.271E-05    0   0.5468   age158_m62            0.0000     1.3041E-05    20.0951  -1.0000   119.5700
 49      0.0000     0.0000E+00    0.0000E+00    1.000000E+10  0.02000  1.360E-05    0   0.5167   age181_m62            0.0000     1.4689E-05    23.6075  -1.0000   106.2429
 50      6.6986     2.6197E+01    2.4792E+01    1.800000E+10  0.02000  7.124E-06    0   0.5013   age213_m62            0.0000     1.6345E-05    25.8007  -1.0000    97.8887
 51      0.0094     1.0129E-05    1.9117E-05    1.000000E+06  0.05000  2.592E-02    0   0.9998   age020_m72            0.0000     1.3383E-05    18.3323   2.2948   119.8832
 52      0.0000     0.0000E+00    0.0000E+00    3.160000E+06  0.05000  4.845E-02    0   0.9577   age045_m72            0.0000     1.3417E-05    18.4144   2.1537   121.0926
 53      0.3106     2.8167E-04    4.8640E-04    5.010000E+06  0.05000  3.072E-02    0   0.9147   age055_m72            0.0000     1.3814E-05    20.6690   1.7370   125.1999
 54      2.0318     3.8904E-03    6.5197E-03    6.610000E+06  0.05000  1.455E-02    0   0.8877   age061_m72            0.0000     1.5701E-05    25.9351   1.0606   132.7078
 55      0.0000     0.0000E+00    0.0000E+00    1.000000E+07  0.05000  9.074E-03    0   0.8524   age070_m72            0.0000     1.4045E-05    21.0639   1.9002   124.9772
 56      0.0000     0.0000E+00    0.0000E+00    2.512000E+07  0.05000  4.250E-03    0   0.7902   age090_m72            0.0000     1.4017E-05    21.3779   1.6562   125.4851
 57      0.0000     0.0000E+00    0.0000E+00    4.000000E+07  0.05000  3.087E-03    0   0.7618   age104_m72            0.0000     1.4071E-05    21.8576   1.4516   126.8415
 58      0.0000     0.0000E+00    0.0000E+00    1.015200E+08  0.05000  1.700E-03    0   0.7096   age116_m72            0.0000     1.3716E-05    21.1719   1.2255   129.0096
 59      0.0000     0.0000E+00    0.0000E+00    2.861200E+08  0.05000  7.384E-04    0   0.6633   age125_m72            0.0000     1.3034E-05    20.3078   0.7230   133.6173
 60      0.0000     0.0000E+00    0.0000E+00    5.088000E+08  0.05000  3.819E-04    0   0.6372   age130_m72            0.0000     1.2495E-05    19.4470   0.2334   135.0882
 61     32.0982     5.3357E+00    6.1546E+00    9.047900E+08  0.05000  1.676E-04    0   0.6110   age135_m72            0.0000     1.2241E-05    18.4785  -0.4738   132.4854
 62     45.5186     1.4351E+01    1.5914E+01    1.434000E+09  0.05000  8.837E-05    0   0.5874   age139_m72            0.0000     1.2420E-05    18.4857  -0.9280   131.2502
 63      0.0000     0.0000E+00    0.0000E+00    2.500000E+09  0.05000  4.233E-05    0   0.5598   age150_m72            0.0000     1.2939E-05    19.8893  -1.0000   120.4160
 64      0.0000     0.0000E+00    0.0000E+00    6.250000E+09  0.05000  1.435E-05    0   0.5249   age166_m72            0.0000     1.5372E-05    24.6492  -1.0000   102.3181
 65      8.6357     3.6941E+01    3.5120E+01    1.300000E+10  0.05000  6.513E-06    0   0.5036   age193_m72            0.0000     1.8141E-05    27.5784  -1.0000    93.1877
 66      0.0000     0.0000E+00    0.0000E+00    1.800000E+10  0.05000  4.527E-06    0   0.4945   age213_m72            0.0000     2.0048E-05    29.2332  -1.0000    87.3698


## Synthesis Results - Average & Chains ##

# j      x_j: min, <> & last-chain-values for 1 ...  7 chains
  1      0.8306      2.1918      0.6901      0.8996      1.5799      2.0359      1.2293      2.2813      3.6030
  2      0.0556      0.4308      0.1124      0.8183      0.0984      0.5404      2.3245      0.0558      0.0000
  3      0.0000      0.2685      0.0143      0.0000      0.0000      0.3378      0.0000      0.0000      1.6179
  4      0.0000      0.2882      0.1370      0.3291      0.0000      0.4724      0.5601      1.2117      0.0257
  5      0.0370      0.3532      0.0928      0.0000      1.7079      0.5267      0.6153      0.2484      0.0000
  6      0.0000      0.3190      0.0000      0.1443      0.1913      0.0447      0.4486      0.2526      1.5639
  7      0.0385      0.2348      0.0000      0.6920      0.9999      0.0893      1.5945      0.0000      0.0000
  8      0.0000      0.3347      0.2802      0.0000      0.0036      0.0733      0.0000      0.5893      0.0000
  9      0.0000      0.3081      0.2507      0.3184      0.3648      0.2925      0.7150      0.0000      0.7894
 10      2.3341      0.3713      0.2938      1.7953      1.4347      0.0000      0.9851      0.0000      0.4937
 11      0.0000      0.2411      0.0000      0.7977      0.5380      0.0900      0.0000      0.0000      0.0000
 12      0.0000      0.2633      0.0000      0.5499      0.0000      0.6215      0.0000      0.0000      0.9092
 13      0.0000      0.2903      0.1761      0.5491      0.0000      0.7387      0.0576      1.0506      0.0000
 14      0.0000      0.3371      0.0839      1.3301      0.0000      0.1779      2.6930      0.5839      1.1128
 15      0.0000      0.2202      0.0000      0.0000      0.0000      0.4739      0.4972      1.9528      1.3431
 16      0.0000      0.2599      0.1639      0.8482      0.0000      0.1868      2.5013      1.0348      1.4743
 17      0.0000      0.3432      0.0201      1.5525      0.6074      0.3149      2.7061      1.1819      0.3523
 18      2.5943      2.8330      3.6150      2.2781      2.9115      2.9960      2.9044      2.7878      2.4123
 19      0.0000      0.2636      0.2354      1.0961      0.0000      0.0000      1.0531      0.3321      0.0000
 20      0.0000      0.3043      0.0262      0.0000      1.2566      0.0000      0.0000      0.6836      0.4659
 21      0.0000      0.3931      0.1605      0.0000      0.7593      0.3260      0.0000      1.0754      0.5183
 22      0.0129      0.3410      0.2466      0.6617      0.1401      0.0000      0.6893      0.3035      3.4751
 23      0.2062      0.2563      0.2586      0.0000      1.3732      0.3605      0.7705      0.8309      0.8394
 24      0.0000      0.2517      0.0891      0.0000      0.0000      0.1976      0.0000      0.5825      0.0000
 25      0.0000      0.2718      0.3380      0.1939      0.0854      0.0000      0.0000      0.5197      0.5494
 26      0.0000      0.2927      0.5015      0.2655      0.0000      0.2092      0.0332      0.8065      0.0000
 27      0.0000      0.2272      0.0709      1.1703      0.0940      0.1768      0.6568      0.8224      3.5699
 28      0.0000      0.2778      0.1455      1.4899      1.0449      0.5256      0.1106      0.9252      0.0000
 29      0.0000      0.2938      0.1773      2.5160      0.0604      0.4369      0.0000      0.0786      2.6000
 30      0.0000      0.2838      0.0138      0.9418      0.0000      0.1951      0.6345      1.6353      0.5402
 31      0.0000      0.2710      0.1252      1.6721      0.8167      0.4701      1.0525      2.5273      2.5966
 32      0.0052      0.2427      0.2648      0.0000      0.0000      0.2758      1.0386      0.0000      1.7329
 33      0.0000      0.2468      0.0138      1.3664      0.5691      0.0504      0.0000      0.3740      2.0992
 34      0.0000      0.3178      0.0663      1.1078      0.3240      0.5064      1.3081      0.3684      1.7262
 35      0.0000      0.3559      0.0000      0.1511      0.4882      0.0000      0.0000      1.0731      1.4672
 36      0.0000      0.2125      0.0882      0.0000      0.3703      0.0836      0.0000      0.0000      0.4000
 37      0.0000      0.3044      0.0000      0.8695      0.0000      0.4586      0.0054      0.0000      0.0000
 38      0.0000      0.2367      0.0000      0.5719      0.0311      0.0000      0.0000      1.2216      0.1497
 39      0.0000      0.2511      0.1770      0.3197      0.0000      0.0000      0.1577      0.3654      0.4813
 40      0.0000      0.2572      0.1276      0.2931      0.7487      0.1938      0.7048      0.8466      0.3546
 41      0.0000      0.2358      0.1745      1.3842      0.1137      0.0000      0.0257      0.2039      0.0000
 42      0.0000      0.3151      0.0713      0.0000      0.8234      0.5316      0.0000      0.5020      0.0070
 43      0.0000      0.3143      0.0000      0.3480      0.0000      0.0000      0.0000      0.5818      0.0000
 44      0.0000      0.3323      0.0392      0.5024      0.8499      0.1195      0.5048      0.0000      0.0000
 45      0.0000      0.3117      0.0414      0.5046      0.4583      1.0170      0.0000      0.0000      0.1912
 46      2.7213      4.1239      4.8480      3.1091      4.2012      4.7688      2.9923      3.4128      2.6951
 47     12.2039     11.6679     11.5532     11.6207     11.7898     12.6476     11.3673      8.9247      9.7498
 48     12.7370      0.3444      0.0881      0.1463      2.3263      0.2116      1.5749      1.7873      0.3690
 49      0.0000      0.3582      0.0000      0.3205      1.3767      0.6888      0.5454      1.4519      0.0000
 50      6.6986      0.8238      0.6603      1.1296      1.3812      0.5848      0.6055      0.0000      1.9531
 51      0.0094     42.0804     48.5153     34.8352     34.8666     42.3751     30.0582     27.3654     16.3063
 52      0.0000      0.3596      0.3125      0.0035      0.5279      0.2510      0.2544      0.3385      1.7114
 53      0.3106      0.3616      0.0607      0.5237      0.4156      0.0000      1.2428      0.0707      1.4920
 54      2.0318      0.2659      0.0000      0.1834      0.1791      0.3792      0.9145      0.2084      0.6434
 55      0.0000      0.2962      0.2086      1.4097      0.0000      0.1580      2.3592      0.2530      0.8698
 56      0.0000      0.2643      0.1240      0.0068      0.5816      0.4324      0.0000      1.9117      0.9227
 57      0.0000      0.2966      0.2614      0.7668      0.1318      0.1726      0.0000      0.0000      0.8108
 58      0.0000      0.2832      0.0772      0.7315      0.0693      0.1696      0.0000      0.0040      2.2467
 59      0.0000      0.2586      0.0396      0.0000      1.8957      0.2187      0.0000      0.1758      0.6021
 60      0.0000      0.2741      0.1986      0.5022      0.6704      0.0000      0.0000      0.0000      0.0000
 61     32.0982      1.8590      1.2052      1.2005      1.8689      2.2256      5.5074      5.8269      2.9839
 62     45.5186      0.2675      0.1416      0.0000      0.5437      0.2593      1.3374      0.5954      1.3971
 63      0.0000      0.2869      0.1695      0.0000      0.6442      1.4429      0.3418      0.6405      0.5903
 64      0.0000      4.7689      5.8754      3.6597      3.8292      3.6386      5.3444      6.7663      4.8279
 65      8.6357      5.7338      5.9781      4.5278      5.9495      4.9684      4.5242      6.9232      4.0613
 66      0.0000     16.6803     20.0774     14.3376     15.2611     17.3284     11.4968     12.2120     14.5108

# j      m_j: min, <> & last-chain-values for 1 ...  7 chains
  1  3.9933E-03  7.3480E-03  2.0489E-03  3.2717E-03  5.3790E-03  6.8262E-03  4.8131E-03  8.2745E-03  1.2294E-02
  2  7.3004E-05  3.9427E-04  9.1073E-05  8.1244E-04  9.1476E-05  4.9465E-04  2.4845E-03  5.5209E-05  0.0000E+00
  3  0.0000E+00  3.6801E-04  1.7409E-05  0.0000E+00  0.0000E+00  4.6299E-04  0.0000E+00  0.0000E+00  2.2568E-03
  4  0.0000E+00  3.7203E-04  1.5659E-04  4.6075E-04  0.0000E+00  6.0977E-04  8.4430E-04  1.6920E-03  3.3762E-05
  5  1.3053E-04  8.6841E-04  2.0217E-04  0.0000E+00  4.2642E-03  1.2951E-03  1.7667E-03  6.6062E-04  0.0000E+00
  6  0.0000E+00  1.2719E-03  0.0000E+00  6.2411E-04  7.7472E-04  1.7838E-04  2.0892E-03  1.0898E-03  6.3475E-03
  7  3.1537E-04  1.3407E-03  0.0000E+00  4.2857E-03  5.7974E-03  5.1000E-04  1.0632E-02  0.0000E+00  0.0000E+00
  8  0.0000E+00  2.6409E-03  1.9580E-03  0.0000E+00  2.9159E-05  5.7824E-04  0.0000E+00  5.0311E-03  0.0000E+00
  9  0.0000E+00  2.7822E-03  2.0051E-03  3.1198E-03  3.3462E-03  2.6425E-03  7.5422E-03  0.0000E+00  7.2567E-03
 10  3.9712E-02  4.4045E-03  3.0869E-03  2.3105E-02  1.7285E-02  0.0000E+00  1.3649E-02  0.0000E+00  5.9614E-03
 11  0.0000E+00  5.3780E-03  0.0000E+00  1.9304E-02  1.2188E-02  2.0090E-03  0.0000E+00  0.0000E+00  0.0000E+00
 12  0.0000E+00  9.3160E-03  0.0000E+00  2.1109E-02  0.0000E+00  2.1997E-02  0.0000E+00  0.0000E+00  3.2745E-02
 13  0.0000E+00  2.8959E-02  1.5556E-02  5.9410E-02  0.0000E+00  7.3692E-02  6.7152E-03  1.1337E-01  0.0000E+00
 14  0.0000E+00  1.1278E-01  2.4847E-02  4.8270E-01  0.0000E+00  5.9516E-02  1.0521E+00  2.1133E-01  3.7891E-01
 15  0.0000E+00  1.1994E-01  0.0000E+00  0.0000E+00  0.0000E+00  2.5811E-01  3.1625E-01  1.1506E+00  7.4449E-01
 16  0.0000E+00  2.3932E-01  1.3364E-01  8.4728E-01  0.0000E+00  1.7205E-01  2.6900E+00  1.0309E+00  1.3818E+00
 17  0.0000E+00  4.0994E-01  2.1299E-02  2.0119E+00  7.3684E-01  3.7618E-01  3.7753E+00  1.5275E+00  4.2830E-01
 18  1.1022E-02  8.3928E-03  9.4854E-03  7.3213E-03  8.7596E-03  8.8770E-03  1.0049E-02  8.9355E-03  7.2738E-03
 19  0.0000E+00  3.1346E-04  2.4794E-04  1.4138E-03  0.0000E+00  0.0000E+00  1.4624E-03  4.2724E-04  0.0000E+00
 20  0.0000E+00  3.9505E-04  3.0092E-05  0.0000E+00  1.6565E-03  0.0000E+00  0.0000E+00  9.6006E-04  6.1556E-04
 21  0.0000E+00  6.1936E-04  2.2398E-04  0.0000E+00  1.2151E-03  5.1373E-04  0.0000E+00  1.8333E-03  8.3122E-04
 22  4.9400E-05  9.0872E-04  5.8197E-04  1.9126E-03  3.7912E-04  0.0000E+00  2.1450E-03  8.7478E-04  9.4244E-03
 23  1.0639E-03  9.2226E-04  8.2412E-04  0.0000E+00  5.0180E-03  1.2973E-03  3.2380E-03  3.2346E-03  3.0741E-03
 24  0.0000E+00  1.3475E-03  4.2258E-04  0.0000E+00  0.0000E+00  1.0578E-03  0.0000E+00  3.3734E-03  0.0000E+00
 25  0.0000E+00  2.0062E-03  2.2096E-03  1.5523E-03  6.4008E-04  0.0000E+00  0.0000E+00  4.1506E-03  4.1271E-03
 26  0.0000E+00  3.6112E-03  5.4801E-03  3.5537E-03  0.0000E+00  2.5810E-03  4.7861E-04  1.0766E-02  0.0000E+00
 27  0.0000E+00  5.6108E-03  1.5501E-03  3.1353E-02  2.3575E-03  4.3677E-03  1.8943E-02  2.1973E-02  8.9730E-02
 28  0.0000E+00  1.9912E-02  9.2354E-03  1.1584E-01  7.6055E-02  3.7675E-02  9.2616E-03  7.1742E-02  0.0000E+00
 29  0.0000E+00  3.6693E-02  1.9615E-02  3.4084E-01  7.6630E-03  5.4565E-02  0.0000E+00  1.0619E-02  3.3047E-01
 30  0.0000E+00  7.4051E-02  3.1935E-03  2.6658E-01  0.0000E+00  5.0902E-02  1.9334E-01  4.6161E-01  1.4344E-01
 31  0.0000E+00  1.2437E-01  5.0883E-02  8.3249E-01  3.8068E-01  2.1579E-01  5.6415E-01  1.2549E+00  1.2129E+00
 32  4.5860E-03  1.4991E-01  1.4485E-01  0.0000E+00  0.0000E+00  1.7036E-01  7.4904E-01  0.0000E+00  1.0892E+00
 33  0.0000E+00  3.3744E-01  1.6663E-02  2.0263E+00  7.9018E-01  6.8915E-02  0.0000E+00  5.5310E-01  2.9208E+00
 34  0.0000E+00  5.8827E-01  1.0875E-01  2.2248E+00  6.0907E-01  9.3755E-01  2.8281E+00  7.3795E-01  3.2525E+00
 35  0.0000E+00  8.4540E-04  0.0000E+00  3.8943E-04  1.1777E-03  0.0000E+00  0.0000E+00  2.7578E-03  3.5473E-03
 36  0.0000E+00  2.0421E-04  7.5116E-05  0.0000E+00  3.6139E-04  8.0373E-05  0.0000E+00  0.0000E+00  3.9131E-04
 37  0.0000E+00  3.1646E-04  0.0000E+00  9.8054E-04  0.0000E+00  4.7676E-04  6.6022E-06  0.0000E+00  0.0000E+00
 38  0.0000E+00  6.6647E-04  0.0000E+00  1.7473E-03  8.8967E-05  0.0000E+00  0.0000E+00  3.7222E-03  4.2907E-04
 39  0.0000E+00  1.0182E-03  6.3550E-04  1.4061E-03  0.0000E+00  0.0000E+00  7.4702E-04  1.6028E-03  1.9862E-03
 40  0.0000E+00  1.6854E-03  7.4079E-04  2.0838E-03  4.9837E-03  1.2703E-03  5.3951E-03  6.0033E-03  2.3653E-03
 41  0.0000E+00  2.4035E-03  1.5748E-03  1.5305E-02  1.1767E-03  0.0000E+00  3.0576E-04  2.2484E-03  0.0000E+00
 42  0.0000E+00  5.8962E-03  1.1820E-03  0.0000E+00  1.5647E-02  9.9494E-03  0.0000E+00  1.0164E-02  1.3305E-04
 43  0.0000E+00  8.5869E-03  0.0000E+00  1.0314E-02  0.0000E+00  0.0000E+00  0.0000E+00  1.7196E-02  0.0000E+00
 44  0.0000E+00  1.5631E-02  1.6341E-03  2.5637E-02  4.0601E-02  5.6241E-03  2.7734E-02  0.0000E+00  0.0000E+00
 45  0.0000E+00  2.9095E-02  3.4250E-03  5.1089E-02  4.3442E-02  9.4935E-02  0.0000E+00  0.0000E+00  1.8166E-02
 46  6.6953E-01  7.0749E-01  7.3666E-01  5.7864E-01  7.3199E-01  8.1825E-01  5.9955E-01  6.3347E-01  4.7060E-01
 47  6.0841E+00  4.0562E+00  3.5573E+00  4.3825E+00  4.1624E+00  4.3974E+00  4.6152E+00  3.3567E+00  3.4498E+00
 48  1.1199E+01  2.1113E-01  4.7814E-02  9.7286E-02  1.4485E+00  1.2976E-01  1.1277E+00  1.1856E+00  2.3027E-01
 49  0.0000E+00  4.9915E-01  0.0000E+00  4.8440E-01  1.9482E+00  9.5994E-01  8.8750E-01  2.1889E+00  0.0000E+00
 50  2.4792E+01  2.1260E+00  1.5092E+00  3.1624E+00  3.6201E+00  1.5095E+00  1.8251E+00  0.0000E+00  5.1303E+00
 51  1.9117E-05  5.9530E-02  6.0788E-02  5.3461E-02  5.0093E-02  5.9955E-02  4.9662E-02  4.1885E-02  2.3479E-02
 52  0.0000E+00  2.6069E-04  2.0068E-04  2.7405E-06  3.8868E-04  1.8197E-04  2.1542E-04  2.6551E-04  1.2628E-03
 53  4.8640E-04  3.9488E-04  5.8688E-05  6.2038E-04  4.6088E-04  0.0000E+00  1.5851E-03  8.3489E-05  1.6584E-03
 54  6.5197E-03  5.9487E-04  0.0000E+00  4.4507E-04  4.0691E-04  8.4865E-04  2.3898E-03  5.0454E-04  1.4652E-03
 55  0.0000E+00  1.0203E-03  6.3643E-04  5.2688E-03  0.0000E+00  5.4433E-04  9.4926E-03  9.4299E-04  3.0500E-03
 56  0.0000E+00  1.8025E-03  7.4909E-04  5.0062E-05  4.0275E-03  2.9487E-03  0.0000E+00  1.4104E-02  6.4040E-03
 57  0.0000E+00  2.6849E-03  2.0954E-03  7.5289E-03  1.2116E-03  1.5626E-03  0.0000E+00  0.0000E+00  7.4691E-03
 58  0.0000E+00  4.3360E-03  1.0472E-03  1.2149E-02  1.0777E-03  2.5971E-03  0.0000E+00  6.6084E-05  3.5008E-02
 59  0.0000E+00  8.5187E-03  1.1570E-03  0.0000E+00  6.3427E-02  7.2075E-03  0.0000E+00  6.2676E-03  2.0190E-02
 60  0.0000E+00  1.6771E-02  1.0762E-02  3.3337E-02  4.1665E-02  0.0000E+00  0.0000E+00  0.0000E+00  0.0000E+00
 61  6.1546E+00  2.4855E-01  1.4272E-01  1.7413E-01  2.5377E-01  2.9761E-01  8.6000E-01  8.4290E-01  4.0606E-01
 62  1.5914E+01  6.5211E-02  3.0569E-02  0.0000E+00  1.3460E-01  6.3227E-02  3.8078E-01  1.5703E-01  3.4666E-01
 63  0.0000E+00  1.3915E-01  7.2807E-02  0.0000E+00  3.1733E-01  6.9995E-01  1.9359E-01  3.3612E-01  2.9140E-01
 64  0.0000E+00  6.3977E+00  6.9811E+00  5.3261E+00  5.2171E+00  4.8820E+00  8.3735E+00  9.8210E+00  6.5922E+00
 65  3.5120E+01  1.6260E+01  1.5015E+01  1.3929E+01  1.7135E+01  1.4092E+01  1.4984E+01  2.1241E+01  1.1722E+01
 66  0.0000E+00  6.6825E+01  7.1241E+01  6.2312E+01  6.2092E+01  6.9431E+01  5.3791E+01  5.2932E+01  5.9169E+01

# AV, chi2 & Mass for <> & i_chain = 1 ...  7 solutions
AV      -0.8722      0.0364     -0.0186      0.0395      0.0043      0.0315      0.0027     -0.0719     -0.1095
chi2 1.2561E-05  1.5643E-05  1.5553E-05  1.5477E-05  1.5465E-05  1.5578E-05  1.5366E-05  1.5368E-05  1.5447E-05
Mass 4.5787E-14  2.2250E-13  2.3332E-13  2.0596E-13  2.0984E-13  2.2099E-13  1.8208E-13  1.7781E-13  1.7969E-13
 249.35                                  [v0_min (km/s) before EX0s...]
 150.00                                  [vd_min (km/s) before EX0s...]


## Synthetic spectrum (Best Model) ##l_obs f_obs f_syn wei
 3478    [Nl_obs]
 3741.00    0.75405   0.63618    0.000
 3742.00    0.80626   0.69506    0.000
 3743.00    0.64110   0.73905    0.000
 3744.00    0.18159   0.75819    0.000
 3745.00   -0.44943   0.75075    0.000
 3746.00   -0.38525   0.72311    0.000
 3747.00    0.03197   0.68534   -1.000
 3748.00    0.52049   0.64379   -1.000
 3749.00    1.04036   0.60104   -1.000
 3750.00    1.69108   0.56220   -1.000
 3751.00    2.39120   0.53442   -1.000
 3752.00    2.15312   0.52696   -1.000
 3753.00    1.61436   0.54917   -1.000
 3754.00    1.18777   0.60113   -1.000
 3755.00    0.79124   0.67091   -1.000
 3756.00    0.54970   0.74094   -1.000
 3757.00    0.34218   0.79449   -1.000
 3758.00    0.25180   0.81888   -1.000
 3759.00    0.18187   0.80991   -1.000
 3760.00   -0.12800   0.77573    0.000
 3761.00   -0.46974   0.73543    0.000
 3762.00   -0.20309   0.70939    0.000
 3763.00    0.12073   0.70532   -1.000
 3764.00    0.57700   0.71686   -1.000
 3765.00    1.04092   0.73387   -1.000
 3766.00    0.81255   0.74765   -1.000
 3767.00    0.57091   0.75279   -1.000
 3768.00    0.71302   0.74911   -1.000
 3769.00    0.84767   0.73760   -1.000
 3770.00    0.80107   0.72113   -1.000
 3771.00    0.74864   0.70763   -1.000
 3772.00    0.61988   0.70346   -1.000
 3773.00    0.53229   0.70994   -1.000
 3774.00    0.80617   0.72801   -1.000
 3775.00    1.03744   0.75620   -1.000
 3776.00    0.99250   0.78679   -1.000
 3777.00    0.86730   0.81250   -1.000
 3778.00    0.33592   0.83304   -1.000
 3779.00   -0.05389   0.85309    0.000
 3780.00    0.13577   0.87694   -1.000
 3781.00    0.27022   0.90462   -1.000
 3782.00    0.21739   0.93321   -1.000
 3783.00    0.24214   0.95924   -1.000
 3784.00    0.48876   0.97823   -1.000
 3785.00    0.57223   0.98640   -1.000
 3786.00    0.25711   0.98170   -1.000
 3787.00    0.03792   0.96243   -1.000
 3788.00    0.02094   0.92745   -1.000
 3789.00    0.28302   0.87982   -1.000
 3790.00    1.05626   0.83161   -1.000
 3791.00    1.36918   0.79609   -1.000
 3792.00    0.94528   0.77631   -1.000
 3793.00    0.92783   0.76812   -1.000
 3794.00    1.48131   0.76451   -1.000
 3795.00    1.62290   0.75616   -1.000
 3796.00    1.25540   0.73635   -1.000
 3797.00    0.77793   0.70574   -1.000
 3798.00    0.18067   0.67019   -1.000
 3799.00   -0.17346   0.63743    0.000
 3800.00   -0.29394   0.61536    0.000
 3801.00   -0.27458   0.61181    0.000
 3802.00   -0.13674   0.63384    0.000
 3803.00    0.04551   0.68124   -1.000
 3804.00    0.26088   0.74296   -1.000
 3805.00    0.41965   0.80382   -1.000
 3806.00    0.54131   0.85210   -1.000
 3807.00    0.46908   0.88086   -1.000
 3808.00    0.28560   0.89019   -1.000
 3809.00    0.05299   0.88906   -1.000
 3810.00   -0.20418   0.88969    0.000
 3811.00   -0.01213   0.90043    0.000
 3812.00    0.37418   0.91924   -1.000
 3813.00    0.87525   0.93295   -1.000
 3814.00    1.41889   0.92835   -1.000
 3815.00    1.46854   0.90168   -1.000
 3816.00    1.36290   0.85953   -1.000
 3817.00    0.73488   0.81706   -1.000
 3818.00   -0.03018   0.78900    0.000
 3819.00    0.41533   0.77837   -1.000
 3820.00    1.12021   0.77823   -1.000
 3821.00    1.27769   0.77864   -1.000
 3822.00    1.34227   0.77237   -1.000
 3823.00    0.98571   0.76073   -1.000
 3824.00    0.57510   0.75019   -1.000
 3825.00    0.46391   0.74295   -1.000
 3826.00    0.37960   0.73272   -1.000
 3827.00    0.31935   0.71250   -1.000
 3828.00    0.26039   0.68596   -1.000
 3829.00    0.50533   0.66353   -1.000
 3830.00    0.76147   0.65022   -1.000
 3831.00    1.44855   0.64364   -1.000
 3832.00    2.09737   0.63733   -1.000
 3833.00    1.89615   0.62438   -1.000
 3834.00    1.70569   0.60148   -1.000
 3835.00    1.64911   0.57019   -1.000
 3836.00    1.55187   0.53821   -1.000
 3837.00    1.11104   0.51591   -1.000
 3838.00    0.70201   0.50771   -1.000
 3839.00    0.49301   0.51235   -1.000
 3840.00    0.37058   0.52655   -1.000
 3841.00    0.67533   0.54688   -1.000
 3842.00    0.85788   0.57374   -1.000
 3843.00    0.55126   0.61002   -1.000
 3844.00    0.39101   0.65497   -1.000
 3845.00    0.71739   0.70423   -1.000
 3846.00    0.94538   0.75041   -1.000
 3847.00    0.89708   0.78632    0.000
 3848.00    0.65808   0.81134    0.000
 3849.00   -0.03892   0.82737    0.000
 3850.00   -0.40931   0.83609    0.000
 3851.00   -0.10233   0.84041    0.000
 3852.00    0.22064   0.84191    0.000
 3853.00    0.57243   0.84262    0.000
 3854.00    1.02163   0.84707    0.000
 3855.00    1.62445   0.85507    0.000
 3856.00    1.78688   0.85893    0.000
 3857.00    1.33964   0.85380    0.000
 3858.00    1.23247   0.84183    0.000
 3859.00    1.53965   0.82485    0.000
 3860.00    1.46654   0.80610    0.000
 3861.00    0.98492   0.79166    0.000
 3862.00    0.64087   0.78525    0.000
 3863.00    0.42716   0.79176    0.000
 3864.00    0.55553   0.81464    0.000
 3865.00    0.96967   0.84676    0.000
 3866.00    0.94422   0.87501    0.000
 3867.00    0.59543   0.89141    0.000
 3868.00    0.48451   0.89627    0.000
 3869.00    0.52722   0.89383    0.000
 3870.00    0.47368   0.88771    0.000
 3871.00    0.36574   0.87831    0.000
 3872.00    0.68395   0.86328    0.000
 3873.00    1.21177   0.84212    0.000
 3874.00    1.15157   0.81994    0.000
 3875.00    0.84131   0.80569    0.000
 3876.00    0.72844   0.80537    0.000
 3877.00    0.68747   0.81826    0.000
 3878.00    1.02994   0.83418    0.000
 3879.00    1.49061   0.84000    0.000
 3880.00    1.80539   0.83225    0.000
 3881.00    2.08272   0.81648   -1.000
 3882.00    2.12880   0.80079   -1.000
 3883.00    2.12653   0.79238   -1.000
 3884.00    1.81843   0.78821   -1.000
 3885.00    1.45990   0.77876   -1.000
 3886.00    1.00535   0.76164   -1.000
 3887.00    0.53890   0.73891   -1.000
 3888.00    0.94473   0.70917   -1.000
 3889.00    1.42521   0.67259   -1.000
 3890.00    1.39758   0.64021   -1.000
 3891.00    1.34463   0.62590   -1.000
 3892.00    0.49229   0.63430   -1.000
 3893.00   -0.35861   0.66393    0.000
 3894.00   -0.27119   0.70885    0.000
 3895.00   -0.16750   0.75638    0.000
 3896.00    0.26895   0.79457   -1.000
 3897.00    0.69629   0.81971   -1.000
 3898.00    1.01594   0.83490   -1.000
 3899.00    1.30618   0.84485   -1.000
 3900.00    1.35685   0.85401   -1.000
 3901.00    1.42880   0.86400   -1.000
 3902.00    1.63065   0.87361   -1.000
 3903.00    1.69652   0.88296   -1.000
 3904.00    1.10802   0.89233   -1.000
 3905.00    0.68443   0.89812   -1.000
 3906.00    0.90663   0.89387   -1.000
 3907.00    1.04774   0.88239   -1.000
 3908.00    0.92452   0.87510   -1.000
 3909.00    0.80666   0.87864   -1.000
 3910.00    0.70358   0.89664   -1.000
 3911.00    0.65561   0.92877   -1.000
 3912.00    0.73783   0.96566   -1.000
 3913.00    0.97914   0.99579   -1.000
 3914.00    1.54516   1.01323   -1.000
 3915.00    1.85055   1.01809   -1.000
 3916.00    1.69300   1.01222   -1.000
 3917.00    1.45871   0.99769   -1.000
 3918.00    1.10515   0.97897   -1.000
 3919.00    0.76286   0.95881   -1.000
 3920.00    0.43595   0.93603   -1.000
 3921.00    0.43305   0.91158   -1.000
 3922.00    0.81937   0.88791   -1.000
 3923.00    1.11573   0.86727   -1.000
 3924.00    1.31681   0.85265   -1.000
 3925.00    1.21439   0.84510   -1.000
 3926.00    0.82845   0.84014   -1.000
 3927.00    0.54141   0.82956   -1.000
 3928.00    0.33581   0.80610   -1.000
 3929.00   -0.08249   0.76551    0.000
 3930.00   -0.65498   0.70952    0.000
 3931.00   -0.89809   0.64352    0.000
 3932.00   -0.93157   0.57282    0.000
 3933.00   -0.57745   0.50319    0.000
 3934.00   -0.00761   0.44023    0.000
 3935.00    0.48697   0.38959   -1.000
 3936.00    0.94513   0.35731   -1.000
 3937.00    0.79184   0.34865   -1.000
 3938.00    0.38292   0.36628   -1.000
 3939.00   -0.07364   0.40866    0.000
 3940.00   -0.54724   0.46955    0.000
 3941.00    0.35785   0.53904   -1.000
 3942.00    1.67966   0.60661   -1.000
 3943.00    1.47009   0.66405   -1.000
 3944.00    0.87590   0.70661   -1.000
 3945.00    0.52701   0.73578   -1.000
 3946.00    0.22813   0.75940   -1.000
 3947.00   -0.00259   0.78436    0.000
 3948.00   -0.22240   0.81276    0.000
 3949.00   -0.09656   0.84374    0.000
 3950.00    0.07054   0.87286   -1.000
 3951.00    0.61098   0.89464   -1.000
 3952.00    1.18183   0.90945   -1.000
 3953.00    0.85460   0.92209   -1.000
 3954.00    0.48609   0.93486   -1.000
 3955.00    0.78742   0.94560   -1.000
 3956.00    1.08175   0.95127   -1.000
 3957.00    0.56480   0.95236   -1.000
 3958.00    0.10439   0.95000   -1.000
 3959.00    0.71517   0.94199   -1.000
 3960.00    1.21288   0.92781    0.000
 3961.00    0.43630   0.90939    0.000
 3962.00   -0.21454   0.88438    0.000
 3963.00    0.12306   0.84687    0.000
 3964.00    0.48455   0.79427    0.000
 3965.00    0.98778   0.73081    0.000
 3966.00    1.31866   0.66440    0.000
 3967.00    0.84026   0.59899    0.000
 3968.00    0.45976   0.53308    0.000
 3969.00    0.45442   0.46681    0.000
 3970.00    0.44195   0.40659    0.000
 3971.00    0.40667   0.36312    0.000
 3972.00    0.23154   0.34605    0.000
 3973.00   -0.32234   0.35956    0.000
 3974.00   -0.48272   0.40098    0.000
 3975.00    0.27064   0.46283    0.000
 3976.00    0.91426   0.53580    0.000
 3977.00    1.33747   0.61169    0.000
 3978.00    1.39556   0.68610    0.000
 3979.00    0.81501   0.75742    0.000
 3980.00    0.63154   0.82387    0.000
 3981.00    1.05596   0.88290   -1.000
 3982.00    1.42696   0.93147   -1.000
 3983.00    1.72611   0.96658   -1.000
 3984.00    1.77151   0.98742   -1.000
 3985.00    1.51642   0.99702   -1.000
 3986.00    1.50892   1.00255   -1.000
 3987.00    1.75996   1.01127   -1.000
 3988.00    1.82509   1.02592   -1.000
 3989.00    1.71898   1.04425   -1.000
 3990.00    1.26448   1.06157   -1.000
 3991.00    0.52711   1.07564   -1.000
 3992.00    0.54850   1.08761   -1.000
 3993.00    1.11202   1.09808   -1.000
 3994.00    1.20156   1.10740   -1.000
 3995.00    0.99394   1.11590   -1.000
 3996.00    1.38395   1.12060   -1.000
 3997.00    2.10147   1.11671   -1.000
 3998.00    1.85435   1.10376   -1.000
 3999.00    1.14774   1.08844   -1.000
 4000.00    1.06018   1.08081   -1.000
 4001.00    1.22705   1.08711   -1.000
 4002.00    1.28560   1.10720   -1.000
 4003.00    1.30611   1.13526   -1.000
 4004.00    1.05824   1.15943   -1.000
 4005.00    0.73085   1.16713   -1.000
 4006.00    1.11375   1.15522   -1.000
 4007.00    1.67114   1.13153   -1.000
 4008.00    1.25166   1.10700   -1.000
 4009.00    0.63795   1.09211   -1.000
 4010.00    0.70372   1.09568   -1.000
 4011.00    0.87508   1.11793   -1.000
 4012.00    1.20502   1.14766   -1.000
 4013.00    1.55319   1.17269   -1.000
 4014.00    1.34072   1.18925   -1.000
 4015.00    1.08491   1.19971   -1.000
 4016.00    1.12765   1.20724   -1.000
 4017.00    1.18297   1.21328   -1.000
 4018.00    0.33682   1.21815   -1.000
 4019.00   -0.50205   1.22295    0.000
 4020.00   -0.66189   1.22862    0.000
 4021.00   -0.78690   1.23397    0.000
 4022.00   -0.29805   1.23805    0.000
 4023.00    0.19570   1.24015   -1.000
 4024.00    0.74217   1.23648   -1.000
 4025.00    1.23250   1.22481   -1.000
 4026.00    1.29661   1.21103   -1.000
 4027.00    1.36485   1.20372   -1.000
 4028.00    1.45691   1.20589   -1.000
 4029.00    1.61259   1.21457   -1.000
 4030.00    2.05986   1.22158   -1.000
 4031.00    2.26623   1.21489   -1.000
 4032.00    1.56895   1.18698   -1.000
 4033.00    1.05839   1.14181   -1.000
 4034.00    1.13323   1.09223   -1.000
 4035.00    1.17252   1.05498   -1.000
 4036.00    1.11721   1.04376   -1.000
 4037.00    1.04074   1.06174   -1.000
 4038.00    0.91592   1.10206   -1.000
 4039.00    0.92037   1.15364   -1.000
 4040.00    1.18037   1.20309   -1.000
 4041.00    1.32933   1.23869   -1.000
 4042.00    1.28703   1.25470   -1.000
 4043.00    1.02929   1.25181   -1.000
 4044.00    0.44658   1.23325   -1.000
 4045.00    0.13514   1.20148   -1.000
 4046.00    0.18332   1.15995   -1.000
 4047.00    0.30139   1.11612   -1.000
 4048.00    0.50108   1.08079   -1.000
 4049.00    0.71134   1.06591   -1.000
 4050.00    0.93249   1.07981   -1.000
 4051.00    1.07686   1.11909   -1.000
 4052.00    1.15148   1.16565   -1.000
 4053.00    0.93490   1.19839   -1.000
 4054.00    0.48523   1.20928   -1.000
 4055.00    0.54702   1.20188    0.063
 4056.00    0.96895   1.18227    0.023
 4057.00    1.00000   1.15767    0.019
 4058.00    0.78959   1.13510    0.018
 4059.00    0.64119   1.11949    0.018
 4060.00    0.52624   1.11412    0.018
 4061.00    0.80828   1.11820    0.018
 4062.00    1.27637   1.12526    0.018
 4063.00    1.46127   1.12779    0.018
 4064.00    1.53175   1.12051    0.018
 4065.00    1.63290   1.10258    0.018
 4066.00    1.74462   1.07997    0.018
 4067.00    1.81047   1.06270    0.018
 4068.00    1.86299   1.06068    0.018
 4069.00    1.19452   1.07769    0.018
 4070.00    0.35286   1.10491    0.018
 4071.00    0.23367   1.12691    0.018
 4072.00    0.25446   1.13698    0.018
 4073.00    0.55634   1.13790    0.018
 4074.00    0.90057   1.13247    0.018
 4075.00    0.75578   1.12214    0.018
 4076.00    0.55688   1.11018    0.018
 4077.00    0.35229   1.09789    0.018
 4078.00    0.14728   1.08115    0.018
 4079.00    0.06215   1.05810    0.018
 4080.00   -0.01839   1.03815    0.000
 4081.00    0.36590   1.03566    0.018
 4082.00    0.74371   1.05755    0.018
 4083.00    0.78063   1.09708    0.019
 4084.00    0.81893   1.13764    0.019
 4085.00    0.88021   1.16448    0.019
 4086.00    0.98404   1.17327    0.019
 4087.00    1.52563   1.17044    0.019
 4088.00    1.89810   1.16862    0.019
 4089.00    1.02947   1.17746    0.019
 4090.00    0.24100   1.19681    0.019
 4091.00   -0.09775   1.21974    0.000
 4092.00   -0.18614   1.23765    0.000
 4093.00    0.84586   1.24409    0.000
 4094.00    1.68057   1.23827    0.000
 4095.00    1.79071   1.22308    0.000
 4096.00    1.77930   1.20052    0.000
 4097.00    1.39407   1.17134    0.000
 4098.00    1.07468   1.13639    0.000
 4099.00    0.92739   1.09600    0.000
 4100.00    0.88139   1.05065    0.000
 4101.00    1.06285   1.00242    0.000
 4102.00    1.18597   0.95348    0.000
 4103.00    1.19556   0.90804    0.000
 4104.00    1.14665   0.87415    0.000
 4105.00    0.99851   0.86113    0.000
 4106.00    0.80631   0.87555    0.000
 4107.00    0.54861   0.91617    0.000
 4108.00    0.49982   0.97071    0.000
 4109.00    0.72401   1.02262    0.000
 4110.00    0.93349   1.06063    0.000
 4111.00    1.12605   1.08181    0.000
 4112.00    1.15799   1.08993    0.000
 4113.00    1.02688   1.09305    0.017
 4114.00    0.82985   1.09928    0.023
 4115.00    0.57379   1.11318    0.075
 4116.00    0.41892   1.13466   -1.000
 4117.00    0.34387   1.15913   -1.000
 4118.00    0.35167   1.17896   -1.000
 4119.00    0.41697   1.18712   -1.000
 4120.00    0.45531   1.18205   -1.000
 4121.00    0.47724   1.16793   -1.000
 4122.00    0.52895   1.15039   -1.000
 4123.00    0.59648   1.13519   -1.000
 4124.00    0.72428   1.12771    0.050
 4125.00    0.87989   1.12955    0.020
 4126.00    1.04769   1.13675    0.017
 4127.00    1.22032   1.14395    0.017
 4128.00    0.75978   1.14776    0.017
 4129.00    0.08495   1.14577    0.017
 4130.00    0.18807   1.13661    0.017
 4131.00    0.51255   1.12106    0.017
 4132.00    0.98332   1.10195    0.017
 4133.00    1.48844   1.08265    0.017
 4134.00    1.19102   1.06672    0.017
 4135.00    0.74212   1.05760    0.017
 4136.00    0.54668   1.05934    0.017
 4137.00    0.38825   1.07486    0.017
 4138.00    0.58169   1.10314    0.018
 4139.00    0.81253   1.13902    0.018
 4140.00    0.81420   1.17433    0.018
 4141.00    0.80002   1.20074    0.018
 4142.00    1.31539   1.21162    0.018
 4143.00    1.84904   1.20326    0.018
 4144.00    1.44466   1.17662    0.018
 4145.00    1.05027   1.13927    0.018
 4146.00    1.04703   1.10396    0.018
 4147.00    1.05987   1.08271    0.018
 4148.00    1.32151   1.08147    0.018
 4149.00    1.55511   1.09702    0.018
 4150.00    1.51220   1.11776    0.018
 4151.00    1.46681   1.13165    0.018
 4152.00    1.40373   1.13419    0.018
 4153.00    1.34995   1.12824    0.018
 4154.00    1.34694   1.11847    0.018
 4155.00    1.27335   1.10780    0.018
 4156.00    0.89123   1.09781    0.017
 4157.00    0.67395   1.08912    0.017
 4158.00    1.04960   1.08359    0.017
 4159.00    1.32676   1.08499    0.017
 4160.00    1.30672   1.09538    0.017
 4161.00    1.09417   1.11332    0.017
 4162.00    0.38725   1.13503    0.017
 4163.00    0.12380   1.15720    0.017
 4164.00    0.83992   1.17672    0.017
 4165.00    1.24169   1.19087    0.017
 4166.00    1.04128   1.19903    0.017
 4167.00    1.13563   1.20080    0.017
 4168.00    1.72261   1.19584    0.017
 4169.00    2.03098   1.18585    0.017
 4170.00    1.93123   1.17431    0.017
 4171.00    1.69330   1.16268    0.017
 4172.00    1.27739   1.14790    0.017
 4173.00    1.17643   1.12587    0.017
 4174.00    1.43286   1.09631    0.017
 4175.00    1.34199   1.06352    0.017
 4176.00    0.90353   1.03499    0.016
 4177.00    0.81785   1.01803    0.016
 4178.00    1.04356   1.01487    0.016
 4179.00    1.18308   1.02234    0.016
 4180.00    1.25557   1.03496    0.016
 4181.00    1.14156   1.04849    0.016
 4182.00    0.90001   1.06108    0.016
 4183.00    0.80645   1.07280    0.016
 4184.00    0.80160   1.08437    0.016
 4185.00    1.02651   1.09562    0.016
 4186.00    1.37159   1.10576    0.016
 4187.00    1.55080   1.11300    0.016
 4188.00    1.65478   1.11624    0.017
 4189.00    1.68668   1.11681    0.016
 4190.00    1.69047   1.11646    0.016
 4191.00    1.88981   1.11738    0.016
 4192.00    2.15410   1.12223    0.017
 4193.00    1.71511   1.13383    0.016
 4194.00    1.08011   1.15175    0.016
 4195.00    1.45917   1.16868    0.016
 4196.00    2.07088   1.17594    0.017
 4197.00    1.94292   1.16973    0.017
 4198.00    1.67902   1.15047    0.017
 4199.00    0.99869   1.12062    0.017
 4200.00    0.25947   1.08705    0.017
 4201.00    1.00400   1.05926    0.017
 4202.00    1.89981   1.04238    0.016
 4203.00    1.13886   1.03619    0.016
 4204.00    0.26996   1.03828    0.016
 4205.00    0.64613   1.04655    0.017
 4206.00    1.05997   1.05978    0.017
 4207.00    1.10638   1.07751    0.017
 4208.00    1.14522   1.09994    0.016
 4209.00    0.96159   1.12526    0.017
 4210.00    0.80977   1.14843    0.017
 4211.00    1.12117   1.16597    0.017
 4212.00    1.39991   1.17804    0.017
 4213.00    1.36982   1.18533    0.017
 4214.00    1.27241   1.18788    0.017
 4215.00    0.71216   1.18441    0.017
 4216.00    0.36833   1.17379    0.017
 4217.00    1.17465   1.15901    0.017
 4218.00    1.76560   1.14704    0.017
 4219.00    1.43672   1.14488    0.017
 4220.00    1.20514   1.15652    0.017
 4221.00    1.31634   1.17988    0.016
 4222.00    1.30924   1.20626    0.016
 4223.00    0.95178   1.22291    0.016
 4224.00    0.86528   1.21897    0.016
 4225.00    1.46261   1.19044    0.016
 4226.00    1.79534   1.13925    0.016
 4227.00    1.55309   1.07290    0.016
 4228.00    1.31391   1.00609    0.016
 4229.00    1.08054   0.95886    0.015
 4230.00    1.01423   0.94622    0.015
 4231.00    1.22294   0.97122    0.015
 4232.00    1.28330   1.02389    0.015
 4233.00    1.12951   1.08384    0.015
 4234.00    1.03281   1.13039    0.015
 4235.00    1.00861   1.15238    0.015
 4236.00    0.92115   1.15069    0.014
 4237.00    0.76291   1.13518    0.014
 4238.00    0.79794   1.11798    0.014
 4239.00    1.02369   1.10670    0.014
 4240.00    1.12874   1.10424    0.014
 4241.00    1.12874   1.11068    0.014
 4242.00    1.01116   1.12507    0.015
 4243.00    0.80342   1.14586    0.015
 4244.00    0.89282   1.17073    0.015
 4245.00    1.18247   1.19683    0.015
 4246.00    1.43299   1.21925    0.015
 4247.00    1.66043   1.23179    0.016
 4248.00    1.54394   1.23026    0.016
 4249.00    1.25038   1.21497    0.015
 4250.00    0.80281   1.18961    0.015
 4251.00    0.28652   1.15942    0.015
 4252.00    0.32793   1.13221    0.015
 4253.00    0.58318   1.11473    0.016
 4254.00    0.96497   1.10764    0.016
 4255.00    1.38801   1.10775    0.016
 4256.00    1.79643   1.11244    0.015
 4257.00    2.20085   1.12096    0.015
 4258.00    2.15243   1.13166    0.015
 4259.00    2.00253   1.14027    0.016
 4260.00    1.81253   1.14265    0.016
 4261.00    1.61536   1.13683    0.016
 4262.00    1.47374   1.12569    0.016
 4263.00    1.33973   1.11770    0.016
 4264.00    1.03565   1.12227    0.015
 4265.00    0.71495   1.14445    0.015
 4266.00    0.72157   1.18127    0.015
 4267.00    0.74821   1.22170    0.015
 4268.00    1.08727   1.25187    0.015
 4269.00    1.43290   1.26202    0.015
 4270.00    1.41491   1.24895    0.016
 4271.00    1.38393   1.21456    0.016
 4272.00    1.00942   1.16441    0.015
 4273.00    0.67695   1.10819    0.015
 4274.00    0.92262   1.05734    0.016
 4275.00    1.10902   1.02088    0.016
 4276.00    0.75704   1.00540    0.016
 4277.00    0.44971   1.01392    0.016
 4278.00    0.43981   1.04342    0.016
 4279.00    0.51693   1.08582    0.016
 4280.00    1.04452   1.12951    0.016
 4281.00    1.52810   1.16350    0.017
 4282.00    1.82795   1.18260   -2.000
 4283.00    2.07004   1.18668   -2.000
 4284.00    2.11275   1.17990   -2.000
 4285.00    2.13512   1.16882   -2.000
 4286.00    2.09833   1.15745   -2.000
 4287.00    1.98089   1.14664   -2.000
 4288.00    1.66338   1.13453   -2.000
 4289.00    1.34092   1.11702   -2.000
 4290.00    1.00788   1.09153   -2.000
 4291.00    0.78767   1.06093   -2.000
 4292.00    0.77693   1.03324   -2.000
 4293.00    0.93491   1.01764   -2.000
 4294.00    1.36652   1.01857   -2.000
 4295.00    1.43967   1.03307   -2.000
 4296.00    1.00287   1.05350   -2.000
 4297.00    0.74329   1.07023   -2.000
 4298.00    0.70551   1.07451    0.016
 4299.00    0.85311   1.06172    0.016
 4300.00    1.20521   1.03178    0.016
 4301.00    1.49730   0.99035    0.016
 4302.00    1.73100   0.94667    0.016
 4303.00    1.87931   0.90873    0.016
 4304.00    1.95434   0.88328    0.016
 4305.00    1.89301   0.87374    0.016
 4306.00    1.72862   0.87630    0.015
 4307.00    1.46317   0.88369    0.015
 4308.00    1.13063   0.88830    0.015
 4309.00    1.03979   0.88555    0.015
 4310.00    1.08950   0.87846    0.015
 4311.00    0.95385   0.87471    0.015
 4312.00    0.72426   0.88142    0.015
 4313.00    0.97274   0.90221    0.015
 4314.00    1.43100   0.93546    0.015
 4315.00    1.71180   0.97636    0.015
 4316.00    1.92575   1.02221    0.015
 4317.00    1.77715   1.07325    0.015
 4318.00    1.51264   1.12841    0.015
 4319.00    1.37020   1.18406    0.015
 4320.00    1.26038   1.23350    0.015
 4321.00    1.06807   1.26807    0.015
 4322.00    0.85771   1.28197    0.015
 4323.00    0.90764   1.27483    0.015
 4324.00    1.00284   1.24837    0.015
 4325.00    1.04368   1.20574    0.015
 4326.00    1.07733   1.15261    0.015
 4327.00    0.95998   1.09907    0.015
 4328.00    0.82852   1.05986    0.015
 4329.00    0.90197   1.04729    0.014
 4330.00    0.98713   1.06442    0.000
 4331.00    0.92986   1.10313    0.000
 4332.00    0.87154   1.14929    0.000
 4333.00    1.07433   1.18954    0.000
 4334.00    1.27332   1.21648    0.000
 4335.00    1.38125   1.23005    0.000
 4336.00    1.49087   1.23293    0.000
 4337.00    1.62240   1.22373    0.000
 4338.00    1.70067   1.19687    0.000
 4339.00    1.31356   1.14880    0.000
 4340.00    0.94457   1.08162    0.000
 4341.00    0.69260   1.00503    0.000
 4342.00    0.51930   0.93625    0.000
 4343.00    0.74286   0.89255    0.000
 4344.00    0.94539   0.88228    0.000
 4345.00    1.06213   0.90435    0.000
 4346.00    1.19995   0.95081    0.000
 4347.00    1.40910   1.00899    0.000
 4348.00    1.62861   1.06755    0.000
 4349.00    1.87765   1.12014    0.000
 4350.00    1.97867   1.16236    0.000
 4351.00    1.71880   1.18874    0.045
 4352.00    1.49630   1.19470   -1.000
 4353.00    1.35240   1.18145   -1.000
 4354.00    1.19180   1.15760   -1.000
 4355.00    1.00068   1.13553   -1.000
 4356.00    0.89000   1.12669   -1.000
 4357.00    0.90785   1.13675   -1.000
 4358.00    1.12024   1.16170    0.072
 4359.00    1.60541   1.19062    0.021
 4360.00    1.93006   1.21396    0.015
 4361.00    2.05666   1.22892    0.015
 4362.00    2.13349   1.23894    0.015
 4363.00    2.15619   1.24978    0.015
 4364.00    2.00356   1.26567    0.015
 4365.00    1.68272   1.28692    0.015
 4366.00    1.49836   1.30921    0.015
 4367.00    1.42945   1.32534    0.015
 4368.00    1.52822   1.32903    0.015
 4369.00    1.75189   1.31858    0.015
 4370.00    1.63280   1.29755    0.015
 4371.00    1.28942   1.27265    0.015
 4372.00    1.40030   1.25091    0.015
 4373.00    1.77137   1.23556    0.015
 4374.00    1.67115   1.22378    0.015
 4375.00    1.33585   1.20992    0.015
 4376.00    1.03276   1.19188    0.015
 4377.00    0.74356   1.17408    0.015
 4378.00    0.80581   1.16463    0.015
 4379.00    0.99810   1.16938    0.015
 4380.00    1.02308   1.18687    0.015
 4381.00    0.99559   1.20797    0.015
 4382.00    1.00597   1.21967    0.015
 4383.00    1.02626   1.20996    0.015
 4384.00    1.20698   1.17336    0.015
 4385.00    1.42197   1.11621    0.015
 4386.00    1.37841   1.05529    0.015
 4387.00    1.29113   1.00981    0.014
 4388.00    1.31330   0.99245    0.015
 4389.00    1.34946   1.00440    0.015
 4390.00    1.37562   1.03622    0.015
 4391.00    1.40090   1.07348    0.015
 4392.00    1.59411   1.10538    0.015
 4393.00    1.79627   1.12851    0.015
 4394.00    1.76079   1.14397    0.015
 4395.00    1.72021   1.15396    0.015
 4396.00    1.64387   1.16127    0.015
 4397.00    1.56178   1.16958    0.015
 4398.00    1.35353   1.18130    0.015
 4399.00    1.16748   1.19556    0.015
 4400.00    1.25564   1.20837    0.015
 4401.00    1.33416   1.21427    0.015
 4402.00    1.33156   1.21074    0.015
 4403.00    1.35026   1.20004    0.015
 4404.00    1.50251   1.18493    0.015
 4405.00    1.62857   1.16646    0.015
 4406.00    1.62585   1.14613    0.015
 4407.00    1.66885   1.12682    0.015
 4408.00    1.89437   1.11126    0.015
 4409.00    1.99600   1.10306    0.015
 4410.00    1.68678   1.10660    0.015
 4411.00    1.50642   1.12363    0.015
 4412.00    1.68715   1.15170    0.015
 4413.00    1.83288   1.18549    0.015
 4414.00    1.89469   1.21679    0.015
 4415.00    1.82972   1.23527    0.015
 4416.00    1.50235   1.23440    0.014
 4417.00    1.30542   1.21693    0.014
 4418.00    1.34331   1.19281    0.014
 4419.00    1.31361   1.17493    0.014
 4420.00    1.17753   1.17332    0.014
 4421.00    1.25175   1.18894    0.014
 4422.00    1.61658   1.21308    0.014
 4423.00    1.93297   1.23387    0.014
 4424.00    2.19044   1.24390    0.014
 4425.00    2.15261   1.24307    0.014
 4426.00    1.79813   1.23622    0.014
 4427.00    1.61895   1.22941    0.014
 4428.00    1.60558   1.22652    0.014
 4429.00    1.64371   1.22767    0.014
 4430.00    1.72480   1.23012    0.014
 4431.00    1.86645   1.23041    0.014
 4432.00    2.05257   1.22748    0.015
 4433.00    2.03900   1.22199    0.014
 4434.00    1.89667   1.21377    0.014
 4435.00    1.69030   1.20222    0.014
 4436.00    1.44780   1.18829    0.014
 4437.00    1.50881   1.17621    0.014
 4438.00    1.71881   1.17266    0.014
 4439.00    1.89101   1.18288    0.014
 4440.00    2.04718   1.20652    0.015
 4441.00    1.81271   1.23540    0.014
 4442.00    1.43627   1.25670    0.014
 4443.00    1.20455   1.26055    0.014
 4444.00    1.01734   1.24620    0.014
 4445.00    1.17963   1.22318    0.014
 4446.00    1.43139   1.20564    0.014
 4447.00    1.65957   1.20365    0.014
 4448.00    1.88284   1.21806    0.014
 4449.00    1.72750   1.24249    0.014
 4450.00    1.50995   1.26723    0.014
 4451.00    1.56127   1.28384    0.014
 4452.00    1.64573   1.28935    0.014
 4453.00    1.58043   1.28516    0.014
 4454.00    1.50239   1.27281    0.014
 4455.00    1.30424   1.25248    0.014
 4456.00    1.10017   1.22475    0.014
 4457.00    1.22717   1.19277    0.014
 4458.00    1.35986   1.16169    0.014
 4459.00    1.51812   1.13625    0.014
 4460.00    1.66123   1.11910    0.014
 4461.00    1.49741   1.10985    0.000
 4462.00    1.35270   1.10562    0.000
 4463.00    1.43260   1.10469    0.000
 4464.00    1.51043   1.10877    0.000
 4465.00    1.57154   1.11991    0.000
 4466.00    1.60068   1.13746    0.000
 4467.00    1.43523   1.15815    0.000
 4468.00    1.29123   1.17701    0.000
 4469.00    1.25009   1.18926    0.000
 4470.00    1.23373   1.19323    0.000
 4471.00    1.31417   1.19189    0.000
 4472.00    1.43064   1.19126    0.000
 4473.00    1.66429   1.19723    0.000
 4474.00    1.85863   1.21323    0.000
 4475.00    1.94482   1.23856    0.000
 4476.00    1.90008   1.26870    0.000
 4477.00    1.54681   1.29809    0.000
 4478.00    1.19217   1.32256    0.000
 4479.00    0.83476   1.33874    0.000
 4480.00    0.74102   1.34304    0.000
 4481.00    1.11468   1.33257    0.000
 4482.00    1.48039   1.30790    0.014
 4483.00    1.83374   1.27513    0.014
 4484.00    1.81248   1.24551    0.014
 4485.00    1.28101   1.23048    0.014
 4486.00    1.00589   1.23549    0.014
 4487.00    1.03815   1.25708    0.013
 4488.00    1.13353   1.28423    0.014
 4489.00    1.29564   1.30363    0.014
 4490.00    1.48721   1.30675    0.014
 4491.00    1.70628   1.29402    0.014
 4492.00    1.69702   1.27345    0.014
 4493.00    1.50006   1.25487    0.014
 4494.00    1.34602   1.24381    0.014
 4495.00    1.22304   1.23926    0.014
 4496.00    1.26650   1.23700    0.014
 4497.00    1.41567   1.23454    0.014
 4498.00    1.56378   1.23320    0.014
 4499.00    1.71131   1.23693    0.014
 4500.00    1.65037   1.24841    0.014
 4501.00    1.48871   1.26594    0.014
 4502.00    1.51457   1.28488    0.014
 4503.00    1.61867   1.30232    0.014
 4504.00    1.72544   1.31951    0.014
 4505.00    1.83318   1.33908    0.014
 4506.00    1.83366   1.36135    0.014
 4507.00    1.80180   1.38321    0.014
 4508.00    1.55785   1.39938    0.014
 4509.00    1.26078   1.40606    0.014
 4510.00    1.67609   1.40396    0.014
 4511.00    2.23622   1.39749    0.014
 4512.00    1.86630   1.39082    0.014
 4513.00    1.34802   1.38482    0.014
 4514.00    1.41244   1.37744    0.014
 4515.00    1.54611   1.36617    0.014
 4516.00    1.31983   1.35060    0.014
 4517.00    1.06442   1.33327    0.014
 4518.00    1.09191   1.31784    0.014
 4519.00    1.13226   1.30692    0.014
 4520.00    1.17219   1.30188    0.014
 4521.00    1.21076   1.30266    0.014
 4522.00    1.17975   1.30732    0.014
 4523.00    1.14033   1.31217    0.014
 4524.00    0.94295   1.31290    0.014
 4525.00    0.81032   1.30656    0.014
 4526.00    1.40300   1.29192    0.014
 4527.00    1.89427   1.26910    0.014
 4528.00    1.59190   1.24004    0.014
 4529.00    1.36374   1.20794    0.014
 4530.00    1.57432   1.17688    0.014
 4531.00    1.71839   1.15164    0.014
 4532.00    1.55114   1.13623    0.014
 4533.00    1.45066   1.13183    0.014
 4534.00    1.60542   1.13583    0.014
 4535.00    1.74279   1.14300    0.014
 4536.00    1.82470   1.15000    0.014
 4537.00    1.85309   1.15836    0.014
 4538.00    1.73683   1.17283    0.014
 4539.00    1.64617   1.19636    0.014
 4540.00    1.61486   1.22593    0.014
 4541.00    1.61712   1.25411    0.014
 4542.00    1.68666   1.27368    0.014
 4543.00    1.66898   1.28193    0.014
 4544.00    1.49905   1.28161    0.014
 4545.00    1.36325   1.27715    0.014
 4546.00    1.27962   1.27143    0.014
 4547.00    1.34196   1.26563    0.014
 4548.00    1.60026   1.25954    0.014
 4549.00    1.59998   1.25202    0.014
 4550.00    1.29401   1.24222    0.000
 4551.00    1.19267   1.23099    0.000
 4552.00    1.30461   1.22093    0.000
 4553.00    1.40538   1.21397    0.000
 4554.00    1.49587   1.20981    0.000
 4555.00    1.52180   1.20725    0.000
 4556.00    1.49543   1.20537    0.000
 4557.00    1.52640   1.20545    0.000
 4558.00    1.59828   1.21117    0.000
 4559.00    1.54427   1.22548    0.000
 4560.00    1.41148   1.24783    0.000
 4561.00    1.27872   1.27421    0.000
 4562.00    1.14599   1.29879    0.000
 4563.00    1.20143   1.31605    0.000
 4564.00    1.34631   1.32222    0.000
 4565.00    1.39561   1.31636    0.000
 4566.00    1.40571   1.30168    0.000
 4567.00    1.59598   1.28516    0.000
 4568.00    1.84939   1.27464    0.000
 4569.00    1.68884   1.27501    0.000
 4570.00    1.40594   1.28526    0.000
 4571.00    1.36182   1.29936    0.000
 4572.00    1.37621   1.30970    0.000
 4573.00    1.28853   1.31185    0.000
 4574.00    1.18062   1.30818    0.000
 4575.00    1.42480   1.30457    0.000
 4576.00    1.72349   1.30466    0.000
 4577.00    1.56602   1.30864    0.000
 4578.00    1.35635   1.31370    0.000
 4579.00    1.43710   1.31516    0.000
 4580.00    1.54016   1.30901    0.000
 4581.00    1.27508   1.29402    0.000
 4582.00    0.99467   1.27251    0.000
 4583.00    1.17887   1.24928    0.000
 4584.00    1.36006   1.22914    0.000
 4585.00    1.23863   1.21519    0.000
 4586.00    1.12799   1.20871    0.000
 4587.00    1.20615   1.20946    0.000
 4588.00    1.29362   1.21641    0.000
 4589.00    1.48072   1.22874    0.000
 4590.00    1.63955   1.24475    0.000
 4591.00    1.58470   1.26104    0.000
 4592.00    1.52086   1.27310    0.000
 4593.00    1.40534   1.27725    0.000
 4594.00    1.33437   1.27298    0.000
 4595.00    1.46698   1.26301    0.000
 4596.00    1.55190   1.25136    0.000
 4597.00    1.45834   1.24152    0.000
 4598.00    1.39351   1.23571    0.000
 4599.00    1.41852   1.23419    0.000
 4600.00    1.34265   1.23577    0.000
 4601.00    0.99901   1.23862    0.000
 4602.00    0.85860   1.24076    0.000
 4603.00    1.18127   1.24185    0.000
 4604.00    1.41734   1.24272    0.000
 4605.00    1.48256   1.24405    0.000
 4606.00    1.55619   1.24668    0.000
 4607.00    1.64426   1.25154    0.000
 4608.00    1.57551   1.26025    0.000
 4609.00    1.27061   1.27434    0.000
 4610.00    1.06751   1.29372    0.000
 4611.00    0.99909   1.31539    0.000
 4612.00    1.03109   1.33408    0.000
 4613.00    1.18010   1.34516    0.000
 4614.00    1.31498   1.34712    0.000
 4615.00    1.43534   1.34200    0.000
 4616.00    1.50599   1.33441    0.000
 4617.00    1.53156   1.32837    0.000
 4618.00    1.57082   1.32506    0.000
 4619.00    1.62101   1.32402    0.000
 4620.00    1.46499   1.32345    0.000
 4621.00    1.16404   1.32208    0.000
 4622.00    1.10330   1.32128    0.000
 4623.00    1.19065   1.32279    0.000
 4624.00    1.36833   1.32656    0.000
 4625.00    1.59465   1.33157    0.000
 4626.00    1.63151   1.33582    0.000
 4627.00    1.57974   1.33696    0.000
 4628.00    1.49484   1.33458    0.000
 4629.00    1.39657   1.32996    0.000
 4630.00    1.25819   1.32428    0.000
 4631.00    1.10601   1.31876    0.000
 4632.00    0.93024   1.31513    0.000
 4633.00    0.74762   1.31388    0.000
 4634.00    0.82859   1.31287    0.000
 4635.00    0.97268   1.30956    0.000
 4636.00    1.09465   1.30300    0.000
 4637.00    1.21235   1.29348    0.000
 4638.00    1.00000   1.28208    0.000
 4639.00    0.73810   1.27022    0.000
 4640.00    1.19020   1.25942    0.000
 4641.00    1.72088   1.25105    0.000
 4642.00    1.48636   1.24621    0.000
 4643.00    1.19619   1.24581    0.000
 4644.00    1.12590   1.24865    0.000
 4645.00    1.06393   1.25100    0.000
 4646.00    1.27961   1.24872    0.000
 4647.00    1.48687   1.23880    0.000
 4648.00    1.32992   1.22109    0.000
 4649.00    1.18392   1.20008    0.000
 4650.00    1.21695   1.18292    0.000
 4651.00    1.24648   1.17589    0.000
 4652.00    1.24019   1.18163    0.000
 4653.00    1.24494   1.19772    0.000
 4654.00    1.33030   1.21822    0.000
 4655.00    1.38883   1.23616    0.000
 4656.00    1.29729   1.24614    0.000
 4657.00    1.18747   1.24754    0.000
 4658.00    0.99603   1.24467    0.000
 4659.00    0.86867   1.24429    0.000
 4660.00    0.97607   1.25216    0.000
 4661.00    1.11761   1.26899    0.000
 4662.00    1.36389   1.28952    0.000
 4663.00    1.52041   1.30546    0.000
 4664.00    1.44285   1.30979    0.000
 4665.00    1.37511   1.29990    0.000
 4666.00    1.32935   1.27779    0.000
 4667.00    1.25462   1.24732    0.000
 4668.00    1.12364   1.21192    0.000
 4669.00    1.12030   1.17587    0.000
 4670.00    1.33313   1.14573    0.000
 4671.00    1.39428   1.12845    0.000
 4672.00    1.23039   1.12806    0.000
 4673.00    1.12731   1.14359    0.000
 4674.00    1.10355   1.16906    0.000
 4675.00    1.11393   1.19661    0.000
 4676.00    1.16354   1.22056    0.000
 4677.00    1.18394   1.23892    0.000
 4678.00    1.17474   1.25191    0.000
 4679.00    1.11872   1.25936    0.000
 4680.00    1.02087   1.26020    0.000
 4681.00    0.98624   1.25411    0.000
 4682.00    1.00140   1.24285    0.000
 4683.00    1.08730   1.23019    0.000
 4684.00    1.22221   1.22076    0.000
 4685.00    1.29190   1.21801    0.000
 4686.00    1.32198   1.22213    0.000
 4687.00    1.35150   1.23034    0.000
 4688.00    1.38074   1.23894    0.000
 4689.00    1.30127   1.24485    0.000
 4690.00    1.17178   1.24675    0.000
 4691.00    1.01924   1.24522    0.000
 4692.00    0.85758   1.24167    0.000
 4693.00    0.89424   1.23765    0.000
 4694.00    0.99786   1.23494    0.000
 4695.00    1.08775   1.23517    0.000
 4696.00    1.17375   1.23890    0.000
 4697.00    1.16903   1.24520    0.000
 4698.00    1.14307   1.25131    0.000
 4699.00    1.26924   1.25322    0.000
 4700.00    1.42404   1.24774    0.000
 4701.00    1.20275   1.23487    0.000
 4702.00    0.92676   1.21780    0.000
 4703.00    1.15017   1.20054    0.000
 4704.00    1.42638   1.18599    0.000
 4705.00    1.44442   1.17587    0.000
 4706.00    1.44474   1.17104    0.000
 4707.00    1.42701   1.17102    0.000
 4708.00    1.40867   1.17350    0.000
 4709.00    1.33575   1.17563    0.000
 4710.00    1.26159   1.17612    0.000
 4711.00    1.14989   1.17617    0.000
 4712.00    1.03356   1.17851    0.000
 4713.00    0.84641   1.18517    0.000
 4714.00    0.68704   1.19522    0.000
 4715.00    0.80016   1.20530    0.000
 4716.00    0.91327   1.21266    0.000
 4717.00    1.02642   1.21773    0.000
 4718.00    1.11059   1.22401    0.000
 4719.00    1.03708   1.23485    0.000
 4720.00    0.98558   1.25080    0.000
 4721.00    1.03002   1.26971    0.000
 4722.00    1.04604   1.28814    0.000
 4723.00    0.96009   1.30269    0.000
 4724.00    0.96038   1.31163    0.000
 4725.00    1.22027   1.31533    0.000
 4726.00    1.28649   1.31513    0.000
 4727.00    0.85648   1.31134    0.000
 4728.00    0.63306   1.30218    0.000
 4729.00    0.86504   1.28526    0.000
 4730.00    1.00731   1.26053    0.000
 4731.00    0.97807   1.23201    0.000
 4732.00    1.04900   1.20617    0.000
 4733.00    1.28702   1.18873    0.000
 4734.00    1.41302   1.18260    0.000
 4735.00    1.37523   1.18707    0.000
 4736.00    1.30825   1.19822    0.000
 4737.00    1.20376   1.21122    0.000
 4738.00    1.17539   1.22245    0.000
 4739.00    1.23326   1.23040    0.000
 4740.00    1.17485   1.23645    0.000
 4741.00    1.00026   1.24277    0.000
 4742.00    0.97687   1.24940    0.000
 4743.00    1.08672   1.25539    0.000
 4744.00    1.11062   1.26050    0.000
 4745.00    1.06781   1.26509    0.000
 4746.00    1.03494   1.26957    0.000
 4747.00    1.00886   1.27404    0.000
 4748.00    1.05372   1.27868    0.000
 4749.00    1.14103   1.28371    0.000
 4750.00    1.25962   1.28847    0.000
 4751.00    1.39453   1.29177    0.000
 4752.00    1.56157   1.29284    0.000
 4753.00    1.74314   1.29082    0.000
 4754.00    1.48464   1.28479    0.000
 4755.00    1.05478   1.27481    0.000
 4756.00    1.01197   1.26239    0.000
 4757.00    1.09739   1.24987    0.000
 4758.00    1.24886   1.23987    0.000
 4759.00    1.41868   1.23428    0.000
 4760.00    1.49075   1.23346    0.000
 4761.00    1.54047   1.23585    0.012
 4762.00    1.46563   1.23818    0.012
 4763.00    1.36798   1.23652    0.012
 4764.00    1.23062   1.22781    0.012
 4765.00    1.08767   1.21198    0.012
 4766.00    1.23858   1.19232    0.012
 4767.00    1.41929   1.17352    0.012
 4768.00    1.39530   1.16009    0.012
 4769.00    1.35807   1.15542    0.012
 4770.00    1.13638   1.16083    0.012
 4771.00    0.90987   1.17464    0.012
 4772.00    1.06233   1.19280    0.012
 4773.00    1.20750   1.21062    0.012
 4774.00    1.14119   1.22486    0.012
 4775.00    1.08297   1.23553    0.012
 4776.00    1.14169   1.24502    0.012
 4777.00    1.19584   1.25530    0.012
 4778.00    1.20708   1.26617    0.012
 4779.00    1.20110   1.27586    0.012
 4780.00    1.07723   1.28262    0.012
 4781.00    0.99512   1.28511    0.012
 4782.00    1.13418   1.28264    0.012
 4783.00    1.24352   1.27569    0.011
 4784.00    1.22632   1.26554    0.012
 4785.00    1.18915   1.25344    0.012
 4786.00    1.08183   1.24065    0.012
 4787.00    1.02672   1.22886    0.012
 4788.00    1.12584   1.21932    0.012
 4789.00    1.17627   1.21212    0.012
 4790.00    1.10410   1.20737    0.012
 4791.00    1.09270   1.20569    0.012
 4792.00    1.21309   1.20753    0.012
 4793.00    1.27577   1.21343    0.012
 4794.00    1.22981   1.22424    0.012
 4795.00    1.13966   1.23991    0.012
 4796.00    0.97688   1.25877    0.011
 4797.00    0.93154   1.27752    0.012
 4798.00    1.05540   1.29165    0.012
 4799.00    1.13404   1.29718    0.012
 4800.00    1.15537   1.29300    0.012
 4801.00    1.05826   1.28168    0.012
 4802.00    0.82888   1.26837    0.012
 4803.00    0.85208   1.25843    0.012
 4804.00    1.12410   1.25490    0.012
 4805.00    1.17276   1.25680    0.012
 4806.00    1.02739   1.26005    0.012
 4807.00    0.98112   1.26014    0.012
 4808.00    1.01069   1.25510    0.012
 4809.00    1.10571   1.24638    0.012
 4810.00    1.24475   1.23743    0.012
 4811.00    1.23890   1.23109    0.012
 4812.00    1.14766   1.22891    0.012
 4813.00    1.11276   1.23103    0.012
 4814.00    1.10682   1.23607    0.012
 4815.00    1.18172   1.24241    0.012
 4816.00    1.29262   1.24930    0.012
 4817.00    1.25738   1.25683    0.012
 4818.00    1.16622   1.26535    0.012
 4819.00    1.31148   1.27482    0.012
 4820.00    1.53360   1.28443    0.012
 4821.00    1.56887   1.29250    0.012
 4822.00    1.55326   1.29672    0.012
 4823.00    1.39541   1.29487    0.012
 4824.00    1.20577   1.28562    0.012
 4825.00    1.12780   1.26977    0.012
 4826.00    1.06973   1.25069    0.012
 4827.00    1.13385   1.23340    0.012
 4828.00    1.21463   1.22265    0.012
 4829.00    1.16619   1.22006    0.012
 4830.00    1.10521   1.22296    0.012
 4831.00    1.24014   1.22678    0.012
 4832.00    1.38696   1.22823    0.012
 4833.00    1.30819   1.22656    0.012
 4834.00    1.22295   1.22307    0.012
 4835.00    1.05085   1.21971    0.012
 4836.00    0.87991   1.21823    0.011
 4837.00    0.73908   1.21945    0.012
 4838.00    0.64023   1.22251    0.012
 4839.00    1.11448   1.22499    0.012
 4840.00    1.52381   1.22453    0.012
 4841.00    1.34638   1.22023    0.012
 4842.00    1.18178   1.21290    0.012
 4843.00    1.10233   1.20446    0.012
 4844.00    1.06431   1.19741    0.011
 4845.00    1.24006   1.19385    0.012
 4846.00    1.32144   1.19431    0.012
 4847.00    1.00999   1.19761    0.012
 4848.00    0.80750   1.20168    0.000
 4849.00    0.98026   1.20434    0.000
 4850.00    1.07798   1.20374    0.000
 4851.00    0.95814   1.19943    0.000
 4852.00    0.88076   1.19293    0.000
 4853.00    0.90849   1.18630    0.000
 4854.00    1.00318   1.18005    0.000
 4855.00    1.24070   1.17210    0.000
 4856.00    1.33945   1.15912    0.000
 4857.00    1.18103   1.13949    0.000
 4858.00    1.09007   1.11430    0.000
 4859.00    1.10828   1.08578    0.000
 4860.00    1.05968   1.05550    0.000
 4861.00    0.91622   1.02333    0.000
 4862.00    0.81252   0.98842    0.000
 4863.00    0.75848   0.95211    0.000
 4864.00    0.73192   0.92033    0.000
 4865.00    0.73560   0.90172    0.000
 4866.00    0.84136   0.90273    0.000
 4867.00    1.04627   0.92381    0.000
 4868.00    1.18163   0.95887    0.000
 4869.00    1.25741   0.99834    0.000
 4870.00    1.24981   1.03338    0.000
 4871.00    1.17930   1.05834    0.000
 4872.00    1.11234   1.07087    0.000
 4873.00    1.04773   1.07204    0.000
 4874.00    1.06788   1.06628    0.000
 4875.00    1.13723   1.06000    0.012
 4876.00    1.23152   1.05903    0.011
 4877.00    1.33843   1.06649    0.011
 4878.00    1.15258   1.08212    0.011
 4879.00    0.83853   1.10276    0.011
 4880.00    0.84563   1.12463    0.011
 4881.00    0.97344   1.14500    0.011
 4882.00    1.01665   1.16187    0.011
 4883.00    1.03289   1.17322    0.011
 4884.00    1.04678   1.17743    0.011
 4885.00    1.06004   1.17418    0.011
 4886.00    0.91696   1.16461    0.011
 4887.00    0.73976   1.15107    0.011
 4888.00    0.93675   1.13632    0.011
 4889.00    1.19860   1.12261    0.011
 4890.00    1.17231   1.11111    0.011
 4891.00    1.10808   1.10206    0.011
 4892.00    1.03998   1.09562    0.011
 4893.00    0.97152   1.09285    0.011
 4894.00    1.07515   1.09643    0.011
 4895.00    1.18854   1.10974    0.011
 4896.00    1.20561   1.13433    0.011
 4897.00    1.22082   1.16786    0.011
 4898.00    1.27211   1.20400    0.011
 4899.00    1.32067   1.23505    0.011
 4900.00    1.30445   1.25499    0.011
 4901.00    1.27807   1.26176    0.011
 4902.00    1.12028   1.25740    0.011
 4903.00    0.97557   1.24635    0.011
 4904.00    0.94469   1.23356    0.011
 4905.00    0.94329   1.22306    0.011
 4906.00    1.13154   1.21717    0.011
 4907.00    1.25866   1.21635    0.011
 4908.00    1.07835   1.21918    0.011
 4909.00    0.95139   1.22246    0.011
 4910.00    1.04156   1.22219    0.011
 4911.00    1.08315   1.21553    0.011
 4912.00    0.96083   1.20276    0.011
 4913.00    0.87135   1.18762    0.011
 4914.00    0.87532   1.17576    0.011
 4915.00    0.86554   1.17169    0.011
 4916.00    0.82231   1.17627    0.011
 4917.00    0.84586   1.18586    0.011
 4918.00    1.00957   1.19371    0.011
 4919.00    1.14008   1.19265    0.011
 4920.00    1.20999   1.17811    0.011
 4921.00    1.17346   1.15044    0.011
 4922.00    0.96719   1.11536    0.011
 4923.00    0.91286   1.08206    0.011
 4924.00    1.07119   1.05931    0.010
 4925.00    1.07452   1.05200    0.010
 4926.00    0.88696   1.05988    0.011
 4927.00    0.91808   1.07923    0.011
 4928.00    1.18662   1.10557    0.011
 4929.00    1.34978   1.13536    0.011
 4930.00    1.41205   1.16585    0.011
 4931.00    1.38253   1.19424    0.011
 4932.00    1.27550   1.21718    0.011
 4933.00    1.28523   1.23143    0.011
 4934.00    1.38177   1.23501    0.011
 4935.00    1.32850   1.22807    0.011
 4936.00    1.17740   1.21314    0.011
 4937.00    1.13095   1.19418    0.011
 4938.00    1.14431   1.17485    0.011
 4939.00    1.14479   1.15733    0.011
 4940.00    1.13886   1.14256    0.000
 4941.00    1.03698   1.13181    0.000
 4942.00    0.89378   1.12759    0.000
 4943.00    1.03671   1.13267    0.000
 4944.00    1.28527   1.14773    0.000
 4945.00    1.24921   1.16999    0.000
 4946.00    1.12412   1.19403    0.000
 4947.00    1.03848   1.21453    0.000
 4948.00    0.96314   1.22872    0.000
 4949.00    0.99026   1.23701    0.000
 4950.00    1.03919   1.24189    0.000
 4951.00    1.20606   1.24587    0.000
 4952.00    1.39281   1.25003    0.000
 4953.00    1.32799   1.25365    0.000
 4954.00    1.23117   1.25486    0.000
 4955.00    1.16881   1.25157    0.000
 4956.00    1.10951   1.24210    0.000
 4957.00    1.09751   1.22562    0.000
 4958.00    1.08801   1.20271    0.000
 4959.00    1.08373   1.17619    0.000
 4960.00    1.08110   1.15137    0.000
 4961.00    1.19884   1.13488    0.000
 4962.00    1.30780   1.13164    0.000
 4963.00    1.22545   1.14196    0.000
 4964.00    1.14797   1.16085    0.000
 4965.00    1.13019   1.18040    0.000
 4966.00    1.09448   1.19356    0.000
 4967.00    0.90858   1.19691    0.000
 4968.00    0.76267   1.19125    0.000
 4969.00    0.86649   1.18026    0.000
 4970.00    0.95361   1.16865    0.000
 4971.00    0.95884   1.16046    0.000
 4972.00    0.96289   1.15805    0.000
 4973.00    0.96220   1.16184    0.000
 4974.00    0.93907   1.17078    0.000
 4975.00    0.84166   1.18281    0.000
 4976.00    0.80270   1.19530    0.000
 4977.00    0.92711   1.20541    0.000
 4978.00    1.06772   1.21058    0.000
 4979.00    1.24706   1.20894    0.000
 4980.00    1.34801   1.19974    0.000
 4981.00    1.28703   1.18330    0.000
 4982.00    1.22193   1.16078    0.000
 4983.00    1.14944   1.13387    0.000
 4984.00    1.09476   1.10492    0.000
 4985.00    1.06805   1.07735    0.000
 4986.00    1.05354   1.05559    0.000
 4987.00    1.05588   1.04411    0.000
 4988.00    1.06604   1.04558    0.000
 4989.00    1.08570   1.05925    0.000
 4990.00    1.14664   1.08077    0.000
 4991.00    1.25177   1.10394    0.000
 4992.00    1.26173   1.12316    0.000
 4993.00    1.18183   1.13554    0.000
 4994.00    1.12273   1.14138    0.000
 4995.00    1.08093   1.14311    0.000
 4996.00    1.10884   1.14362    0.000
 4997.00    1.18784   1.14475    0.000
 4998.00    1.09236   1.14662    0.000
 4999.00    0.88460   1.14782    0.000
 5000.00    0.93216   1.14613    0.000
 5001.00    1.12344   1.13967    0.000
 5002.00    1.20476   1.12796    0.000
 5003.00    1.23220   1.11237    0.000
 5004.00    1.17001   1.09547    0.000
 5005.00    1.06987   1.07970    0.000
 5006.00    1.08109   1.06636    0.000
 5007.00    1.13269   1.05564    0.000
 5008.00    1.12447   1.04777    0.000
 5009.00    1.09790   1.04374    0.000
 5010.00    1.10425   1.04490    0.000
 5011.00    1.11900   1.05115    0.000
 5012.00    1.10834   1.05980    0.000
 5013.00    1.09240   1.06612    0.000
 5014.00    1.02800   1.06577    0.000
 5015.00    0.95568   1.05737    0.000
 5016.00    0.92760   1.04332    0.000
 5017.00    0.90496   1.02837    0.000
 5018.00    0.73036   1.01699    0.000
 5019.00    0.54291   1.01139    0.000
 5020.00    0.65711   1.01127    0.000
 5021.00    0.78606   1.01504    0.000
 5022.00    0.83922   1.02115    0.000
 5023.00    0.89087   1.02877    0.000
 5024.00    0.92178   1.03758    0.000
 5025.00    0.95707   1.04734    0.000
 5026.00    1.08034   1.05764    0.000
 5027.00    1.19298   1.06777    0.000
 5028.00    1.18131   1.07677    0.000
 5029.00    1.16009   1.08386    0.011
 5030.00    1.06181   1.08920    0.011
 5031.00    0.99519   1.09417    0.010
 5032.00    1.12056   1.10076    0.011
 5033.00    1.22904   1.11032    0.011
 5034.00    1.25677   1.12237    0.011
 5035.00    1.25866   1.13438    0.011
 5036.00    1.15992   1.14265    0.010
 5037.00    1.08345   1.14380    0.010
 5038.00    1.07927   1.13619    0.010
 5039.00    1.05347   1.12044    0.010
 5040.00    0.96833   1.09882    0.011
 5041.00    0.93647   1.07424    0.011
 5042.00    1.02991   1.04975    0.011
 5043.00    1.08861   1.02900    0.010
 5044.00    1.07672   1.01653    0.010
 5045.00    1.03506   1.01664    0.010
 5046.00    0.94073   1.03103    0.010
 5047.00    0.90030   1.05682    0.010
 5048.00    0.94332   1.08683    0.010
 5049.00    0.96291   1.11226    0.010
 5050.00    0.95064   1.12633    0.010
 5051.00    0.90241   1.12692    0.010
 5052.00    0.81115   1.11700    0.010
 5053.00    0.87189   1.10285    0.010
 5054.00    1.09307   1.09127    0.010
 5055.00    1.19311   1.08701    0.010
 5056.00    1.18039   1.09161    0.011
 5057.00    1.17714   1.10362    0.011
 5058.00    1.18168   1.11981    0.011
 5059.00    1.07564   1.13678    0.010
 5060.00    0.88972   1.15214    0.010
 5061.00    0.83992   1.16478    0.010
 5062.00    0.87641   1.17443    0.011
 5063.00    0.96826   1.18076    0.011
 5064.00    1.09080   1.18275    0.011
 5065.00    1.16849   1.17896    0.011
 5066.00    1.22456   1.16846    0.011
 5067.00    1.14282   1.15208    0.011
 5068.00    1.00371   1.13266    0.011
 5069.00    1.00085   1.11420    0.011
 5070.00    1.04651   1.10015    0.011
 5071.00    0.96298   1.09208    0.011
 5072.00    0.84060   1.08936    0.011
 5073.00    0.87270   1.08995    0.011
 5074.00    0.94339   1.09163    0.011
 5075.00    0.80344   1.09290    0.011
 5076.00    0.62081   1.09324    0.011
 5077.00    0.85358   1.09264    0.011
 5078.00    1.15238   1.09082    0.011
 5079.00    1.08980   1.08675    0.011
 5080.00    0.98448   1.07898    0.011
 5081.00    1.10151   1.06670    0.011
 5082.00    1.23641   1.05096    0.010
 5083.00    1.10265   1.03487    0.010
 5084.00    0.95680   1.02271    0.010
 5085.00    0.88716   1.01791    0.011
 5086.00    0.82006   1.02168    0.011
 5087.00    0.83451   1.03271    0.010
 5088.00    0.85382   1.04807    0.010
 5089.00    0.96342   1.06466    0.010
 5090.00    1.06988   1.08018    0.010
 5091.00    1.14136   1.09359    0.011
 5092.00    1.19799   1.10493    0.011
 5093.00    1.13886   1.11478    0.011
 5094.00    1.07654   1.12355    0.011
 5095.00    0.99532   1.13093    0.011
 5096.00    0.96785   1.13558    0.011
 5097.00    1.19118   1.13551    0.011
 5098.00    1.35436   1.12892    0.011
 5099.00    1.28825   1.11535    0.011
 5100.00    1.20825   1.09654    0.011
 5101.00    1.08406   1.07641    0.011
 5102.00    0.99155   1.05987    0.010
 5103.00    0.98450   1.05093    0.011
 5104.00    1.03715   1.05082    0.011
 5105.00    1.22786   1.05749    0.011
 5106.00    1.30801   1.06661    0.011
 5107.00    1.16699   1.07368    0.010
 5108.00    1.07060   1.07581    0.010
 5109.00    1.05196   1.07256    0.011
 5110.00    1.02740   1.06555    0.011
 5111.00    0.99382   1.05754    0.011
 5112.00    0.94841   1.05146    0.011
 5113.00    0.88713   1.04965    0.010
 5114.00    0.84702   1.05323    0.010
 5115.00    0.83188   1.06196    0.010
 5116.00    0.87486   1.07444    0.010
 5117.00    0.97832   1.08870    0.010
 5118.00    1.04717   1.10279    0.010
 5119.00    1.08427   1.11513    0.010
 5120.00    1.12625   1.12433    0.010
 5121.00    1.17217   1.12899    0.010
 5122.00    1.07390   1.12775    0.010
 5123.00    0.87299   1.11973    0.010
 5124.00    0.92517   1.10513    0.010
 5125.00    1.13546   1.08554    0.010
 5126.00    1.23235   1.06378    0.010
 5127.00    1.26734   1.04314    0.010
 5128.00    1.11456   1.02644    0.010
 5129.00    0.87271   1.01520    0.010
 5130.00    0.77516   1.00953    0.010
 5131.00    0.73667   1.00859    0.010
 5132.00    0.87884   1.01141    0.010
 5133.00    1.08416   1.01728    0.010
 5134.00    1.08127   1.02566    0.010
 5135.00    1.01701   1.03582    0.010
 5136.00    1.07350   1.04649    0.010
 5137.00    1.15950   1.05586    0.010
 5138.00    1.18480   1.06197    0.010
 5139.00    1.19812   1.06332    0.010
 5140.00    1.07568   1.05953    0.010
 5141.00    0.93230   1.05170    0.010
 5142.00    0.99656   1.04209    0.010
 5143.00    1.08446   1.03310    0.010
 5144.00    1.01232   1.02634    0.010
 5145.00    0.92797   1.02221    0.010
 5146.00    1.01363   1.02019    0.010
 5147.00    1.10629   1.01936    0.010
 5148.00    1.21893   1.01891    0.010
 5149.00    1.32131   1.01836    0.010
 5150.00    0.98521   1.01761    0.010
 5151.00    0.67269   1.01681    0.010
 5152.00    0.76881   1.01604    0.010
 5153.00    0.86664   1.01515    0.010
 5154.00    0.98261   1.01393    0.010
 5155.00    1.08090   1.01271    0.010
 5156.00    1.04605   1.01266    0.010
 5157.00    0.99701   1.01558    0.010
 5158.00    0.86669   1.02294    0.010
 5159.00    0.75426   1.03490    0.010
 5160.00    0.72328   1.04992    0.010
 5161.00    0.71365   1.06506    0.010
 5162.00    0.78369   1.07702    0.011
 5163.00    0.85517   1.08298    0.011
 5164.00    0.93114   1.08110    0.011
 5165.00    0.97882   1.07040    0.011
 5166.00    0.95152   1.05040    0.011
 5167.00    0.89975   1.02117    0.011
 5168.00    0.79232   0.98390    0.011
 5169.00    0.77668   0.94171    0.011
 5170.00    0.94175   0.89965    0.011
 5171.00    1.02718   0.86341    0.011
 5172.00    0.97592   0.83718    0.010
 5173.00    0.97119   0.82218    0.011
 5174.00    1.03639   0.81727    0.011
 5175.00    1.04385   0.82097    0.011
 5176.00    0.97505   0.83316    0.011
 5177.00    0.93578   0.85456    0.011
 5178.00    0.93085   0.88470    0.011
 5179.00    1.00898   0.92024    0.010
 5180.00    1.17230   0.95500    0.010
 5181.00    1.12099   0.98204    0.010
 5182.00    0.87547   0.99577    0.011
 5183.00    0.85365   0.99349    0.010
 5184.00    1.01026   0.97618    0.010
 5185.00    0.99366   0.94866    0.010
 5186.00    0.85555   0.91903    0.010
 5187.00    0.87154   0.89665    0.010
 5188.00    0.98237   0.88889    0.010
 5189.00    0.90790   0.89816    0.010
 5190.00    0.73384   0.92084    0.000
 5191.00    0.74963   0.94919    0.000
 5192.00    0.85403   0.97464    0.000
 5193.00    0.87295   0.99117    0.000
 5194.00    0.85748   0.99703    0.000
 5195.00    0.84446   0.99445    0.000
 5196.00    0.83227   0.98804    0.000
 5197.00    0.74119   0.98273    0.000
 5198.00    0.62731   0.98196    0.000
 5199.00    0.77231   0.98700    0.000
 5200.00    0.97914   0.99719    0.000
 5201.00    1.02611   1.01048    0.000
 5202.00    1.04231   1.02414    0.000
 5203.00    1.07648   1.03514    0.000
 5204.00    1.11334   1.04060    0.000
 5205.00    1.09498   1.03840    0.000
 5206.00    1.07057   1.02771    0.000
 5207.00    1.00978   1.00958    0.000
 5208.00    0.94636   0.98689    0.000
 5209.00    0.80001   0.96393    0.000
 5210.00    0.65056   0.94532    0.000
 5211.00    0.73215   0.93495    0.010
 5212.00    0.81803   0.93508    0.010
 5213.00    1.02116   0.94581    0.010
 5214.00    1.20991   0.96491    0.010
 5215.00    1.16547   0.98823    0.010
 5216.00    1.11426   1.01083    0.010
 5217.00    0.99412   1.02860    0.010
 5218.00    0.89552   1.03987    0.010
 5219.00    0.95369   1.04593    0.010
 5220.00    1.01615   1.05006    0.010
 5221.00    1.10247   1.05547    0.010
 5222.00    1.17877   1.06348    0.010
 5223.00    1.21047   1.07255    0.010
 5224.00    1.24359   1.07906    0.010
 5225.00    1.28189   1.07885    0.010
 5226.00    1.28962   1.06912    0.010
 5227.00    1.20380   1.04985    0.010
 5228.00    1.10659   1.02431    0.010
 5229.00    0.97972   0.99852    0.010
 5230.00    0.90074   0.97925    0.010
 5231.00    0.92886   0.97140    0.010
 5232.00    0.96193   0.97590    0.010
 5233.00    1.00457   0.98928    0.010
 5234.00    1.02771   1.00555    0.010
 5235.00    1.01791   1.01934    0.010
 5236.00    1.04255   1.02828    0.010
 5237.00    1.11820   1.03366    0.011
 5238.00    1.17367   1.03875    0.011
 5239.00    1.20288   1.04654    0.011
 5240.00    1.16893   1.05795    0.010
 5241.00    1.06257   1.07164    0.010
 5242.00    1.09114   1.08518    0.010
 5243.00    1.25619   1.09636    0.010
 5244.00    1.31935   1.10417    0.010
 5245.00    1.29159   1.10859    0.010
 5246.00    1.23127   1.10996    0.010
 5247.00    1.14534   1.10828    0.010
 5248.00    1.04368   1.10314    0.010
 5249.00    0.93114   1.09422    0.010
 5250.00    0.98588   1.08197    0.010
 5251.00    1.14203   1.06792    0.010
 5252.00    1.19393   1.05436    0.011
 5253.00    1.19066   1.04356    0.010
 5254.00    1.22480   1.03699    0.010
 5255.00    1.27612   1.03501    0.010
 5256.00    1.20842   1.03716    0.010
 5257.00    1.09366   1.04273    0.010
 5258.00    0.97785   1.05121    0.010
 5259.00    0.86169   1.06205    0.010
 5260.00    0.86858   1.07396    0.010
 5261.00    0.91031   1.08429    0.010
 5262.00    0.96650   1.08919    0.010
 5263.00    1.02607   1.08477    0.011
 5264.00    0.91097   1.06877    0.011
 5265.00    0.76312   1.04178    0.010
 5266.00    1.02535   1.00723    0.011
 5267.00    1.34698   0.97047    0.011
 5268.00    1.35369   0.93688    0.011
 5269.00    1.32728   0.91020    0.011
 5270.00    1.30662   0.89181    0.011
 5271.00    1.28635   0.88123    0.011
 5272.00    1.07415   0.87758    0.011
 5273.00    0.85551   0.88041    0.011
 5274.00    0.92775   0.88987    0.011
 5275.00    1.00199   0.90561    0.010
 5276.00    1.13001   0.92630    0.010
 5277.00    1.25170   0.94971    0.010
 5278.00    1.27693   0.97376    0.010
 5279.00    1.28550   0.99711    0.010
 5280.00    1.13146   1.01885    0.010
 5281.00    0.99478   1.03772    0.010
 5282.00    0.98034   1.05187    0.010
 5283.00    0.99430   1.05959    0.010
 5284.00    1.16229   1.06063    0.010
 5285.00    1.27711   1.05709    0.010
 5286.00    1.16085   1.05306    0.010
 5287.00    1.08214   1.05305    0.010
 5288.00    1.13779   1.06000    0.010
 5289.00    1.19702   1.07407    0.010
 5290.00    1.26706   1.09283    0.010
 5291.00    1.30856   1.11244    0.010
 5292.00    1.27711   1.12934    0.011
 5293.00    1.23710   1.14120    0.011
 5294.00    1.17826   1.14707    0.011
 5295.00    1.15170   1.14687    0.011
 5296.00    1.18673   1.14078    0.011
 5297.00    1.19127   1.12903    0.011
 5298.00    1.14506   1.11218    0.010
 5299.00    1.11735   1.09170    0.010
 5300.00    1.11664   1.07028    0.010
 5301.00    1.07603   1.05153    0.010
 5302.00    0.98420   1.03889    0.010
 5303.00    0.95399   1.03454    0.010
 5304.00    0.99346   1.03880    0.010
 5305.00    1.04602   1.05022    0.010
 5306.00    1.11163   1.06625    0.010
 5307.00    1.12722   1.08407    0.010
 5308.00    1.09882   1.10113    0.011
 5309.00    1.10146   1.11562    0.010
 5310.00    1.12816   1.12674    0.010
 5311.00    1.07625   1.13459    0.010
 5312.00    0.97079   1.13978    0.010
 5313.00    1.01764   1.14289    0.010
 5314.00    1.15545   1.14397    0.010
 5315.00    1.27616   1.14269    0.010
 5316.00    1.38798   1.13869    0.010
 5317.00    1.27262   1.13205    0.010
 5318.00    1.05465   1.12357    0.010
 5319.00    0.92386   1.11458    0.010
 5320.00    0.82693   1.10653    0.010
 5321.00    1.01921   1.10037    0.010
 5322.00    1.30710   1.09614    0.010
 5323.00    1.29727   1.09284    0.010
 5324.00    1.20488   1.08871    0.010
 5325.00    1.20846   1.08185    0.010
 5326.00    1.23393   1.07084    0.010
 5327.00    1.14471   1.05519    0.010
 5328.00    1.03457   1.03542    0.010
 5329.00    0.96695   1.01309    0.010
 5330.00    0.90531   0.99095    0.010
 5331.00    0.91905   0.97286    0.010
 5332.00    0.94040   0.96284    0.010
 5333.00    0.97003   0.96363    0.010
 5334.00    1.00018   0.97548    0.010
 5335.00    0.99756   0.99575    0.010
 5336.00    0.99419   1.01996    0.010
 5337.00    1.08171   1.04321    0.010
 5338.00    1.16307   1.06166    0.010
 5339.00    1.06798   1.07319    0.010
 5340.00    0.97424   1.07729    0.010
 5341.00    0.89994   1.07477    0.009
 5342.00    0.83997   1.06764    0.009
 5343.00    0.91422   1.05881    0.009
 5344.00    1.00527   1.05144    0.009
 5345.00    1.21087   1.04785    0.010
 5346.00    1.36831   1.04864    0.010
 5347.00    1.27150   1.05252    0.010
 5348.00    1.19010   1.05720    0.010
 5349.00    1.17417   1.06059    0.010
 5350.00    1.17379   1.06190    0.010
 5351.00    1.22788   1.06195    0.010
 5352.00    1.24944   1.06274    0.010
 5353.00    1.17511   1.06637    0.010
 5354.00    1.13346   1.07415    0.010
 5355.00    1.17395   1.08609    0.010
 5356.00    1.20077   1.10113    0.010
 5357.00    1.19802   1.11747    0.010
 5358.00    1.18719   1.13320    0.010
 5359.00    1.16120   1.14665    0.010
 5360.00    1.12637   1.15653    0.010
 5361.00    1.07704   1.16194    0.010
 5362.00    1.02947   1.16237    0.010
 5363.00    0.98444   1.15771    0.010
 5364.00    1.05871   1.14842    0.010
 5365.00    1.28391   1.13558    0.010
 5366.00    1.30152   1.12068    0.010
 5367.00    1.08770   1.10526    0.010
 5368.00    1.03686   1.09044   -2.000
 5369.00    1.14627   1.07654   -2.000
 5370.00    1.26719   1.06322   -2.000
 5371.00    1.39808   1.04990   -2.000
 5372.00    1.42797   1.03661   -2.000
 5373.00    1.38071   1.02473   -2.000
 5374.00    1.30545   1.01690   -2.000
 5375.00    1.21137   1.01589   -2.000
 5376.00    1.24117   1.02329   -2.000
 5377.00    1.34382   1.03828   -2.000
 5378.00    1.35431   1.05774   -2.000
 5379.00    1.31754   1.07740   -2.000
 5380.00    1.26863   1.09340   -2.000
 5381.00    1.21434   1.10352   -2.000
 5382.00    1.15716   1.10748   -2.000
 5383.00    1.09888   1.10654    0.010
 5384.00    0.95876   1.10266    0.010
 5385.00    0.79208   1.09787    0.010
 5386.00    0.85457   1.09388    0.010
 5387.00    0.97927   1.09164    0.010
 5388.00    1.02182   1.09114    0.010
 5389.00    1.04605   1.09143    0.010
 5390.00    1.07568   1.09094    0.010
 5391.00    1.10627   1.08818    0.010
 5392.00    1.09696   1.08236    0.017
 5393.00    1.08225   1.07371    0.213
 5394.00    1.10733   1.06325   -1.000
 5395.00    1.13626   1.05220   -1.000
 5396.00    1.08102   1.04155   -1.000
 5397.00    1.02073   1.03169   -1.000
 5398.00    0.99682   1.02269   -1.000
 5399.00    0.97412   1.01488   -1.000
 5400.00    0.99466   1.00908   -1.000
 5401.00    1.01386   1.00624   -1.000
 5402.00    0.99872   1.00673   -1.000
 5403.00    0.99183   1.00969    0.274
 5404.00    1.09686   1.01293    0.018
 5405.00    1.19808   1.01364    0.010
 5406.00    1.26495   1.00965    0.010
 5407.00    1.30026   1.00062    0.010
 5408.00    1.12692   0.98843    0.010
 5409.00    0.98180   0.97641    0.010
 5410.00    0.98175   0.96787    0.010
 5411.00    1.00561   0.96492    0.010
 5412.00    1.12875   0.96813    0.010
 5413.00    1.18849   0.97671    0.010
 5414.00    1.03047   0.98919    0.010
 5415.00    0.93130   1.00402    0.010
 5416.00    1.00239   1.01986    0.010
 5417.00    1.06001   1.03555    0.010
 5418.00    1.08436   1.05001    0.010
 5419.00    1.07838   1.06232    0.010
 5420.00    1.00784   1.07173    0.010
 5421.00    1.02288   1.07781    0.010
 5422.00    1.19621   1.08037    0.010
 5423.00    1.24473   1.07966    0.010
 5424.00    1.09156   1.07638    0.010
 5425.00    1.01621   1.07165    0.010
 5426.00    1.05115   1.06678    0.010
 5427.00    1.05957   1.06284    0.010
 5428.00    1.03491   1.06029    0.010
 5429.00    0.99552   1.05874    0.010
 5430.00    0.93994   1.05693    0.010
 5431.00    0.92098   1.05342    0.010
 5432.00    0.93752   1.04737    0.010
 5433.00    0.95964   1.03892    0.010
 5434.00    0.98652   1.02912    0.010
 5435.00    1.09253   1.01962    0.010
 5436.00    1.25813   1.01206    0.010
 5437.00    1.24887   1.00780    0.010
 5438.00    1.12390   1.00798    0.010
 5439.00    1.04418   1.01351    0.010
 5440.00    0.99068   1.02474    0.010
 5441.00    1.01527   1.04098    0.010
 5442.00    1.07928   1.06011    0.010
 5443.00    1.11370   1.07905    0.010
 5444.00    1.13519   1.09433    0.009
 5445.00    1.10370   1.10288    0.009
 5446.00    1.05233   1.10296    0.009
 5447.00    1.02763   1.09462    0.009
 5448.00    1.01140   1.07989    0.009
 5449.00    0.98989   1.06252    0.009
 5450.00    0.96698   1.04692    0.009
 5451.00    1.02391   1.03680    0.009
 5452.00    1.09822   1.03380    0.009
 5453.00    1.09462   1.03679    0.009
 5454.00    1.07755   1.04249    0.009
 5455.00    1.06996   1.04692    0.009
 5456.00    1.06360   1.04721    0.009
 5457.00    1.02309   1.04295    0.009
 5458.00    0.97942   1.03619    0.009
 5459.00    1.17224   1.03024    0.009
 5460.00    1.37835   1.02797    0.009
 5461.00    1.22179   1.03037    0.009
 5462.00    1.05959   1.03609    0.010
 5463.00    1.15478   1.04232    0.010
 5464.00    1.23994   1.04628    0.009
 5465.00    1.08966   1.04669    0.010
 5466.00    0.95137   1.04433    0.010
 5467.00    0.96709   1.04118    0.010
 5468.00    0.96997   1.03927    0.009
 5469.00    0.86180   1.03981    0.009
 5470.00    0.78864   1.04261    0.009
 5471.00    0.93991   1.04626    0.010
 5472.00    1.05436   1.04895    0.010
 5473.00    0.98419   1.04932    0.010
 5474.00    0.95134   1.04659    0.010
 5475.00    1.06994   1.04049    0.010
 5476.00    1.13233   1.03142    0.010
 5477.00    1.00544   1.02030    0.010
 5478.00    0.95833   1.00829   -2.000
 5479.00    1.13780   0.99696   -2.000
 5480.00    1.24450   0.98811   -2.000
 5481.00    1.17458   0.98311   -2.000
 5482.00    1.08690   0.98243   -2.000
 5483.00    0.96202   0.98574   -2.000
 5484.00    1.06817   0.99212   -2.000
 5485.00    1.59508   1.00029   -2.000
 5486.00    2.28155   1.00928   -2.000
 5487.00    3.22202   1.01832   -2.000
 5488.00    3.61134   1.02644   -2.000
 5489.00    3.23072   1.03272   -2.000
 5490.00    2.90352   1.03675   -2.000
 5491.00    2.64197   1.03859   -2.000
 5492.00    2.02953   1.03877   -2.000
 5493.00    1.03684   1.03823   -2.000
 5494.00    0.48530   1.03792   -2.000
 5495.00    0.35546   1.03823   -2.000
 5496.00    0.46346   1.03896   -2.000
 5497.00    0.77191   1.03973   -2.000
 5498.00    1.04558   1.04009   -2.000
 5499.00    1.29342   1.03985   -2.000
 5500.00    1.38056   1.03926   -2.000
 5501.00    1.36294   1.03857   -2.000
 5502.00    1.21931   1.03763    0.009
 5503.00    1.00379   1.03615    0.009
 5504.00    0.93981   1.03371    0.009
 5505.00    0.95114   1.03001    0.009
 5506.00    1.09990   1.02530    0.009
 5507.00    1.30772   1.02034    0.009
 5508.00    1.24789   1.01576    0.009
 5509.00    1.08946   1.01208    0.009
 5510.00    1.03100   1.00973    0.009
 5511.00    1.00373   1.00864    0.009
 5512.00    0.94166   1.00809    0.009
 5513.00    0.87052   1.00720    0.009
 5514.00    1.00580   1.00545    0.009
 5515.00    1.18489   1.00303    0.009
 5516.00    1.14551   1.00087    0.009
 5517.00    1.06946   1.00017    0.009
 5518.00    1.10054   1.00208    0.009
 5519.00    1.14518   1.00748    0.010
 5520.00    1.16395   1.01627    0.010
 5521.00    1.18044   1.02718    0.010
 5522.00    1.07794   1.03849    0.009
 5523.00    0.96922   1.04835    0.009
 5524.00    0.86202   1.05527    0.009
 5525.00    0.75655   1.05843    0.009
 5526.00    0.78066   1.05755    0.009
 5527.00    0.80651   1.05277    0.009
 5528.00    0.86969   1.04466    0.009
 5529.00    0.92887   1.03442    0.009
 5530.00    0.93913   1.02378    0.009
 5531.00    0.95305   1.01465    0.009
 5532.00    0.99750   1.00869    0.009
 5533.00    1.03669   1.00679    0.009
 5534.00    1.04315   1.00870    0.009
 5535.00    1.04574   1.01311    0.009
 5536.00    1.02941   1.01818    0.009
 5537.00    0.99758   1.02246    0.009
 5538.00    0.90424   1.02541    0.009
 5539.00    0.84966   1.02735    0.009
 5540.00    0.92302   1.02932    0.009
 5541.00    1.00794   1.03239    0.009
 5542.00    1.12511   1.03677    0.009
 5543.00    1.20197   1.04173    0.009
 5544.00    1.18263   1.04618    0.009
 5545.00    1.17406   1.04906    0.009
 5546.00    1.18771   1.04994    0.009
 5547.00    1.17998   1.04934    0.009
 5548.00    1.13389   1.04837    0.009
 5549.00    1.08405   1.04820    0.009
 5550.00    1.02834   1.04972    0.009
 5551.00    1.06466   1.05324    0.009
 5552.00    1.22769   1.05819    0.009
 5553.00    1.27959   1.06320    0.009
 5554.00    1.19681   1.06674    0.009
 5555.00    1.09721   1.06789    0.009
 5556.00    0.97964   1.06647    0.009
 5557.00    0.91638   1.06288    0.009
 5558.00    0.90431   1.05821    0.009
 5559.00    0.90110   1.05364    0.009
 5560.00    0.90524   1.04989    0.009
 5561.00    0.90244   1.04707    0.009
 5562.00    0.89457   1.04484    0.009
 5563.00    0.93519   1.04259    0.009
 5564.00    1.00697   1.03962    0.009
 5565.00    1.08019   1.03554    0.009
 5566.00    1.15421   1.03056    0.009
 5567.00    1.22479   1.02515    0.009
 5568.00    1.29368   1.01972    0.009
 5569.00    1.15629   1.01481    0.009
 5570.00    0.93175   1.01086    0.009
 5571.00    0.97143   1.00807    0.009
 5572.00    1.10671   1.00642    0.009
 5573.00    1.18512   1.00570    0.009
 5574.00    1.24612   1.00575    0.009
 5575.00    1.21858   1.00669    0.009
 5576.00    1.16851   1.00843    0.009
 5577.00    1.22793   1.01090    0.009
 5578.00    1.31002   1.01426    0.009
 5579.00    1.22968   1.01842    0.009
 5580.00    1.12285   1.02272    0.009
 5581.00    1.11380   1.02702    0.009
 5582.00    1.11669   1.03095    0.009
 5583.00    1.15604   1.03329    0.009
 5584.00    1.19846   1.03345    0.009
 5585.00    1.03531   1.03133    0.009
 5586.00    0.86221   1.02623    0.009
 5587.00    0.88116   1.01769    0.009
 5588.00    0.90422   1.00590    0.009
 5589.00    0.99994   0.99149    0.009
 5590.00    1.08982   0.97607    0.008
 5591.00    1.06366   0.96191    0.009
 5592.00    1.04687   0.95093    0.009
 5593.00    1.13891   0.94470    0.009
 5594.00    1.21732   0.94404    0.009
 5595.00    1.18609   0.94864    0.009
 5596.00    1.15529   0.95694    0.009
 5597.00    1.12716   0.96673    0.009
 5598.00    1.11127   0.97612    0.009
 5599.00    1.15376   0.98361    0.009
 5600.00    1.18751   0.98823    0.009
 5601.00    1.18736   0.98969    0.009
 5602.00    1.17719   0.98819    0.009
 5603.00    1.13457   0.98464    0.009
 5604.00    1.10127   0.98028    0.009
 5605.00    1.09346   0.97704    0.009
 5606.00    1.07938   0.97761    0.009
 5607.00    1.05060   0.98366    0.009
 5608.00    1.01022   0.99455    0.009
 5609.00    0.94634   1.00863    0.008
 5610.00    0.91763   1.02397    0.009
 5611.00    0.95103   1.03832    0.009
 5612.00    1.00154   1.04943    0.009
 5613.00    1.07847   1.05565    0.009
 5614.00    1.11749   1.05650    0.009
 5615.00    1.10506   1.05237    0.009
 5616.00    1.10640   1.04390    0.009
 5617.00    1.12419   1.03199    0.009
 5618.00    1.14765   1.01811    0.009
 5619.00    1.17707   1.00440    0.009
 5620.00    1.20547   0.99310    0.009
 5621.00    1.23292   0.98592    0.009
 5622.00    1.22258   0.98360    0.009
 5623.00    1.18127   0.98570    0.009
 5624.00    1.05726   0.99007    0.008
 5625.00    0.87363   0.99342    0.008
 5626.00    0.81109   0.99390    0.008
 5627.00    0.82520   0.99215    0.008
 5628.00    0.97648   0.98982    0.008
 5629.00    1.20367   0.98838    0.008
 5630.00    1.25352   0.98912    0.008
 5631.00    1.21803   0.99308    0.008
 5632.00    1.14148   1.00063    0.008
 5633.00    1.04786   1.01046    0.008
 5634.00    0.99620   1.01982    0.008
 5635.00    0.95945   1.02634    0.008
 5636.00    0.96549   1.02906    0.008
 5637.00    0.98438   1.02789    0.008
 5638.00    1.03692   1.02332    0.008
 5639.00    1.09785   1.01650    0.008
 5640.00    1.09296   1.00887    0.008
 5641.00    1.07478   1.00168    0.008
 5642.00    1.07226   0.99581    0.008
 5643.00    1.07221   0.99160    0.008
 5644.00    1.11477   0.98919    0.008
 5645.00    1.16235   0.98864    0.008
 5646.00    1.18963   0.98974    0.008
 5647.00    1.21530   0.99195    0.008
 5648.00    1.12937   0.99501    0.008
 5649.00    1.03847   0.99903    0.008
 5650.00    1.08970   1.00347    0.008
 5651.00    1.14005   1.00746    0.008
 5652.00    1.06889   1.01063    0.008
 5653.00    1.00340   1.01282    0.008
 5654.00    1.04241   1.01391    0.008
 5655.00    1.08517   1.01373    0.008
 5656.00    1.16957   1.01189    0.008
 5657.00    1.23577   1.00806    0.009
 5658.00    1.16086   1.00210    0.009
 5659.00    1.09858   0.99383    0.009
 5660.00    1.11050   0.98359    0.009
 5661.00    1.10593   0.97278    0.008
 5662.00    1.02471   0.96354    0.008
 5663.00    0.94683   0.95738    0.008
 5664.00    0.88168   0.95440    0.008
 5665.00    0.85989   0.95485    0.008
 5666.00    0.97567   0.95942    0.008
 5667.00    1.04971   0.96664    0.008
 5668.00    1.01145   0.97354    0.008
 5669.00    1.01003   0.97925    0.008
 5670.00    1.09363   0.98447    0.008
 5671.00    1.18675   0.98925    0.008
 5672.00    1.29887   0.99315    0.008
 5673.00    1.34381   0.99663    0.008
 5674.00    1.27192   1.00090    0.008
 5675.00    1.18466   1.00690    0.008
 5676.00    1.07400   1.01428    0.008
 5677.00    1.04631   1.02173    0.008
 5678.00    1.12961   1.02816    0.008
 5679.00    1.13015   1.03288    0.008
 5680.00    1.03320   1.03516    0.008
 5681.00    0.95987   1.03448    0.008
 5682.00    0.91106   1.03126    0.008
 5683.00    0.95437   1.02640    0.008
 5684.00    1.08207   1.02003    0.008
 5685.00    1.08875   1.01224    0.008
 5686.00    0.99772   1.00408    0.008
 5687.00    0.94065   0.99669    0.008
 5688.00    0.90772   0.99038    0.008
 5689.00    0.91785   0.98559    0.008
 5690.00    0.95482   0.98335    0.008
 5691.00    0.99730   0.98381    0.008
 5692.00    1.04277   0.98617    0.008
 5693.00    1.15064   0.99002    0.008
 5694.00    1.28805   0.99567    0.008
 5695.00    1.28603   1.00300    0.008
 5696.00    1.22708   1.01078    0.009
 5697.00    1.21292   1.01716    0.009
 5698.00    1.21440   1.02090    0.008
 5699.00    1.16677   1.02165    0.008
 5700.00    1.10470   1.01925    0.008
 5701.00    1.10843   1.01419    0.008
 5702.00    1.12819   1.00752    0.008
 5703.00    1.17535   0.99999    0.008
 5704.00    1.22792   0.99212    0.008
 5705.00    1.24162   0.98471    0.008
 5706.00    1.24936   0.97858    0.008
 5707.00    1.09453   0.97331    0.008
 5708.00    0.92127   0.96816    0.008
 5709.00    0.97717   0.96295    0.008
 5710.00    1.05044   0.95706    0.008
 5711.00    1.05152   0.94998    0.008
 5712.00    1.04967   0.94259    0.008
 5713.00    1.02286   0.93693    0.008
 5714.00    0.99715   0.93488    0.008
 5715.00    1.02504   0.93726    0.008
 5716.00    1.05028   0.94416    0.008
 5717.00    1.02989   0.95482    0.008
 5718.00    1.00546   0.96748    0.008
 5719.00    0.93831   0.98083    0.008
 5720.00    0.87936   0.99368    0.008
 5721.00    0.88182   1.00463    0.008
 5722.00    0.89846   1.01355    0.008
 5723.00    0.99598   1.02105    0.008
 5724.00    1.07537   1.02735    0.008
 5725.00    1.07244   1.03261    0.008
 5726.00    1.07507   1.03664    0.008
 5727.00    1.09836   1.03893    0.008
 5728.00    1.13449   1.03938    0.008
 5729.00    1.21057   1.03794    0.008
 5730.00    1.25165   1.03473    0.008
 5731.00    1.20021   1.03048    0.008
 5732.00    1.15309   1.02606    0.008
 5733.00    1.11576   1.02225    0.008
 5734.00    1.08883   1.01997    0.008
 5735.00    1.08233   1.01945    0.008
 5736.00    1.08567   1.01983    0.008
 5737.00    1.10588   1.02052    0.008
 5738.00    1.09059   1.02203    0.008
 5739.00    1.02203   1.02456    0.008
 5740.00    1.02252   1.02696    0.000
 5741.00    1.11404   1.02801    0.000
 5742.00    1.16533   1.02762    0.000
 5743.00    1.16990   1.02642    0.000
 5744.00    1.15024   1.02514    0.000
 5745.00    1.10578   1.02415    0.000
 5746.00    1.10268   1.02345    0.000
 5747.00    1.13694   1.02292    0.000
 5748.00    1.13611   1.02240    0.000
 5749.00    1.10734   1.02185    0.000
 5750.00    1.08490   1.02122    0.000
 5751.00    1.06689   1.02005    0.000
 5752.00    1.06243   1.01750    0.000
 5753.00    1.06629   1.01332    0.000
 5754.00    1.05193   1.00844    0.000
 5755.00    1.02779   1.00421    0.000
 5756.00    1.03581   1.00086    0.000
 5757.00    1.05882   0.99793    0.000
 5758.00    1.06115   0.99565    0.000
 5759.00    1.05517   0.99515    0.000
 5760.00    1.04407   0.99718    0.000
 5761.00    1.03123   1.00101    0.000
 5762.00    1.00866   1.00443    0.000
 5763.00    0.98330   1.00539    0.000
 5764.00    1.01358   1.00361    0.000
 5765.00    1.05712   1.00030    0.000
 5766.00    1.05848   0.99740    0.000
 5767.00    1.05176   0.99674    0.000
 5768.00    1.04057   0.99939    0.000
 5769.00    1.02872   1.00540    0.000
 5770.00    1.06282   1.01359    0.000
 5771.00    1.10193   1.02126    0.000
 5772.00    1.06524   1.02625    0.000
 5773.00    1.02311   1.02826    0.000
 5774.00    1.02336   1.02776    0.000
 5775.00    1.02517   1.02542    0.000
 5776.00    1.09272   1.02215    0.000
 5777.00    1.15847   1.01870    0.000
 5778.00    1.14977   1.01551    0.000
 5779.00    1.14046   1.01265    0.000
 5780.00    1.12154   1.00939    0.000
 5781.00    1.09521   1.00495    0.000
 5782.00    0.99382   0.99884    0.000
 5783.00    0.91904   0.99041    0.000
 5784.00    1.03707   0.97957    0.000
 5785.00    1.13097   0.96743    0.000
 5786.00    1.09087   0.95574    0.000
 5787.00    1.05560   0.94675    0.000
 5788.00    1.04172   0.94258    0.000
 5789.00    1.04938   0.94314    0.000
 5790.00    1.13551   0.94681    0.000
 5791.00    1.18376   0.95278   -2.000
 5792.00    1.11633   0.96106   -2.000
 5793.00    1.07751   0.97040   -2.000
 5794.00    1.11295   0.97878   -2.000
 5795.00    1.15284   0.98551   -2.000
 5796.00    1.20268   0.99056   -2.000
 5797.00    1.22451   0.99464   -2.000
 5798.00    1.19216   0.99881   -2.000
 5799.00    1.12689   1.00272   -2.000
 5800.00    1.00610   1.00589   -2.000
 5801.00    0.96092   1.00851   -2.000
 5802.00    1.02755   1.01055   -2.000
 5803.00    1.10672   1.01235   -2.000
 5804.00    1.20219   1.01497   -2.000
 5805.00    1.25385   1.01850   -2.000
 5806.00    1.25536   1.02106   -2.000
 5807.00    1.22660   1.02113   -2.000
 5808.00    1.16726   1.01894   -2.000
 5809.00    1.08883   1.01528   -2.000
 5810.00    0.99340   1.01137   -2.000
 5811.00    0.93110   1.00894    0.000
 5812.00    0.89479   1.00860    0.000
 5813.00    0.90352   1.00971    0.000
 5814.00    0.94333   1.01125    0.000
 5815.00    1.00713   1.01243    0.000
 5816.00    1.08544   1.01291    0.000
 5817.00    1.07305   1.01245    0.000
 5818.00    1.01274   1.01103    0.000
 5819.00    0.99956   1.00942    0.000
 5820.00    1.00797   1.00841    0.000
 5821.00    1.04624   1.00860    0.000
 5822.00    1.09629   1.01072    0.000
 5823.00    1.08206   1.01514    0.000
 5824.00    1.04623   1.02057    0.000
 5825.00    1.01095   1.02502    0.000
 5826.00    0.97583   1.02783    0.000
 5827.00    0.96352   1.02929    0.000
 5828.00    0.95652   1.02975    0.000
 5829.00    0.95909   1.02983    0.000
 5830.00    0.96344   1.03005    0.000
 5831.00    1.03819   1.03040    0.000
 5832.00    1.12310   1.03054    0.000
 5833.00    1.15850   1.03029    0.000
 5834.00    1.18872   1.02971    0.000
 5835.00    1.15175   1.02874    0.000
 5836.00    1.11023   1.02704    0.000
 5837.00    1.11498   1.02467    0.000
 5838.00    1.12127   1.02219    0.000
 5839.00    1.11728   1.01993    0.000
 5840.00    1.11213   1.01816    0.000
 5841.00    1.07075   1.01766    0.000
 5842.00    1.03800   1.01864    0.000
 5843.00    1.13573   1.02021    0.000
 5844.00    1.21900   1.02195    0.000
 5845.00    1.16204   1.02413    0.000
 5846.00    1.10136   1.02608    0.000
 5847.00    1.01451   1.02656    0.000
 5848.00    0.93975   1.02514    0.000
 5849.00    0.93027   1.02198    0.000
 5850.00    0.91580   1.01742    0.000
 5851.00    0.87971   1.01197    0.000
 5852.00    0.83707   1.00612    0.000
 5853.00    0.77104   1.00037    0.000
 5854.00    0.73868   0.99501    0.000
 5855.00    0.80716   0.98966    0.000
 5856.00    0.87947   0.98356    0.000
 5857.00    0.96152   0.97642    0.000
 5858.00    1.03360   0.96875    0.000
 5859.00    1.08378   0.96183    0.000
 5860.00    1.11276   0.95680    0.000
 5861.00    1.10136   0.95327    0.000
 5862.00    1.08987   0.95064    0.000
 5863.00    1.07825   0.94992    0.000
 5864.00    1.06180   0.95253    0.000
 5865.00    1.03834   0.95781    0.000
 5866.00    1.02325   0.96369    0.000
 5867.00    1.01889   0.96880    0.000
 5868.00    1.03528   0.97290    0.000
 5869.00    1.07510   0.97675    0.000
 5870.00    1.07358   0.98052    0.000
 5871.00    1.03089   0.98361    0.000
 5872.00    0.99408   0.98620    0.000
 5873.00    0.96242   0.98927    0.000
 5874.00    0.94346   0.99289    0.000
 5875.00    0.93433   0.99594    0.000
 5876.00    0.93762   0.99764    0.000
 5877.00    0.94937   0.99786    0.000
 5878.00    0.97828   0.99679    0.000
 5879.00    1.01743   0.99481    0.000
 5880.00    1.02443   0.99213    0.000
 5881.00    1.01473   0.98846    0.000
 5882.00    0.97671   0.98374    0.000
 5883.00    0.92594   0.97849    0.000
 5884.00    0.90738   0.97315    0.000
 5885.00    0.90132   0.96784    0.000
 5886.00    0.94216   0.96263    0.000
 5887.00    0.99848   0.95679    0.000
 5888.00    0.92782   0.94793    0.000
 5889.00    0.82206   0.93408    0.000
 5890.00    0.76939   0.91527    0.000
 5891.00    0.72880   0.89217    0.000
 5892.00    0.79908   0.86537    0.000
 5893.00    0.88953   0.83637    0.000
 5894.00    0.94328   0.80776    0.000
 5895.00    0.99190   0.78461    0.000
 5896.00    0.96217   0.77282    0.000
 5897.00    0.92457   0.77229    0.000
 5898.00    0.84082   0.77724    0.000
 5899.00    0.75413   0.78374    0.000
 5900.00    0.82512   0.79126    0.000
 5901.00    0.90070   0.80196    0.007
 5902.00    0.96268   0.81994    0.007
 5903.00    1.02244   0.84466    0.008
 5904.00    1.01969   0.87050    0.007
 5905.00    1.01637   0.89387    0.007
 5906.00    1.00499   0.91418    0.007
 5907.00    0.99356   0.93060    0.007
 5908.00    0.98164   0.94272    0.007
 5909.00    0.96944   0.95112    0.007
 5910.00    0.95538   0.95653    0.007
 5911.00    0.94499   0.96004    0.007
 5912.00    0.95398   0.96280    0.007
 5913.00    0.96227   0.96491    0.007
 5914.00    0.96765   0.96577    0.007
 5915.00    0.97695   0.96514    0.007
 5916.00    0.99991   0.96340    0.007
 5917.00    1.02505   0.96063    0.007
 5918.00    1.05659   0.95679    0.007
 5919.00    1.07811   0.95289    0.008
 5920.00    1.07452   0.95064    0.008
 5921.00    1.06705   0.95085    0.008
 5922.00    1.05122   0.95320    0.007
 5923.00    1.05312   0.95679    0.007
 5924.00    1.08826   0.96062    0.007
 5925.00    1.10585   0.96418    0.007
 5926.00    1.09471   0.96698    0.007
 5927.00    1.07145   0.96869    0.007
 5928.00    1.03080   0.96960    0.007
 5929.00    0.99583   0.96992    0.007
 5930.00    0.96804   0.96950    0.007
 5931.00    0.94007   0.96830    0.007
 5932.00    0.91189   0.96619    0.007
 5933.00    0.90403   0.96327    0.007
 5934.00    0.91612   0.96025    0.007
 5935.00    0.93244   0.95811    0.007
 5936.00    0.95244   0.95776    0.007
 5937.00    0.96523   0.95888    0.007
 5938.00    0.97252   0.96007    0.007
 5939.00    0.95625   0.96073    0.007
 5940.00    0.92418   0.96169    0.007
 5941.00    0.89204   0.96367    0.007
 5942.00    0.85986   0.96581    0.007
 5943.00    0.87768   0.96711    0.007
 5944.00    0.92109   0.96756    0.007
 5945.00    0.93599   0.96715    0.007
 5946.00    0.93824   0.96609    0.007
 5947.00    0.93288   0.96537    0.007
 5948.00    0.92464   0.96540    0.007
 5949.00    1.00667   0.96577    0.007
 5950.00    1.11791   0.96596    0.007
 5951.00    1.12056   0.96524    0.007
 5952.00    1.09382   0.96314    0.007
 5953.00    1.08217   0.95994    0.007
 5954.00    1.07389   0.95686    0.007
 5955.00    1.05822   0.95502    0.007
 5956.00    1.04125   0.95397    0.007
 5957.00    0.98293   0.95248    0.007
 5958.00    0.91903   0.95109    0.007
 5959.00    0.88243   0.95130    0.007
 5960.00    0.84846   0.95273    0.007
 5961.00    0.88534   0.95407    0.007
 5962.00    0.92645   0.95562    0.007
 5963.00    0.92781   0.95841    0.007
 5964.00    0.92789   0.96244    0.007
 5965.00    0.88574   0.96689    0.007
 5966.00    0.84578   0.97089    0.007
 5967.00    0.86151   0.97382    0.007
 5968.00    0.87711   0.97565    0.007
 5969.00    0.89092   0.97671    0.007
 5970.00    0.90207   0.97719    0.007
 5971.00    0.88935   0.97770    0.007
 5972.00    0.87893   0.97906    0.007
 5973.00    0.88363   0.98090    0.007
 5974.00    0.87704   0.98239    0.007
 5975.00    0.81255   0.98314    0.007
 5976.00    0.76749   0.98263    0.007
 5977.00    0.80286   0.98046    0.007
 5978.00    0.85258   0.97676    0.007
 5979.00    0.95143   0.97186    0.007
 5980.00    1.01294   0.96625    0.007
 5981.00    0.96667   0.96091    0.007
 5982.00    0.93019   0.95688    0.007
 5983.00    0.91783   0.95433    0.007
 5984.00    0.92069   0.95291    0.007
 5985.00    0.95587   0.95194    0.007
 5986.00    0.99524   0.95035    0.007
 5987.00    1.04233   0.94760    0.007
 5988.00    1.04712   0.94404    0.007
 5989.00    0.98368   0.94098    0.007
 5990.00    0.94659   0.94027    0.007
 5991.00    0.94676   0.94198    0.007
 5992.00    0.95088   0.94471    0.007
 5993.00    0.95989   0.94810    0.007
 5994.00    0.94137   0.95203    0.007
 5995.00    0.89266   0.95554    0.007
 5996.00    0.87085   0.95787    0.007
 5997.00    0.87509   0.95956    0.007
 5998.00    0.89784   0.96114    0.007
 5999.00    0.93638   0.96169    0.007
 6000.00    0.95112   0.96050    0.007
 6001.00    0.94796   0.95775    0.007
 6002.00    0.92079   0.95422    0.007
 6003.00    0.87776   0.95131    0.007
 6004.00    0.85922   0.94960    0.007
 6005.00    0.85485   0.94849    0.007
 6006.00    0.85837   0.94712    0.007
 6007.00    0.86588   0.94474    0.007
 6008.00    0.89029   0.94202    0.007
 6009.00    0.92208   0.94017    0.007
 6010.00    0.93965   0.93836    0.007
 6011.00    0.95189   0.93578    0.007
 6012.00    1.01055   0.93291    0.007
 6013.00    1.08394   0.93099    0.007
 6014.00    1.09317   0.93164    0.007
 6015.00    1.08539   0.93396    0.007
 6016.00    1.04182   0.93514    0.007
 6017.00    0.99050   0.93438    0.007
 6018.00    0.97409   0.93280    0.007
 6019.00    0.96370   0.93176    0.007
 6020.00    0.96234   0.93092    0.007
 6021.00    0.96215   0.92907    0.007
 6022.00    0.92004   0.92698    0.007
 6023.00    0.87408   0.92574    0.007
 6024.00    0.87051   0.92471    0.007
 6025.00    0.86930   0.92394    0.007
 6026.00    0.87834   0.92456    0.007
 6027.00    0.88725   0.92680    0.007
 6028.00    0.86000   0.93019    0.007
 6029.00    0.83546   0.93437    0.007
 6030.00    0.87349   0.93949    0.007
 6031.00    0.90781   0.94485    0.007
 6032.00    0.89472   0.94984    0.007
 6033.00    0.88360   0.95499    0.007
 6034.00    0.88948   0.95993    0.007
 6035.00    0.90276   0.96392    0.007
 6036.00    0.96340   0.96716    0.007
 6037.00    1.01594   0.97008    0.007
 6038.00    1.02797   0.97240    0.007
 6039.00    1.03110   0.97374    0.007
 6040.00    0.99820   0.97422    0.007
 6041.00    0.97285   0.97415    0.007
 6042.00    0.97285   0.97368    0.007
 6043.00    0.97538   0.97278    0.007
 6044.00    0.98510   0.97147    0.007
 6045.00    0.99799   0.97029    0.007
 6046.00    1.01857   0.96978    0.007
 6047.00    1.03976   0.97012    0.007
 6048.00    1.06225   0.97157    0.007
 6049.00    1.06858   0.97358    0.007
 6050.00    1.04552   0.97539    0.007
 6051.00    0.99543   0.97692    0.007
 6052.00    0.90241   0.97799    0.007
 6053.00    0.83297   0.97811    0.007
 6054.00    0.79639   0.97721    0.007
 6055.00    0.81832   0.97543    0.007
 6056.00    0.91203   0.97257    0.007
 6057.00    0.97645   0.96862    0.007
 6058.00    1.00919   0.96430    0.007
 6059.00    0.98318   0.96054    0.007
 6060.00    0.90111   0.95763    0.007
 6061.00    0.85922   0.95559    0.007
 6062.00    0.85113   0.95485    0.007
 6063.00    0.85593   0.95514    0.007
 6064.00    0.87028   0.95552    0.007
 6065.00    0.86332   0.95511    0.007
 6066.00    0.84247   0.95370    0.007
 6067.00    0.88334   0.95150    0.007
 6068.00    0.95934   0.94911    0.007
 6069.00    0.99692   0.94720    0.007
 6070.00    1.01544   0.94686    0.007
 6071.00    0.97255   0.94984    0.007
 6072.00    0.90331   0.95583    0.007
 6073.00    0.89709   0.96247    0.007
 6074.00    0.91403   0.96850    0.007
 6075.00    0.92036   0.97363    0.007
 6076.00    0.92339   0.97756    0.007
 6077.00    0.89336   0.97967    0.007
 6078.00    0.85477   0.97939    0.007
 6079.00    0.86427   0.97694    0.007
 6080.00    0.88395   0.97275    0.007
 6081.00    0.86754   0.96708    0.007
 6082.00    0.84508   0.96033    0.007
 6083.00    0.84135   0.95330    0.007
 6084.00    0.83997   0.94733    0.007
 6085.00    0.87915   0.94280    0.007
 6086.00    0.92189   0.93881    0.007
 6087.00    0.95266   0.93566    0.007
 6088.00    0.98280   0.93422    0.007
 6089.00    0.96546   0.93386    0.007
 6090.00    0.94723   0.93369    0.007
 6091.00    0.92647   0.93366    0.007
 6092.00    0.90693   0.93389    0.007
 6093.00    0.91324   0.93397    0.007
 6094.00    0.91630   0.93333    0.007
 6095.00    0.87994   0.93247    0.007
 6096.00    0.84512   0.93256    0.007
 6097.00    0.82307   0.93363    0.007
 6098.00    0.80535   0.93541    0.007
 6099.00    0.81445   0.93799    0.007
 6100.00    0.81865   0.94058    0.007
 6101.00    0.79904   0.94160    0.007
 6102.00    0.78762   0.94059    0.007
 6103.00    0.80866   0.93833    0.007
 6104.00    0.83635   0.93508    0.007
 6105.00    0.88590   0.93024    0.007
 6106.00    0.94082   0.92331    0.007
 6107.00    1.01067   0.91626    0.007
 6108.00    1.05846   0.91332    0.007
 6109.00    1.05369   0.91573    0.007
 6110.00    1.03601   0.92028    0.007
 6111.00    0.99177   0.92465    0.007
 6112.00    0.94626   0.92902    0.007
 6113.00    0.89848   0.93421    0.007
 6114.00    0.88595   0.93967    0.007
 6115.00    0.92860   0.94319    0.007
 6116.00    0.94684   0.94447    0.007
 6117.00    0.93155   0.94535    0.007
 6118.00    0.90719   0.94641    0.007
 6119.00    0.87188   0.94652    0.007
 6120.00    0.86896   0.94441    0.007
 6121.00    0.90059   0.94034    0.007
 6122.00    0.90574   0.93573    0.007
 6123.00    0.88599   0.93064    0.007
 6124.00    0.86141   0.92427    0.007
 6125.00    0.83280   0.91719    0.007
 6126.00    0.83804   0.91085    0.007
 6127.00    0.86800   0.90734    0.007
 6128.00    0.88505   0.90795    0.006
 6129.00    0.89382   0.91081    0.006
 6130.00    0.87149   0.91378    0.007
 6131.00    0.83172   0.91676    0.007
 6132.00    0.79529   0.91994    0.007
 6133.00    0.76050   0.92325    0.007
 6134.00    0.79120   0.92602    0.007
 6135.00    0.84951   0.92698    0.007
 6136.00    0.87108   0.92532    0.007
 6137.00    0.87938   0.92108    0.007
 6138.00    0.90780   0.91460    0.007
 6139.00    0.94236   0.90584    0.007
 6140.00    0.91947   0.89504    0.007
 6141.00    0.88198   0.88428    0.007
 6142.00    0.87141   0.87790    0.007
 6143.00    0.86640   0.87869    0.007
 6144.00    0.90578   0.88418    0.007
 6145.00    0.95238   0.89041    0.007
 6146.00    0.98487   0.89682    0.007
 6147.00    1.01564   0.90510    0.007
 6148.00    0.99639   0.91461    0.007
 6149.00    0.97297   0.92188    0.007
 6150.00    0.96076   0.92524    0.007
 6151.00    0.94910   0.92589    0.006
 6152.00    0.90076   0.92519    0.006
 6153.00    0.85161   0.92355    0.007
 6154.00    0.78632   0.92128    0.006
 6155.00    0.72538   0.91923    0.006
 6156.00    0.74975   0.91799    0.007
 6157.00    0.77548   0.91703    0.007
 6158.00    0.81694   0.91538    0.007
 6159.00    0.85431   0.91257    0.007
 6160.00    0.85907   0.90873    0.007
 6161.00    0.86399   0.90343    0.007
 6162.00    0.86991   0.89587    0.007
 6163.00    0.87216   0.88626    0.007
 6164.00    0.85695   0.87483    0.007
 6165.00    0.83484   0.86173    0.007
 6166.00    0.78599   0.84911    0.007
 6167.00    0.74858   0.84055    0.007
 6168.00    0.74810   0.83754    0.007
 6169.00    0.77133   0.83846    0.007
 6170.00    0.85936   0.84131    0.007
 6171.00    0.91663   0.84567    0.007
 6172.00    0.90184   0.85073    0.007
 6173.00    0.87316   0.85435    0.007
 6174.00    0.81635   0.85670    0.007
 6175.00    0.77342   0.86048    0.007
 6176.00    0.75496   0.86617    0.007
 6177.00    0.74994   0.87171    0.007
 6178.00    0.76567   0.87650    0.007
 6179.00    0.78636   0.88157    0.006
 6180.00    0.81377   0.88701    0.006
 6181.00    0.81702   0.89190    0.006
 6182.00    0.79146   0.89608    0.006
 6183.00    0.77118   0.89981    0.006
 6184.00    0.75647   0.90283    0.006
 6185.00    0.76167   0.90523    0.007
 6186.00    0.78533   0.90723    0.007
 6187.00    0.81491   0.90821    0.007
 6188.00    0.84931   0.90755    0.007
 6189.00    0.88015   0.90503    0.007
 6190.00    0.90841   0.90038    0.007
 6191.00    0.89659   0.89398    0.007
 6192.00    0.85944   0.88713    0.007
 6193.00    0.94158   0.88084    0.007
 6194.00    1.08958   0.87508    0.007
 6195.00    1.40503   0.86969    0.007
 6196.00    1.80088   0.86686   -2.000
 6197.00    1.97395   0.86892   -2.000
 6198.00    2.05466   0.87408   -2.000
 6199.00    1.63546   0.87937   -2.000
 6200.00    1.03907   0.88428   -2.000
 6201.00    0.54647   0.88931   -2.000
 6202.00    0.08492   0.89346   -2.000
 6203.00    0.07891   0.89506   -2.000
 6204.00    0.18605   0.89486   -2.000
 6205.00    0.35818   0.89556   -2.000
 6206.00    0.54340   0.89796   -2.000
 6207.00    0.71700   0.90076   -2.000
 6208.00    0.88876   0.90312    0.007
 6209.00    0.91432   0.90540    0.007
 6210.00    0.92275   0.90781    0.007
 6211.00    0.89857   0.90933    0.006
 6212.00    0.87179   0.90878    0.006
 6213.00    0.87785   0.90594    0.006
 6214.00    0.88534   0.90108    0.006
 6215.00    0.87549   0.89463    0.006
 6216.00    0.86563   0.88687    0.006
 6217.00    0.86443   0.87786    0.006
 6218.00    0.86249   0.86844    0.006
 6219.00    0.84712   0.86026    0.006
 6220.00    0.83540   0.85452    0.006
 6221.00    0.86391   0.85152    0.007
 6222.00    0.88738   0.85032    0.007
 6223.00    0.87184   0.84972    0.007
 6224.00    0.85897   0.85003    0.007
 6225.00    0.86176   0.85210    0.007
 6226.00    0.86411   0.85559    0.007
 6227.00    0.86436   0.85898    0.007
 6228.00    0.85871   0.86109    0.007
 6229.00    0.83066   0.86226    0.007
 6230.00    0.81264   0.86281    0.007
 6231.00    0.82634   0.86205    0.007
 6232.00    0.82952   0.85945    0.007
 6233.00    0.80447   0.85496    0.007
 6234.00    0.77889   0.84936    0.007
 6235.00    0.75207   0.84492    0.006
 6236.00    0.73237   0.84358    0.006
 6237.00    0.72685   0.84509    0.006
 6238.00    0.72658   0.84860    0.006
 6239.00    0.73543   0.85307    0.006
 6240.00    0.74780   0.85715    0.006
 6241.00    0.76549   0.85952    0.006
 6242.00    0.79657   0.85927    0.006
 6243.00    0.84552   0.85656    0.006
 6244.00    0.87931   0.85213    0.006
 6245.00    0.89527   0.84725    0.006
 6246.00    0.90044   0.84245    0.006
 6247.00    0.89442   0.83766    0.006
 6248.00    0.87895   0.83443    0.006
 6249.00    0.85484   0.83366    0.006
 6250.00    0.82949   0.83462    0.007
 6251.00    0.80316   0.83686    0.007
 6252.00    0.76407   0.84005    0.007
 6253.00    0.71595   0.84330    0.007
 6254.00    0.72547   0.84519    0.007
 6255.00    0.77087   0.84452    0.007
 6256.00    0.84141   0.84110    0.007
 6257.00    0.92561   0.83603    0.007
 6258.00    0.98668   0.83056    0.007
 6259.00    1.03682   0.82545    0.007
 6260.00    1.03787   0.82083    0.007
 6261.00    1.01892   0.81723    0.008
 6262.00    0.90975   0.81613    0.008
 6263.00    0.76920   0.81858    0.008
 6264.00    0.63949   0.82411    0.008
 6265.00    0.51297   0.83079    0.008
 6266.00    0.52359   0.83815    0.008
 6267.00    0.56752   0.84616    0.007
 6268.00    0.63734   0.85306    0.007
 6269.00    0.71225   0.85756    0.006
 6270.00    0.74050   0.86065    0.006
 6271.00    0.76162   0.86359    0.006
 6272.00    0.73843   0.86559    0.006
 6273.00    0.71024   0.86597    0.006
 6274.00    0.71200   0.86610    0.006
 6275.00    0.71602   0.86744    0.006
 6276.00    0.75111   0.86959    0.006
 6277.00    0.78746   0.87131    0.006
 6278.00    0.78698   0.87220    0.006
 6279.00    0.78684   0.87268    0.007
 6280.00    0.81179   0.87281    0.000
 6281.00    0.83680   0.87213    0.000
 6282.00    0.86289   0.87057    0.000
 6283.00    0.88778   0.86829    0.000
 6284.00    0.89998   0.86571    0.000
 6285.00    0.90575   0.86410    0.000
 6286.00    0.86339   0.86422    0.000
 6287.00    0.82357   0.86597    0.000
 6288.00    0.79817   0.86889    0.000
 6289.00    0.78027   0.87209    0.000
 6290.00    0.79630   0.87577    0.000
 6291.00    0.81756   0.87987    0.000
 6292.00    0.85824   0.88331    0.000
 6293.00    0.89474   0.88527    0.000
 6294.00    0.91827   0.88509    0.000
 6295.00    0.91977   0.88333    0.000
 6296.00    0.86319   0.88073    0.000
 6297.00    0.80012   0.87743    0.000
 6298.00    0.72235   0.87383    0.000
 6299.00    0.66940   0.86975    0.000
 6300.00    0.66514   0.86465    0.000
 6301.00    0.67879   0.85937    0.000
 6302.00    0.72307   0.85524    0.000
 6303.00    0.76360   0.85254    0.000
 6304.00    0.79852   0.85012    0.000
 6305.00    0.81839   0.84734    0.000
 6306.00    0.81844   0.84607    0.000
 6307.00    0.79780   0.84797    0.000
 6308.00    0.75318   0.85185    0.000
 6309.00    0.71417   0.85564    0.000
 6310.00    0.68091   0.85943    0.000
 6311.00    0.69329   0.86432    0.000
 6312.00    0.74682   0.86919    0.000
 6313.00    0.79581   0.87187    0.000
 6314.00    0.84118   0.87164    0.000
 6315.00    0.85155   0.86962    0.000
 6316.00    0.83745   0.86691    0.000
 6317.00    0.79284   0.86314    0.000
 6318.00    0.72952   0.85744    0.000
 6319.00    0.69726   0.85089    0.000
 6320.00    0.68163   0.84599    0.000
 6321.00    0.67941   0.84247    0.006
 6322.00    0.68341   0.83905    0.006
 6323.00    0.69680   0.83756    0.006
 6324.00    0.71394   0.83965    0.006
 6325.00    0.74694   0.84383    0.006
 6326.00    0.78537   0.84821    0.006
 6327.00    0.78335   0.85334    0.006
 6328.00    0.76971   0.86005    0.006
 6329.00    0.76023   0.86653    0.006
 6330.00    0.75174   0.87114    0.006
 6331.00    0.76003   0.87417    0.006
 6332.00    0.77152   0.87688    0.006
 6333.00    0.74679   0.87891    0.006
 6334.00    0.71667   0.87870    0.006
 6335.00    0.69397   0.87695    0.006
 6336.00    0.67208   0.87504    0.006
 6337.00    0.69285   0.87274    0.006
 6338.00    0.71666   0.86861    0.006
 6339.00    0.75703   0.86242    0.006
 6340.00    0.79800   0.85698    0.006
 6341.00    0.79724   0.85421    0.006
 6342.00    0.79658   0.85277    0.006
 6343.00    0.80520   0.85132    0.006
 6344.00    0.81276   0.85121    0.006
 6345.00    0.80355   0.85288    0.006
 6346.00    0.79602   0.85427    0.006
 6347.00    0.80536   0.85412    0.006
 6348.00    0.81144   0.85359    0.006
 6349.00    0.79398   0.85438    0.006
 6350.00    0.77288   0.85574    0.006
 6351.00    0.73159   0.85695    0.006
 6352.00    0.69465   0.85917    0.006
 6353.00    0.67690   0.86250    0.006
 6354.00    0.66156   0.86552    0.006
 6355.00    0.65498   0.86745    0.006
 6356.00    0.66142   0.86824    0.006
 6357.00    0.70757   0.86724    0.006
 6358.00    0.74298   0.86371    0.006
 6359.00    0.75055   0.85864    0.006
 6360.00    0.75482   0.85357    0.006
 6361.00    0.75178   0.84771    0.006
 6362.00    0.74915   0.84011    0.007
 6363.00    0.74736   0.83258    0.006
 6364.00    0.74973   0.82705    0.006
 6365.00    0.75911   0.82283    0.007
 6366.00    0.77679   0.81934    0.007
 6367.00    0.80671   0.81819    0.007
 6368.00    0.80809   0.82046    0.007
 6369.00    0.77247   0.82502    0.007
 6370.00    0.74131   0.83066    0.006
 6371.00    0.71525   0.83749    0.006
 6372.00    0.70743   0.84530    0.006
 6373.00    0.71797   0.85246    0.006
 6374.00    0.73841   0.85812    0.006
 6375.00    0.76764   0.86315    0.006
 6376.00    0.77811   0.86830    0.006
 6377.00    0.77388   0.87257    0.006
 6378.00    0.75817   0.87500    0.006
 6379.00    0.73455   0.87636    0.006
 6380.00    0.72291   0.87749    0.006
 6381.00    0.71850   0.87771    0.006
 6382.00    0.74519   0.87618    0.006
 6383.00    0.78827   0.87386    0.006
 6384.00    0.77552   0.87186    0.006
 6385.00    0.73725   0.87033    0.006
 6386.00    0.68608   0.86941    0.006
 6387.00    0.62984   0.86904    0.006
 6388.00    0.63140   0.86903    0.006
 6389.00    0.65233   0.86984    0.006
 6390.00    0.70140   0.87159    0.006
 6391.00    0.75840   0.87306    0.006
 6392.00    0.80548   0.87315    0.006
 6393.00    0.85026   0.87230    0.007
 6394.00    0.81653   0.87106    0.007
 6395.00    0.76818   0.86880    0.007
 6396.00    0.79342   0.86469    0.007
 6397.00    0.82923   0.85964    0.007
 6398.00    0.87416   0.85617    0.007
 6399.00    0.92004   0.85479    0.006
 6400.00    0.88846   0.85389    0.006
 6401.00    0.85167   0.85316    0.006
 6402.00    0.79812   0.85301    0.006
 6403.00    0.74402   0.85258    0.006
 6404.00    0.75050   0.85192    0.006
 6405.00    0.75678   0.85333    0.006
 6406.00    0.75669   0.85616    0.006
 6407.00    0.75700   0.85790    0.006
 6408.00    0.76341   0.85919    0.006
 6409.00    0.77202   0.86149    0.006
 6410.00    0.80193   0.86320    0.006
 6411.00    0.82268   0.86212    0.006
 6412.00    0.77944   0.85961    0.006
 6413.00    0.74045   0.85799    0.006
 6414.00    0.72436   0.85625    0.006
 6415.00    0.71542   0.85326    0.006
 6416.00    0.73741   0.85136    0.006
 6417.00    0.74925   0.85195    0.006
 6418.00    0.72499   0.85277    0.006
 6419.00    0.71118   0.85250    0.006
 6420.00    0.72857   0.85237    0.006
 6421.00    0.75095   0.85263    0.006
 6422.00    0.78602   0.85239    0.006
 6423.00    0.80137   0.85119    0.006
 6424.00    0.77352   0.84962    0.006
 6425.00    0.75795   0.84924    0.006
 6426.00    0.76573   0.85134    0.006
 6427.00    0.76589   0.85505    0.006
 6428.00    0.75339   0.85852    0.006
 6429.00    0.72410   0.86191    0.006
 6430.00    0.67042   0.86584    0.006
 6431.00    0.65527   0.86906    0.006
 6432.00    0.68940   0.86967    0.006
 6433.00    0.73463   0.86738    0.006
 6434.00    0.79234   0.86332    0.006
 6435.00    0.81949   0.85942    0.006
 6436.00    0.81627   0.85711    0.006
 6437.00    0.80935   0.85570    0.006
 6438.00    0.79919   0.85448    0.006
 6439.00    0.78597   0.85434    0.006
 6440.00    0.77039   0.85581    0.006
 6441.00    0.75313   0.85722    0.006
 6442.00    0.73474   0.85694    0.006
 6443.00    0.73914   0.85664    0.006
 6444.00    0.75709   0.85871    0.006
 6445.00    0.76019   0.86221    0.006
 6446.00    0.75558   0.86513    0.006
 6447.00    0.73408   0.86805    0.007
 6448.00    0.70497   0.87163    0.007
 6449.00    0.71859   0.87407    0.007
 6450.00    0.74874   0.87365    0.006
 6451.00    0.80389   0.87050    0.006
 6452.00    0.86728   0.86459    0.006
 6453.00    0.91008   0.85638    0.006
 6454.00    0.94721   0.84874    0.006
 6455.00    0.94993   0.84411    0.006
 6456.00    0.94485   0.84155    0.006
 6457.00    0.87875   0.84007    0.006
 6458.00    0.80160   0.84061    0.006
 6459.00    0.72715   0.84335    0.006
 6460.00    0.65307   0.84704    0.006
 6461.00    0.63795   0.85090    0.006
 6462.00    0.62871   0.85400    0.006
 6463.00    0.68183   0.85559    0.006
 6464.00    0.73887   0.85622    0.006
 6465.00    0.78267   0.85578    0.006
 6466.00    0.82599   0.85374    0.006
 6467.00    0.84169   0.85193    0.006
 6468.00    0.85720   0.85200    0.006
 6469.00    0.86726   0.85249    0.006
 6470.00    0.87574   0.85277    0.006
 6471.00    0.86200   0.85462    0.006
 6472.00    0.84946   0.85807    0.007
 6473.00    0.84808   0.86057    0.007
 6474.00    0.83885   0.86129    0.007
 6475.00    0.77651   0.86112    0.006
 6476.00    0.72572   0.86108    0.006
 6477.00    0.73550   0.86130    0.006
 6478.00    0.73473   0.86105    0.006
 6479.00    0.68942   0.86044    0.006
 6480.00    0.65172   0.86071    0.006
 6481.00    0.64055   0.86152    0.006
 6482.00    0.64020   0.86086    0.006
 6483.00    0.67161   0.85896    0.006
 6484.00    0.71044   0.85687    0.006
 6485.00    0.76785   0.85396    0.006
 6486.00    0.81436   0.85018    0.006
 6487.00    0.83741   0.84753    0.006
 6488.00    0.85021   0.84657    0.006
 6489.00    0.84382   0.84585    0.006
 6490.00    0.82269   0.84529    0.006
 6491.00    0.77744   0.84572    0.006
 6492.00    0.75144   0.84593    0.006
 6493.00    0.75303   0.84337    0.006
 6494.00    0.76663   0.83735    0.006
 6495.00    0.79538   0.82894    0.006
 6496.00    0.80058   0.81840    0.006
 6497.00    0.77963   0.80499    0.006
 6498.00    0.74588   0.78999    0.006
 6499.00    0.69959   0.77729    0.006
 6500.00    0.65859   0.76901    0.006
 6501.00    0.62217   0.76460    0.006
 6502.00    0.62510   0.76391    0.006
 6503.00    0.65800   0.76824    0.006
 6504.00    0.69908   0.77757    0.006
 6505.00    0.74565   0.78953    0.006
 6506.00    0.74701   0.80181    0.006
 6507.00    0.72188   0.81312    0.006
 6508.00    0.70580   0.82349    0.006
 6509.00    0.69435   0.83256    0.006
 6510.00    0.68146   0.83947    0.006
 6511.00    0.66792   0.84402    0.006
 6512.00    0.67821   0.84673    0.006
 6513.00    0.69755   0.84857    0.006
 6514.00    0.72881   0.84986    0.006
 6515.00    0.76393   0.85000    0.006
 6516.00    0.75051   0.84904    0.006
 6517.00    0.72399   0.84783    0.006
 6518.00    0.71652   0.84622    0.006
 6519.00    0.71328   0.84358    0.006
 6520.00    0.70866   0.84058    0.006
 6521.00    0.70380   0.83816    0.006
 6522.00    0.68937   0.83617    0.006
 6523.00    0.67365   0.83509    0.006
 6524.00    0.66139   0.83591    0.006
 6525.00    0.64946   0.83795    0.006
 6526.00    0.63126   0.83990    0.006
 6527.00    0.61269   0.84199    0.006
 6528.00    0.64524   0.84455    0.000
 6529.00    0.67889   0.84607    0.000
 6530.00    0.68681   0.84567    0.000
 6531.00    0.69508   0.84452    0.000
 6532.00    0.71251   0.84385    0.000
 6533.00    0.72969   0.84315    0.000
 6534.00    0.74370   0.84178    0.000
 6535.00    0.75708   0.84038    0.000
 6536.00    0.76483   0.83967    0.000
 6537.00    0.77024   0.83960    0.000
 6538.00    0.76039   0.84005    0.000
 6539.00    0.76211   0.84088    0.000
 6540.00    0.82295   0.84164    0.000
 6541.00    0.88260   0.84245    0.000
 6542.00    0.93735   0.84383    0.000
 6543.00    0.97811   0.84534    0.000
 6544.00    0.97105   0.84549    0.000
 6545.00    0.96309   0.84378    0.000
 6546.00    0.95248   0.84111    0.000
 6547.00    0.93890   0.83806    0.000
 6548.00    0.91797   0.83401    0.000
 6549.00    0.88422   0.82854    0.000
 6550.00    0.82324   0.82295    0.000
 6551.00    0.77920   0.81894    0.000
 6552.00    0.76638   0.81625    0.000
 6553.00    0.77127   0.81347    0.000
 6554.00    0.80469   0.81045    0.000
 6555.00    0.88183   0.80797    0.000
 6556.00    1.02074   0.80548    0.000
 6557.00    1.17596   0.80147    0.000
 6558.00    1.35148   0.79542    0.000
 6559.00    1.47157   0.78821    0.000
 6560.00    1.53096   0.78044    0.000
 6561.00    1.50160   0.77085    0.000
 6562.00    1.38648   0.75818    0.000
 6563.00    1.25519   0.74362    0.000
 6564.00    1.11012   0.72845    0.000
 6565.00    1.01679   0.71119    0.000
 6566.00    0.96228   0.69268    0.000
 6567.00    0.90330   0.67986    0.000
 6568.00    0.84137   0.67663    0.000
 6569.00    0.78955   0.67909    0.000
 6570.00    0.74358   0.68566    0.000
 6571.00    0.71931   0.69968    0.000
 6572.00    0.70595   0.71913    0.000
 6573.00    0.70355   0.73697    0.000
 6574.00    0.70591   0.75098    0.000
 6575.00    0.76623   0.76224    0.000
 6576.00    0.84819   0.77038    0.000
 6577.00    0.96554   0.77552    0.000
 6578.00    1.09410   0.77951    0.000
 6579.00    1.13197   0.78359    0.000
 6580.00    1.14586   0.78786    0.000
 6581.00    1.09202   0.79234    0.000
 6582.00    1.02353   0.79707    0.000
 6583.00    0.97712   0.80175    0.000
 6584.00    0.93449   0.80581    0.000
 6585.00    0.89864   0.80894    0.000
 6586.00    0.86367   0.81135    0.000
 6587.00    0.80180   0.81311    0.000
 6588.00    0.73746   0.81421    0.000
 6589.00    0.73807   0.81505    0.000
 6590.00    0.74227   0.81610    0.000
 6591.00    0.73815   0.81709    0.000
 6592.00    0.73398   0.81711    0.000
 6593.00    0.74089   0.81589    0.000
 6594.00    0.74751   0.81394    0.000
 6595.00    0.74733   0.81086    0.000
 6596.00    0.74879   0.80600    0.000
 6597.00    0.77123   0.80095    0.000
 6598.00    0.78889   0.79787    0.000
 6599.00    0.76565   0.79621    0.000
 6600.00    0.74892   0.79514    0.000
 6601.00    0.77368   0.79598    0.000
 6602.00    0.79154   0.79950    0.000
 6603.00    0.77500   0.80416    0.000
 6604.00    0.75592   0.80834    0.000
 6605.00    0.72659   0.81163    0.000
 6606.00    0.69538   0.81404    0.000
 6607.00    0.65782   0.81533    0.000
 6608.00    0.63395   0.81505    0.000
 6609.00    0.64875   0.81327    0.006
 6610.00    0.66681   0.81071    0.006
 6611.00    0.69276   0.80782    0.006
 6612.00    0.69875   0.80477    0.006
 6613.00    0.66314   0.80274    0.006
 6614.00    0.64829   0.80294    0.006
 6615.00    0.67108   0.80461    0.006
 6616.00    0.70000   0.80642    0.006
 6617.00    0.73864   0.80895    0.006
 6618.00    0.73269   0.81310    0.006
 6619.00    0.66467   0.81748    0.006
 6620.00    0.64308   0.82034    0.006
 6621.00    0.67833   0.82225    0.006
 6622.00    0.71902   0.82442    0.006
 6623.00    0.76557   0.82617    0.006
 6624.00    0.76842   0.82638    0.006
 6625.00    0.72966   0.82555    0.006
 6626.00    0.70713   0.82430    0.006
 6627.00    0.69823   0.82216    0.006
 6628.00    0.72028   0.81911    0.006
 6629.00    0.76521   0.81624    0.006
 6630.00    0.78281   0.81380    0.006
 6631.00    0.78266   0.81116    0.006
 6632.00    0.78541   0.80851    0.006
 6633.00    0.78980   0.80646    0.006
 6634.00    0.78366   0.80459    0.006
 6635.00    0.77230   0.80218    0.006
 6636.00    0.76214   0.79923    0.006
 6637.00    0.75251   0.79635    0.006
 6638.00    0.76059   0.79446    0.006
 6639.00    0.77516   0.79386    0.006
 6640.00    0.77059   0.79410    0.006
 6641.00    0.76009   0.79513    0.006
 6642.00    0.78807   0.79699    0.006
 6643.00    0.82602   0.79911    0.006
 6644.00    0.80894   0.80109    0.006
 6645.00    0.78026   0.80248    0.006
 6646.00    0.77223   0.80235    0.006
 6647.00    0.76764   0.80131    0.006
 6648.00    0.74182   0.80121    0.006
 6649.00    0.71335   0.80166    0.006
 6650.00    0.66107   0.80118    0.006
 6651.00    0.60672   0.80081    0.006
 6652.00    0.62793   0.80204    0.006
 6653.00    0.65301   0.80372    0.006
 6654.00    0.74232   0.80443    0.006
 6655.00    0.83084   0.80475    0.006
 6656.00    0.78374   0.80539    0.006
 6657.00    0.73589   0.80579    0.006
 6658.00    0.67240   0.80559    0.006
 6659.00    0.61318   0.80507    0.006
 6660.00    0.60553   0.80437    0.006
 6661.00    0.59931   0.80349    0.006
 6662.00    0.60498   0.80219    0.006
 6663.00    0.61163   0.80012    0.006
 6664.00    0.62426   0.79750    0.006
 6665.00    0.64566   0.79461    0.006
 6666.00    0.70962   0.79103    0.006
 6667.00    0.76312   0.78727    0.007
 6668.00    0.77531   0.78470    0.007
 6669.00    0.78257   0.78317    0.006
 6670.00    0.77366   0.78199    0.006
 6671.00    0.76544   0.78218    0.006
 6672.00    0.75917   0.78442    0.006
 6673.00    0.73950   0.78748    0.006
 6674.00    0.68800   0.79038    0.006
 6675.00    0.66478   0.79323    0.006
 6676.00    0.69962   0.79579    0.006
 6677.00    0.69602   0.79724    0.006
 6678.00    0.62372   0.79726    0.006
 6679.00    0.56542   0.79601    0.006
 6680.00    0.52899   0.79312    0.006
 6681.00    0.56352   0.78880    0.006
 6682.00    0.69538   0.78516    0.006
 6683.00    0.76657   0.78319    0.006
 6684.00    0.76448   0.78154    0.006
 6685.00    0.75042   0.78057    0.006
 6686.00    0.72362   0.78235    0.006
 6687.00    0.70916   0.78609    0.006
 6688.00    0.70627   0.78938    0.006
 6689.00    0.69407   0.79213    0.006
 6690.00    0.67416   0.79498    0.006
 6691.00    0.65499   0.79726    0.006
 6692.00    0.63637   0.79855    0.006
 6693.00    0.63056   0.79925    0.006
 6694.00    0.63294   0.79942    0.006
 6695.00    0.63084   0.79886    0.006
 6696.00    0.62623   0.79788    0.000
 6697.00    0.67493   0.79664    0.000
 6698.00    0.74959   0.79470    0.000
 6699.00    0.81242   0.79197    0.000
 6700.00    0.87026   0.78933    0.000
 6701.00    0.85092   0.78736    0.000
 6702.00    0.80378   0.78571    0.000
 6703.00    0.76162   0.78446    0.000
 6704.00    0.72096   0.78427    0.000
 6705.00    0.71289   0.78485    0.000
 6706.00    0.71308   0.78537    0.000
 6707.00    0.69204   0.78568    0.000
 6708.00    0.66664   0.78592    0.000
 6709.00    0.75440   0.78608    0.000
 6710.00    0.86048   0.78582    0.000
 6711.00    0.86810   0.78528    0.000
 6712.00    0.86379   0.78490    0.000
 6713.00    0.87006   0.78443    0.000
 6714.00    0.87720   0.78338    0.000
 6715.00    0.91889   0.78176    0.000
 6716.00    0.96221   0.77943    0.000
 6717.00    0.91408   0.77619    0.000
 6718.00    0.86406   0.77264    0.000
 6719.00    0.78072   0.76905    0.000
 6720.00    0.70222   0.76515    0.000
 6721.00    0.71786   0.76190    0.000
 6722.00    0.73455   0.76068    0.000
 6723.00    0.76318   0.76098    0.000
 6724.00    0.79640   0.76176    0.000
 6725.00    0.86619   0.76366    0.000
 6726.00    0.91855   0.76736    0.000
 6727.00    0.86638   0.77123    0.000
 6728.00    0.81400   0.77372    0.000
 6729.00    0.76059   0.77543    0.000
 6730.00    0.71765   0.77754    0.000
 6731.00    0.71521   0.77940    0.000
 6732.00    0.70975   0.78016    0.000
 6733.00    0.69459   0.78057    0.000
 6734.00    0.68229   0.78160    0.000
 6735.00    0.67776   0.78263    0.000
 6736.00    0.67522   0.78295    0.000
 6737.00    0.67730   0.78294    0.000
 6738.00    0.68840   0.78283    0.000
 6739.00    0.71773   0.78228    0.000
 6740.00    0.72121   0.78104    0.000
 6741.00    0.67924   0.77933    0.000
 6742.00    0.64491   0.77747    0.000
 6743.00    0.62235   0.77579    0.000
 6744.00    0.63414   0.77412    0.000
 6745.00    0.69238   0.77211    0.000
 6746.00    0.71932   0.77018    0.000
 6747.00    0.70900   0.76915    0.000
 6748.00    0.71118   0.76858    0.000
 6749.00    0.72648   0.76735    0.000
 6750.00    0.74259   0.76594    0.000
 6751.00    0.75944   0.76522    0.000
 6752.00    0.76451   0.76453    0.000
 6753.00    0.75997   0.76327    0.007
 6754.00    0.75418   0.76245    0.008
 6755.00    0.74749   0.76226    0.008
 6756.00    0.71810   0.76213    0.008
 6757.00    0.67439   0.76270    0.008
 6758.00    0.67633   0.76456    0.008
 6759.00    0.70343   0.76674    0.008
 6760.00    0.70058   0.76901    0.008
 6761.00    0.68336   0.77221    0.008
 6762.00    0.66019   0.77563    0.008
 6763.00    0.63454   0.77847    0.008
 6764.00    0.67426   0.78080    0.008
 6765.00    0.73709   0.78254    0.008
 6766.00    0.80128   0.78334    0.008
 6767.00    0.86588   0.78320    0.008
 6768.00    0.91354   0.78215    0.008
 6769.00    0.95699   0.78011    0.008
 6770.00    0.92285   0.77744    0.008
 6771.00    0.87312   0.77477    0.007
 6772.00    0.78001   0.77258    0.007
 6773.00    0.68008   0.77058    0.007
 6774.00    0.69598   0.76880    0.007
 6775.00    0.72539   0.76845    0.007
 6776.00    0.73032   0.76991    0.007
 6777.00    0.73331   0.77186    0.007
 6778.00    0.79905   0.77390    0.007
 6779.00    0.86752   0.77678    0.008
 6780.00    0.79973   0.78001    0.008
 6781.00    0.73061   0.78256    0.008
 6782.00    0.66599   0.78422    0.008
 6783.00    0.60516   0.78487    0.008
 6784.00    0.61300   0.78404    0.008
 6785.00    0.62813   0.78196    0.008
 6786.00    0.72293   0.77895    0.008
 6787.00    0.80300   0.77509    0.008
 6788.00    0.76972   0.77108    0.008
 6789.00    0.74281   0.76752    0.008
 6790.00    0.75305   0.76479    0.008
 6791.00    0.75569   0.76345    0.008
 6792.00    0.72313   0.76337    0.008
 6793.00    0.69724   0.76394    0.008
 6794.00    0.69656   0.76525    0.007
 6795.00    0.70398   0.76684    0.007
 6796.00    0.73698   0.76746    0.007
 6797.00    0.76688   0.76746    0.007
 6798.00    0.78851   0.76768    0.007
 6799.00    0.80015   0.76755    0.008
 6800.00    0.78884   0.76688    0.008
 6801.00    0.79140   0.76669    0.008
 6802.00    0.82153   0.76716    0.008
 6803.00    0.80656   0.76771    0.008
 6804.00    0.71345   0.76858    0.008
 6805.00    0.60969   0.76967    0.008
 6806.00    0.48975   0.77037    0.008
 6807.00    0.50075   0.77072    0.008
 6808.00    0.68627   0.77117    0.008
 6809.00    0.78964   0.77123    0.008
 6810.00    0.79656   0.77047    0.008
 6811.00    0.82333   0.76980    0.008
 6812.00    0.87063   0.76948    0.008
 6813.00    0.86466   0.76861    0.008
 6814.00    0.81008   0.76763    0.008
 6815.00    0.74805   0.76741    0.008
 6816.00    0.68002   0.76712    0.008
 6817.00    0.70816   0.76637    0.008
 6818.00    0.80439   0.76603    0.008
 6819.00    0.83292   0.76640    0.007
 6820.00    0.81940   0.76688    0.007
 6821.00    0.76266   0.76711    0.007
 6822.00    0.68247   0.76746    0.007
 6823.00    0.62117   0.76837    0.007
 6824.00    0.56878   0.76957    0.007
 6825.00    0.54571   0.77062    0.008
 6826.00    0.53457   0.77151    0.008
 6827.00    0.52293   0.77226    0.008
 6828.00    0.51112   0.77305    0.008
 6829.00    0.52836   0.77373    0.008
 6830.00    0.55410   0.77370    0.008
 6831.00    0.66426   0.77278    0.008
 6832.00    0.79488   0.77178    0.008
 6833.00    0.80924   0.77118    0.008
 6834.00    0.80085   0.77044    0.008
 6835.00    0.80221   0.76946    0.008
 6836.00    0.80505   0.76911    0.008
 6837.00    0.77938   0.76950    0.008
 6838.00    0.75051   0.76966    0.008
 6839.00    0.76080   0.76887    0.008
 6840.00    0.77403   0.76734    0.008
 6841.00    0.72704   0.76530    0.008
 6842.00    0.67765   0.76230    0.008
 6843.00    0.73223   0.75827    0.008
 6844.00    0.78575   0.75395    0.008
 6845.00    0.76927   0.75012    0.008
 6846.00    0.74940   0.74729    0.008
 6847.00    0.67231   0.74595    0.008
 6848.00    0.60377   0.74614    0.008
 6849.00    0.62463   0.74772    0.008
 6850.00    0.64405   0.75059    0.008
 6851.00    0.65269   0.75419    0.008
 6852.00    0.65790   0.75759    0.008
 6853.00    0.64363   0.76019    0.008
 6854.00    0.65185   0.76186    0.008
 6855.00    0.76155   0.76256    0.008
 6856.00    0.83612   0.76229    0.008
 6857.00    0.78060   0.76067    0.008
 6858.00    0.71869   0.75793    0.008
 6859.00    0.63700   0.75533    0.008
 6860.00    0.57475   0.75293    0.008
 6861.00    0.56364   0.74991    0.008
 6862.00    0.57273   0.74739    0.007
 6863.00    0.62747   0.74632    0.008
 6864.00    0.71530   0.74548    0.008
 6865.00    0.86791   0.74492    0.008
 6866.00    0.95282   0.74581    0.008
 6867.00    0.92220   0.74709    0.008
 6868.00    0.85286   0.74767    0.008
 6869.00    0.72562   0.74858    0.008
 6870.00    0.63860   0.74968    0.008
 6871.00    0.60440   0.74972    0.008
 6872.00    0.64238   0.74929    0.008
 6873.00    0.76389   0.74913    0.008
 6874.00    0.76665   0.74836    0.008
 6875.00    0.64821   0.74709    0.008
 6876.00    0.58836   0.74691    0.008
 6877.00    0.58126   0.74753    0.008
 6878.00    0.57873   0.74761    0.008
 6879.00    0.57982   0.74783    0.008
 6880.00    0.57655   0.74918    0.008
 6881.00    0.57024   0.75062    0.008
 6882.00    0.60544   0.75118    0.008
 6883.00    0.66604   0.75171    0.008
 6884.00    0.75978   0.75236    0.008
 6885.00    0.87122   0.75211    0.008
 6886.00    0.84571   0.75131    0.008
 6887.00    0.75665   0.75123    0.008
 6888.00    0.67503   0.75137    0.008
 6889.00    0.59636   0.75119    0.008
 6890.00    0.63683   0.75224    0.008
 6891.00    0.71790   0.75476    0.008
 6892.00    0.68939   0.75700    0.008
 6893.00    0.62946   0.75910    0.008
 6894.00    0.62909   0.76197    0.008
 6895.00    0.64283   0.76431    0.008
 6896.00    0.57808   0.76542    0.008
 6897.00    0.49837   0.76635    0.008
 6898.00    0.51039   0.76680    0.008
 6899.00    0.53597   0.76615    0.008
 6900.00    0.56275   0.76551    0.008
 6901.00    0.58965   0.76532    0.008
 6902.00    0.58094   0.76473    0.008
 6903.00    0.56971   0.76403    0.008
 6904.00    0.68326   0.76424    0.008
 6905.00    0.80128   0.76492    0.008
 6906.00    0.74658   0.76519    0.008
 6907.00    0.69159   0.76546    0.008
 6908.00    0.64610   0.76625    0.008
 6909.00    0.60208   0.76713    0.008
 6910.00    0.58113   0.76772    0.008
 6911.00    0.55994   0.76806    0.008
 6912.00    0.53624   0.76835    0.008
 6913.00    0.52910   0.76836    0.008
 6914.00    0.64088   0.76770    0.018
 6915.00    0.73043   0.76649   -1.000
 6916.00    0.69730   0.76482   -1.000
 6917.00    0.65799   0.76255   -1.000
 6918.00    0.59143   0.76033   -1.000
 6919.00    0.53784   0.75859   -1.000
 6920.00    0.53125   0.75688   -1.000
 6921.00    0.53937   0.75588   -1.000
 6922.00    0.59218   0.75623   -1.000
 6923.00    0.64255   0.75698   -1.000
 6924.00    0.68661   0.75764   -1.000
 6925.00    0.71504   0.75864    0.051
 6926.00    0.70873   0.75936    0.012
 6927.00    0.70814   0.75892    0.008
 6928.00    0.71857   0.75783    0.008
 6929.00    0.69632   0.75666    0.008
 6930.00    0.61917   0.75547    0.008
 6931.00    0.61082   0.75419    0.008
 6932.00    0.70380   0.75324    0.008
 6933.00    0.74664   0.75320    0.008
 6934.00    0.72458   0.75377    0.008
 6935.00    0.69845   0.75421    0.008
 6936.00    0.66769   0.75441    0.008
 6937.00    0.64691   0.75511    0.008
 6938.00    0.63615   0.75605    0.008
 6939.00    0.57180   0.75636    0.008
 6940.00    0.45991   0.75663    0.008
 6941.00    0.44725   0.75758    0.008
 6942.00    0.51217   0.75862    0.008
 6943.00    0.53618   0.75918    0.008
 6944.00    0.53206   0.75951    0.008
 6945.00    0.54529   0.75946    0.008
 6946.00    0.56899   0.75879    0.008
 6947.00    0.60782   0.75744    0.008
 6948.00    0.65461   0.75540    0.008
 6949.00    0.64913   0.75365    0.008
 6950.00    0.61980   0.75240    0.008
 6951.00    0.60867   0.75105    0.008
 6952.00    0.60469   0.75030    0.008
 6953.00    0.64886   0.75045    0.008
 6954.00    0.70915   0.75032    0.008
 6955.00    0.75198   0.75009    0.008
 6956.00    0.78992   0.75036    0.008
 6957.00    0.66490   0.75023    0.008
 6958.00    0.50217   0.74986    0.008
 6959.00    0.53358   0.75035    0.008
 6960.00    0.60104   0.75126    0.008
 6961.00    0.62978   0.75211    0.008
 6962.00    0.65298   0.75363    0.008
 6963.00    0.63412   0.75559    0.008
 6964.00    0.61090   0.75734    0.008
 6965.00    0.64376   0.75882    0.008
 6966.00    0.68036   0.76016    0.008
 6967.00    0.73024   0.76136    0.008
 6968.00    0.78052   0.76205    0.008
 6969.00    0.73741   0.76225    0.008
 6970.00    0.69470   0.76274    0.008
 6971.00    0.66392   0.76334    0.008
 6972.00    0.63051   0.76339    0.008
 6973.00    0.55793   0.76326    0.008
 6974.00    0.50020   0.76308    0.008
 6975.00    0.58500   0.76254    0.008
 6976.00    0.64968   0.76145    0.008
 6977.00    0.57433   0.75920    0.008
 6978.00    0.52120   0.75584    0.008
 6979.00    0.58732   0.75218    0.008
 6980.00    0.64111   0.74780    0.008
 6981.00    0.64176   0.74209    0.008
 6982.00    0.64278   0.73716    0.008
 6983.00    0.64512   0.73465    0.008
 6984.00    0.66359   0.73317    0.008
 6985.00    0.73014   0.73286    0.008
 6986.00    0.76276   0.73553    0.008
 6987.00    0.70917   0.74016    0.008
 6988.00    0.68654   0.74462    0.008
 6989.00    0.73159   0.74904    0.008
 6990.00    0.74894   0.75364    0.008
 6991.00    0.71377   0.75695    0.008
 6992.00    0.66728   0.75850    0.008
 6993.00    0.60206   0.75945    0.008
 6994.00    0.57446   0.76012    0.008
 6995.00    0.60148   0.76017    0.008
 6996.00    0.59050   0.75995    0.008
 6997.00    0.53102   0.75993    0.008
 6998.00    0.52422   0.75995    0.008
 6999.00    0.57667   0.75959    0.008
 7000.00    0.60862   0.75884    0.008
 7001.00    0.62022   0.75774    0.008
 7002.00    0.64429   0.75599    0.008
 7003.00    0.67926   0.75371    0.008
 7004.00    0.66957   0.75157    0.008
 7005.00    0.62546   0.74955    0.008
 7006.00    0.61238   0.74727    0.008
 7007.00    0.62034   0.74532    0.008
 7008.00    0.59893   0.74432    0.008
 7009.00    0.56008   0.74361    0.008
 7010.00    0.50905   0.74293    0.008
 7011.00    0.45171   0.74298    0.008
 7012.00    0.51598   0.74381    0.008
 7013.00    0.63484   0.74453    0.008
 7014.00    0.65256   0.74484    0.008
 7015.00    0.63125   0.74514    0.008
 7016.00    0.62631   0.74520    0.008
 7017.00    0.62675   0.74447    0.008
 7018.00    0.63718   0.74276    0.008
 7019.00    0.65036   0.74039    0.008
 7020.00    0.63082   0.73856    0.008
 7021.00    0.60387   0.73759    0.008
 7022.00    0.58281   0.73658    0.008
 7023.00    0.56281   0.73629    0.008
 7024.00    0.58726   0.73780    0.008
 7025.00    0.61786   0.73943    0.008
 7026.00    0.62771   0.73986    0.008
 7027.00    0.63550   0.74034    0.008
 7028.00    0.58516   0.74123    0.008
 7029.00    0.53117   0.74132    0.008
 7030.00    0.56576   0.74087    0.009
 7031.00    0.60209   0.74123    0.009
 7032.00    0.43507   0.74242    0.009
 7033.00    0.27550   0.74373    0.008
 7034.00    0.32043   0.74516    0.008
 7035.00    0.37268   0.74684    0.008
 7036.00    0.52788   0.74849    0.008
 7037.00    0.67453   0.74941    0.008
 7038.00    0.74229   0.74962    0.008
 7039.00    0.78777   0.75007    0.008
 7040.00    0.68306   0.75024    0.008
 7041.00    0.59082   0.74952    0.008
 7042.00    0.56380   0.74983    0.008
 7043.00    0.55874   0.75167    0.008
 7044.00    0.64610   0.75320    0.008
 7045.00    0.68603   0.75518    0.008
 7046.00    0.56097   0.75895    0.008
 7047.00    0.49260   0.76258    0.008
 7048.00    0.59015   0.76503    0.008
 7049.00    0.65010   0.76771    0.009
 7050.00    0.61620   0.77014   -2.000
 7051.00    0.59937   0.77109   -2.000
 7052.00    0.61924   0.77109   -2.000
 7053.00    0.65347   0.77050   -2.000
 7054.00    0.71453   0.76869   -2.000
 7055.00    0.76760   0.76521   -2.000
 7056.00    0.80764   0.76051   -2.000
 7057.00    0.77115   0.75527   -2.000
 7058.00    0.62520   0.74935   -2.000
 7059.00    0.58167   0.74309   -2.000
 7060.00    0.66702   0.73767   -2.000
 7061.00    0.66980   0.73327   -2.000
 7062.00    0.58103   0.72932   -2.000
 7063.00    0.61107   0.72613   -2.000
 7064.00    0.75733   0.72419   -2.000
 7065.00    0.85145   0.72257   -2.000
 7066.00    0.90061   0.72079   -2.000
 7067.00    0.91980   0.71976   -2.000
 7068.00    0.91624   0.71912   -2.000
 7069.00    0.86276   0.71785   -2.000
 7070.00    0.77596   0.71659   -2.000
 7071.00    0.79734   0.71562   -2.000
 7072.00    0.88199   0.71461   -2.000
 7073.00    0.84147   0.71419   -2.000
 7074.00    0.73713   0.71444   -2.000
 7075.00    0.73684   0.71521   -2.000
 7076.00    0.78249   0.71718   -2.000
 7077.00    0.73598   0.71992   -2.000
 7078.00    0.65452   0.72235   -2.000
 7079.00    0.59392   0.72476   -2.000
 7080.00    0.54005   0.72732   -2.000
 7081.00    0.52818   0.72911   -2.000
 7082.00    0.52761   0.72987   -2.000
 7083.00    0.48605   0.73013   -2.000
 7084.00    0.43543   0.72966   -2.000
 7085.00    0.54038   0.72783   -2.000
 7086.00    0.67268   0.72474   -2.000
 7087.00    0.69276   0.72055   -2.000
 7088.00    0.69782   0.71555   -2.000
 7089.00    0.69018   0.71018   -2.000
 7090.00    0.68133   0.70425   -2.000
 7091.00    0.59122   0.69866   -2.000
 7092.00    0.49634   0.69439   -2.000
 7093.00    0.58802   0.69059   -2.000
 7094.00    0.68421   0.68738   -2.000
 7095.00    0.76990   0.68557   -2.000
 7096.00    0.84927   0.68432   -2.000
 7097.00    0.77162   0.68357   -2.000
 7098.00    0.69581   0.68372   -2.000
 7099.00    0.64445   0.68427   -2.000
 7100.00    0.60901   0.68517   -2.000
 7101.00    0.71458   0.68666   -2.000
 7102.00    0.77931   0.68853   -2.000
 7103.00    0.57727   0.69033   -2.000
 7104.00    0.41294   0.69218   -2.000
 7105.00    0.44069   0.69406   -2.000
 7106.00    0.49787   0.69548   -2.000
 7107.00    0.67618   0.69661   -2.000
 7108.00    0.69680   0.69746   -2.000
 7109.00    0.17991   0.69766   -2.000
 7110.00   -0.08899   0.69737   -2.000
 7111.00    0.35467   0.69700   -2.000
 7112.00    0.62284   0.69621   -2.000
 7113.00    0.46044   0.69464   -2.000
 7114.00    0.41560   0.69300   -2.000
 7115.00    0.61954   0.69186   -2.000
 7116.00    0.73174   0.69076   -2.000
 7117.00    0.67526   0.68966   -2.000
 7118.00    0.63896   0.68929   -2.000
 7119.00    0.63508   0.68977   -2.000
 7120.00    0.71103   0.69030   -2.000
 7121.00    0.89953   0.69069   -2.000
 7122.00    0.94655   0.69130   -2.000
 7123.00    0.81811   0.69175   -2.000
 7124.00    0.75225   0.69161   -2.000
 7125.00    0.75480   0.69087   -2.000
 7126.00    0.85214   0.69017   -2.000
 7127.00    1.04086   0.68945   -2.000
 7128.00    0.96835   0.68786   -2.000
 7129.00    0.67368   0.68620   -2.000
 7130.00    0.55137   0.68493   -2.000
 7131.00    0.55815   0.68319   -2.000
 7132.00    0.53795   0.68096   -2.000
 7133.00    0.50001   0.67883   -2.000
 7134.00    0.54349   0.67725   -2.000
 7135.00    0.63388   0.67618   -2.000
 7136.00    0.64009   0.67536   -2.000
 7137.00    0.60407   0.67558   -2.000
 7138.00    0.53209   0.67713   -2.000
 7139.00    0.44451   0.67909   -2.000
 7140.00    0.41922   0.68161   -2.000
 7141.00    0.41713   0.68432   -2.000
 7142.00    0.40413   0.68628   -2.000
 7143.00    0.38767   0.68822   -2.000
 7144.00    0.55222   0.68988   -2.000
 7145.00    0.76451   0.69011   -2.000
 7146.00    0.69184   0.68998   -2.000
 7147.00    0.55776   0.69008   -2.000
 7148.00    0.58295   0.68907   -2.000
 7149.00    0.63537   0.68759   -2.000
 7150.00    0.66020   0.68619   -2.000
 7151.00    0.68146   0.68406   -2.000
 7152.00   -0.49001   0.68252   -2.000
 7153.00   -1.76978   0.68170   -2.000
 7154.00   -0.47885   0.68057   -2.000
 7155.00    0.95276   0.68095   -2.000
 7156.00    0.75939   0.68312   -2.000
 7157.00    0.53570   0.68504   -2.000
 7158.00    0.65106   0.68710   -2.000
 7159.00    0.75976   0.69016   -2.000
 7160.00    0.71726   0.69281   -2.000
 7161.00    0.71493   0.69394   -2.000
 7162.00    1.21856   0.69470   -2.000
 7163.00    1.63357   0.69535   -2.000
 7164.00    1.29248   0.69455   -2.000
 7165.00    0.97171   0.69288   -2.000
 7166.00    0.77977   0.69109   -2.000
 7167.00    0.64674   0.68863   -2.000
 7168.00    0.80627   0.68629   -2.000
 7169.00    0.92094   0.68483   -2.000
 7170.00    0.85502   0.68364   -2.000
 7171.00    0.80122   0.68339   -2.000
 7172.00    0.78790   0.68502   -2.000
 7173.00    0.70075   0.68763   -2.000
 7174.00    0.40534   0.69062   -2.000
 7175.00    0.28706   0.69392   -2.000
 7176.00    0.59605   0.69692   -2.000
 7177.00    0.81166   0.69938   -2.000
 7178.00    0.83280   0.70101   -2.000
 7179.00    0.86680   0.70130   -2.000
 7180.00    0.92410   0.70084   -2.000
 7181.00    0.91453   0.69983   -2.000
 7182.00    0.79912   0.69768   -2.000
 7183.00    0.69869   0.69522   -2.000
 7184.00    0.61908   0.69322   -2.000
 7185.00    0.63107   0.69115   -2.000
 7186.00    0.75507   0.68902   -2.000
 7187.00    0.79274   0.68714   -2.000
 7188.00    0.73736   0.68590   -2.000
 7189.00    0.64982   0.68509   -2.000
 7190.00    0.53170   0.68350   -2.000
 7191.00    0.58787   0.68175   -2.000
 7192.00    0.79016   0.68037   -2.000
 7193.00    0.85379   0.67839   -2.000
 7194.00    0.81509   0.67682   -2.000
 7195.00    0.71135   0.67619   -2.000
 7196.00    0.56545   0.67578   -2.000
 7197.00    0.54563   0.67631   -2.000
 7198.00    0.59733   0.67766   -2.000
 7199.00    0.63469   0.67877   -2.000
 7200.00    0.66497   0.68009   -2.000
 7201.00    0.88646   0.68224   -2.000
 7202.00    1.18961   0.68389   -2.000
 7203.00    1.03440   0.68467   -2.000
 7204.00    0.71149   0.68591   -2.000
 7205.00    0.57830   0.68702   -2.000
 7206.00    0.50388   0.68727   -2.000
 7207.00    0.49472   0.68720   -2.000
 7208.00    0.50240   0.68670   -2.000
 7209.00    0.63599   0.68560   -2.000
 7210.00    0.79607   0.68414   -2.000
 7211.00    0.83584   0.68273   -2.000
 7212.00    0.85564   0.68104   -2.000
 7213.00    0.97367   0.67930   -2.000
 7214.00    1.10397   0.67905   -2.000
 7215.00    0.92715   0.67962   -2.000
 7216.00    0.72373   0.68029   -2.000
 7217.00    0.85484   0.68204   -2.000
 7218.00    1.00295   0.68385   -2.000
